%OpenBCI Raw EXG Data
%Number of channels = 4
%Sample Rate = 200 Hz
%Board = OpenBCI_GUI$BoardGanglionBLE
Sample Index, EXG Channel 0, EXG Channel 1, EXG Channel 2, EXG Channel 3, Accel Channel 0, Accel Channel 1, Accel Channel 2, Other, Other, Other, Other, Other, Timestamp, Marker Channel, Timestamp (Formatted)
26.0, 95.66664086654782, 86.4477874757722, 57.59445931762457, 56.26679483335465, 0.0, 0.0, 0.0, 0.0, 0.0, 0.0, 0.0, 0.0, 1.7632280191255047E9, 0.0, 2025-11-15 12:33:39.125
26.0, 176.12684851326048, 167.60735641419888, 139.98445534147322, 132.38871853146702, 0.0, 0.0, 0.0, 0.0, 0.0, 0.0, 0.0, 0.0, 1.7632280191255047E9, 0.0, 2025-11-15 12:33:39.125
0.0, -258.24757174029946, -171.5398612176068, -198.34559415001422, -168.16647145757452, 0.0, 0.0, 0.0, 0.0, 0.0, 0.0, 0.0, 0.0, 1.7632280191553075E9, 0.0, 2025-11-15 12:33:39.155
1.0, -94.46613298077136, -34.221954544540495, -92.74203910119832, -69.63132732501253, 0.0, 0.20800000987946987, 0.0, 0.0, 0.0, 0.0, 0.0, 0.0, 1.7632280191687217E9, 0.0, 2025-11-15 12:33:39.168
1.0, -154.79445916600525, -79.36254700971767, -104.25719106476754, -78.50610991986468, 0.0, 0.20800000987946987, 0.0, 0.0, 0.0, 0.0, 0.0, 0.0, 1.7632280191687217E9, 0.0, 2025-11-15 12:33:39.168
2.0, -269.48597110714763, -178.8476257310249, -193.00501701328903, -165.44008438987657, -0.03200000151991844, 0.20800000987946987, 0.0, 0.0, 0.0, 0.0, 0.0, 0.0, 1.7632280191854331E9, 0.0, 2025-11-15 12:33:39.185
2.0, -169.64560189004987, -108.60108486330137, -145.26145417895168, -114.11369739798829, -0.03200000151991844, 0.20800000987946987, 0.0, 0.0, 0.0, 0.0, 0.0, 0.0, 1.7632280191854331E9, 0.0, 2025-11-15 12:33:39.185
3.0, -94.39881478156894, -27.785586720798165, -72.31844544317573, -45.5575913102366, -0.03200000151991844, 0.20800000987946987, 0.0, 0.0, 0.0, 0.0, 0.0, 0.0, 1.7632280191861656E9, 0.0, 2025-11-15 12:33:39.186
3.0, -277.6127737108618, -184.64073076238856, -200.44741792511195, -163.56639451207593, -0.03200000151991844, 0.20800000987946987, 0.0, 0.0, 0.0, 0.0, 0.0, 0.0, 1.7632280191861656E9, 0.0, 2025-11-15 12:33:39.186
4.0, -230.33295847103, -153.35646763304248, -185.47659840248525, -152.48133104341105, -0.03200000151991844, 0.20800000987946987, 0.0, 0.0, 0.0, 0.0, 0.0, 0.0, 1.7632280191985376E9, 0.0, 2025-11-15 12:33:39.198
4.0, -64.73018843308091, -0.11032704869285226, -63.19682945124805, -40.677021868061274, -0.03200000151991844, 0.20800000987946987, 0.0, 0.0, 0.0, 0.0, 0.0, 0.0, 1.7632280191985376E9, 0.0, 2025-11-15 12:33:39.198
5.0, -237.97731398046017, -146.33293551625684, -166.99027292151004, -136.18658693647012, -0.03200000151991844, 0.20800000987946987, 0.0, 0.0, 0.0, 0.0, 0.0, 0.0, 1.7632280192142227E9, 0.0, 2025-11-15 12:33:39.214
5.0, -263.8649014737457, -179.00844142911956, -204.8754594726488, -168.77233525039628, -0.03200000151991844, 0.20800000987946987, 0.0, 0.0, 0.0, 0.0, 0.0, 0.0, 1.7632280192142227E9, 0.0, 2025-11-15 12:33:39.214
6.0, -102.26382438838482, -34.569765240419656, -95.90225456375629, -73.39740658039227, -0.03200000151991844, 0.20800000987946987, 0.0, 0.0, 0.0, 0.0, 0.0, 0.0, 1.763228019214926E9, 0.0, 2025-11-15 12:33:39.214
6.0, -160.60626369714737, -76.3855866449885, -103.41197367478162, -77.9825239260681, -0.03200000151991844, 0.20800000987946987, 0.0, 0.0, 0.0, 0.0, 0.0, 0.0, 1.763228019214926E9, 0.0, 2025-11-15 12:33:39.214
7.0, -268.6108345175162, -181.35335870133713, -203.0204690946266, -164.73698319820687, -0.03200000151991844, 0.20800000987946987, 0.0, 0.0, 0.0, 0.0, 0.0, 0.0, 1.7632280192285702E9, 0.0, 2025-11-15 12:33:39.228
7.0, -172.68240065407008, -103.4774219240062, -148.82557883672416, -114.7793995901011, -0.03200000151991844, 0.20800000987946987, 0.0, 0.0, 0.0, 0.0, 0.0, 0.0, 1.7632280192285702E9, 0.0, 2025-11-15 12:33:39.228
8.0, -87.1546285673976, -22.78534048004076, -73.2571603320539, -47.01241239299998, -0.03200000151991844, 0.20800000987946987, 0.0, 0.0, 0.0, 0.0, 0.0, 0.0, 1.763228019244287E9, 0.0, 2025-11-15 12:33:39.244
8.0, -266.44917234312743, -171.47628291836008, -187.6831393763423, -151.37432065652683, -0.03200000151991844, 0.20800000987946987, 0.0, 0.0, 0.0, 0.0, 0.0, 0.0, 1.763228019244287E9, 0.0, 2025-11-15 12:33:39.244
9.0, -240.83459754660726, -159.74421675736085, -182.78387043438852, -145.69341262383386, -0.03200000151991844, 0.20800000987946987, 0.0, 0.0, 0.0, 0.0, 0.0, 0.0, 1.763228019244934E9, 0.0, 2025-11-15 12:33:39.244
9.0, -57.01103492453694, 0.843347440008074, -60.64995758142322, -43.56422463385388, -0.03200000151991844, 0.20800000987946987, 0.0, 0.0, 0.0, 0.0, 0.0, 0.0, 1.763228019244934E9, 0.0, 2025-11-15 12:33:39.244
10.0, -232.54697924479842, -138.2734511117451, -160.53520559798926, -129.03589822119102, -0.03200000151991844, 0.20800000987946987, 1.0240000486373901, 0.0, 0.0, 0.0, 0.0, 0.0, 1.7632280192585428E9, 0.0, 2025-11-15 12:33:39.258
10.0, -262.4586990904063, -174.71877617994323, -196.69629826955497, -150.057875872124, -0.03200000151991844, 0.20800000987946987, 1.0240000486373901, 0.0, 0.0, 0.0, 0.0, 0.0, 1.7632280192585428E9, 0.0, 2025-11-15 12:33:39.258
11.0, -99.09986902587116, -38.4443015945144, -100.58834920823574, -75.88444005092606, -0.03200000151991844, 0.09600000455975533, 1.0240000486373901, 0.0, 0.0, 0.0, 0.0, 0.0, 1.7632280192742026E9, 0.0, 2025-11-15 12:33:39.274
11.0, -150.13080392125994, -80.28256239881739, -115.86584052722901, -88.93295099632815, -0.03200000151991844, 0.09600000455975533, 1.0240000486373901, 0.0, 0.0, 0.0, 0.0, 0.0, 1.7632280192742026E9, 0.0, 2025-11-15 12:33:39.274
12.0, -258.4233470382169, -175.46675617108122, -201.3188146147877, -169.9466638364829, -0.01600000075995922, 0.09600000455975533, 1.0240000486373901, 0.0, 0.0, 0.0, 0.0, 0.0, 1.7632280192749405E9, 0.0, 2025-11-15 12:33:39.274
12.0, -176.32880311086774, -100.64631765754893, -150.38885701820254, -127.2295265425928, -0.01600000075995922, 0.09600000455975533, 1.0240000486373901, 0.0, 0.0, 0.0, 0.0, 0.0, 1.7632280192749405E9, 0.0, 2025-11-15 12:33:39.274
13.0, -92.51764510385692, -24.172843363601714, -73.34691793099046, -58.17601376073435, -0.01600000075995922, 0.09600000455975533, 1.0240000486373901, 0.0, 0.0, 0.0, 0.0, 0.0, 1.7632280192886212E9, 0.0, 2025-11-15 12:33:39.288
13.0, -274.2431238507852, -179.1430778275244, -195.4583913842216, -164.34803360281512, -0.01600000075995922, 0.09600000455975533, 1.0240000486373901, 0.0, 0.0, 0.0, 0.0, 0.0, 1.7632280192886212E9, 0.0, 2025-11-15 12:33:39.288
14.0, -236.19712160155177, -157.48157728416845, -190.7535972399637, -164.59112709993497, -0.01600000075995922, 0.09600000455975533, 1.0240000486373901, 0.0, 0.0, 0.0, 0.0, 0.0, 1.76322801930396E9, 0.0, 2025-11-15 12:33:39.303
14.0, -69.90247007180005, -11.45344361430034, -70.42979596555233, -49.83603685954586, -0.01600000075995922, 0.09600000455975533, 1.0240000486373901, 0.0, 0.0, 0.0, 0.0, 0.0, 1.76322801930396E9, 0.0, 2025-11-15 12:33:39.303
15.0, -232.47218124568462, -155.6826854054816, -173.46029984485358, -141.53838377306238, -0.01600000075995922, 0.09600000455975533, 1.0240000486373901, 0.0, 0.0, 0.0, 0.0, 0.0, 1.7632280193192828E9, 0.0, 2025-11-15 12:33:39.319
15.0, -259.69491302315146, -178.83640603115782, -210.4366907067597, -166.93978427210823, -0.01600000075995922, 0.09600000455975533, 1.0240000486373901, 0.0, 0.0, 0.0, 0.0, 0.0, 1.7632280193192828E9, 0.0, 2025-11-15 12:33:39.319
16.0, -99.03255082666874, -47.76039238413796, -117.97888400219381, -82.97155046695843, -0.01600000075995922, 0.09600000455975533, 1.0240000486373901, 0.0, 0.0, 0.0, 0.0, 0.0, 1.7632280193199394E9, 0.0, 2025-11-15 12:33:39.319
16.0, -166.13757573161274, -89.31442079180852, -124.2095573283732, -90.91883787279949, -0.01600000075995922, 0.09600000455975533, 1.0240000486373901, 0.0, 0.0, 0.0, 0.0, 0.0, 1.7632280193199394E9, 0.0, 2025-11-15 12:33:39.319
17.0, -271.18388568703085, -190.5198534927331, -216.50280843488872, -172.66183120431378, -0.01600000075995922, 0.09600000455975533, 1.0240000486373901, 0.0, 0.0, 0.0, 0.0, 0.0, 1.7632280193342056E9, 0.0, 2025-11-15 12:33:39.334
17.0, -171.0854633729905, -105.71014219755307, -154.01655997522175, -126.87423604680225, -0.01600000075995922, 0.09600000455975533, 1.0240000486373901, 0.0, 0.0, 0.0, 0.0, 0.0, 1.7632280193342056E9, 0.0, 2025-11-15 12:33:39.334
18.0, -78.14520957414061, -9.624632535967976, -62.46380905993283, -41.103370463009924, -0.01600000075995922, 0.09600000455975533, 1.0240000486373901, 0.0, 0.0, 0.0, 0.0, 0.0, 1.7632280193349032E9, 0.0, 2025-11-15 12:33:39.334
18.0, -268.5809153178707, -181.33839910151437, -203.74974958598614, -173.03582119988278, -0.01600000075995922, 0.09600000455975533, 1.0240000486373901, 0.0, 0.0, 0.0, 0.0, 0.0, 1.7632280193349032E9, 0.0, 2025-11-15 12:33:39.334
19.0, -231.22679456043988, -151.33318175701424, -189.26885695755482, -149.74746417580172, -0.01600000075995922, 0.09600000455975533, 1.0240000486373901, 0.0, 0.0, 0.0, 0.0, 0.0, 1.7632280193485608E9, 0.0, 2025-11-15 12:33:39.348
19.0, -56.72306262794882, -3.0760677135549486, -67.479014900513, -45.516452410724014, -0.01600000075995922, 0.09600000455975533, 1.0240000486373901, 0.0, 0.0, 0.0, 0.0, 0.0, 1.7632280193485608E9, 0.0, 2025-11-15 12:33:39.348
20.0, -228.10023819748312, -141.0521967788227, -163.8599766585976, -128.59085012646392, -0.01600000075995922, 0.09600000455975533, 0.5120000243186951, 0.0, 0.0, 0.0, 0.0, 0.0, 1.7632280193641996E9, 0.0, 2025-11-15 12:33:39.364
20.0, -276.86105381976813, -196.71686771931127, -220.04823359288275, -175.42187737161294, -0.01600000075995922, 0.09600000455975533, 0.5120000243186951, 0.0, 0.0, 0.0, 0.0, 0.0, 1.7632280193641996E9, 0.0, 2025-11-15 12:33:39.364
21.0, -105.04630995541811, -48.94594067009166, -104.47784516215324, -69.84076172253117, -0.01600000075995922, 0.1600000075995922, 0.5120000243186951, 0.0, 0.0, 0.0, 0.0, 0.0, 1.7632280193649132E9, 0.0, 2025-11-15 12:33:39.364
21.0, -159.26737951301038, -82.7995150689967, -114.75509024038911, -85.95225073164329, -0.01600000075995922, 0.1600000075995922, 0.5120000243186951, 0.0, 0.0, 0.0, 0.0, 0.0, 1.7632280193649132E9, 0.0, 2025-11-15 12:33:39.364
22.0, -263.4497725786641, -174.2138896859251, -198.03518245369196, -165.52610208885744, -0.03200000151991844, 0.1600000075995922, 0.5120000243186951, 0.0, 0.0, 0.0, 0.0, 0.0, 1.7632280193785872E9, 0.0, 2025-11-15 12:33:39.378
22.0, -183.03070383146405, -112.49058081721887, -158.49322022218257, -121.12226991495118, -0.03200000151991844, 0.1600000075995922, 0.5120000243186951, 0.0, 0.0, 0.0, 0.0, 0.0, 1.7632280193785872E9, 0.0, 2025-11-15 12:33:39.378
23.0, -83.1903346143663, -20.204809510614723, -69.15075018070638, -51.81070403615013, -0.03200000151991844, 0.1600000075995922, 0.5120000243186951, 0.0, 0.0, 0.0, 0.0, 0.0, 1.7632280193944044E9, 0.0, 2025-11-15 12:33:39.394
23.0, -285.6572985155508, -190.65822979109362, -210.75084230303764, -174.61031908122823, -0.03200000151991844, 0.1600000075995922, 0.5120000243186951, 0.0, 0.0, 0.0, 0.0, 0.0, 1.7632280193944044E9, 0.0, 2025-11-15 12:33:39.394
24.0, -244.92604809813201, -167.05198127077892, -203.31218129117042, -165.1371524934657, -0.03200000151991844, 0.1600000075995922, 0.5120000243186951, 0.0, 0.0, 0.0, 0.0, 0.0, 1.763228019394928E9, 0.0, 2025-11-15 12:33:39.394
24.0, -63.06967285275459, -15.48131586657837, -76.27525959629565, -49.503185763489455, -0.03200000151991844, 0.1600000075995922, 0.5120000243186951, 0.0, 0.0, 0.0, 0.0, 0.0, 1.763228019394928E9, 0.0, 2025-11-15 12:33:39.394
25.0, -231.0771985622123, -145.84300862206146, -164.36486315261573, -130.32242380594835, -0.03200000151991844, 0.1600000075995922, 0.5120000243186951, 0.0, 0.0, 0.0, 0.0, 0.0, 1.7632280194085584E9, 0.0, 2025-11-15 12:33:39.408
25.0, -270.4620849955827, -187.49427442857996, -214.026994664222, -177.04499395238236, -0.03200000151991844, 0.1600000075995922, 0.5120000243186951, 0.0, 0.0, 0.0, 0.0, 0.0, 1.7632280194085584E9, 0.0, 2025-11-15 12:33:39.408
26.0, -100.32281631138176, -38.4817005940713, -103.1614003777504, -80.77996909292415, -0.03200000151991844, 0.1600000075995922, 0.5120000243186951, 0.0, 0.0, 0.0, 0.0, 0.0, 1.7632280194242659E9, 0.0, 2025-11-15 12:33:39.424
26.0, -151.94839529972523, -68.96562513289973, -100.50607140921056, -64.04391679121181, -0.03200000151991844, 0.1600000075995922, 0.5120000243186951, 0.0, 0.0, 0.0, 0.0, 0.0, 1.7632280194242659E9, 0.0, 2025-11-15 12:33:39.424
27.0, -282.07447435799986, -187.3297188305296, -209.6513117160648, -175.05536717595533, -0.03200000151991844, 0.1600000075995922, 0.5120000243186951, 0.0, 0.0, 0.0, 0.0, 0.0, 1.7632280194249682E9, 0.0, 2025-11-15 12:33:39.424
27.0, -172.10645606089383, -100.80339345568791, -153.5902113802731, -127.36790284095332, -0.03200000151991844, 0.1600000075995922, 0.5120000243186951, 0.0, 0.0, 0.0, 0.0, 0.0, 1.7632280194249682E9, 0.0, 2025-11-15 12:33:39.424
28.0, -89.09937654435635, -13.674944187980145, -66.04663321748376, -42.58811074541882, -0.03200000151991844, 0.1600000075995922, 0.5120000243186951, 0.0, 0.0, 0.0, 0.0, 0.0, 1.763228019438562E9, 0.0, 2025-11-15 12:33:39.438
28.0, -281.1058402694762, -190.01870689867064, -204.48276997730136, -170.7619620268233, -0.03200000151991844, 0.1600000075995922, 0.5120000243186951, 0.0, 0.0, 0.0, 0.0, 0.0, 1.763228019438562E9, 0.0, 2025-11-15 12:33:39.438
29.0, -235.83809120580554, -157.64239298226312, -195.02830288931727, -157.47035758430138, -0.03200000151991844, 0.1600000075995922, 0.5120000243186951, 0.0, 0.0, 0.0, 0.0, 0.0, 1.7632280194542632E9, 0.0, 2025-11-15 12:33:39.454
29.0, -58.29756050929427, -14.523901477921754, -77.65528267994523, -51.21979984315112, -0.03200000151991844, 0.1600000075995922, 0.5120000243186951, 0.0, 0.0, 0.0, 0.0, 0.0, 1.7632280194542632E9, 0.0, 2025-11-15 12:33:39.454
30.0, -240.35215045232326, -143.59532874869183, -161.06253149174154, -124.30492477724329, -0.03200000151991844, 0.1600000075995922, 0.7680000364780426, 0.0, 0.0, 0.0, 0.0, 0.0, 1.7632280194549847E9, 0.0, 2025-11-15 12:33:39.454
30.0, -260.99639820773154, -180.31366651365533, -208.94073072448373, -173.9894956885837, -0.03200000151991844, 0.1600000075995922, 0.7680000364780426, 0.0, 0.0, 0.0, 0.0, 0.0, 1.7632280194549847E9, 0.0, 2025-11-15 12:33:39.454
31.0, -102.58545578457415, -41.31654476048425, -102.43959968630224, -82.54520187200978, -0.03200000151991844, 0.17600000835955143, 0.7680000364780426, 0.0, 0.0, 0.0, 0.0, 0.0, 1.7632280194685678E9, 0.0, 2025-11-15 12:33:39.468
31.0, -154.4055095706135, -69.5714889257215, -104.19361276552081, -82.25722957542166, -0.03200000151991844, 0.17600000835955143, 0.7680000364780426, 0.0, 0.0, 0.0, 0.0, 0.0, 1.7632280194685678E9, 0.0, 2025-11-15 12:33:39.468
32.0, -285.9452708121389, -190.9948207871057, -216.39061143621802, -187.87574422406033, -0.03200000151991844, 0.17600000835955143, 0.7680000364780426, 0.0, 0.0, 0.0, 0.0, 0.0, 1.763228019484929E9, 0.0, 2025-11-15 12:33:39.484
32.0, -172.1924737598747, -102.28439383814111, -154.4765676697716, -127.68205443723127, -0.03200000151991844, 0.17600000835955143, 0.7680000364780426, 0.0, 0.0, 0.0, 0.0, 0.0, 1.763228019484929E9, 0.0, 2025-11-15 12:33:39.484
33.0, -88.87872244697064, -22.014921089168638, -75.18694870918989, -55.06441699760035, -0.03200000151991844, 0.17600000835955143, 0.7680000364780426, 0.0, 0.0, 0.0, 0.0, 0.0, 1.763228019485624E9, 0.0, 2025-11-15 12:33:39.485
33.0, -277.96058440674096, -186.54059993987903, -206.3190608555451, -162.51922252448276, -0.03200000151991844, 0.17600000835955143, 0.7680000364780426, 0.0, 0.0, 0.0, 0.0, 0.0, 1.763228019485624E9, 0.0, 2025-11-15 12:33:39.485
34.0, -241.43298153951764, -164.21339720441028, -195.12180038820952, -154.62803361797705, -0.03200000151991844, 0.17600000835955143, 0.7680000364780426, 0.0, 0.0, 0.0, 0.0, 0.0, 1.763228019498562E9, 0.0, 2025-11-15 12:33:39.498
34.0, -69.53595987614244, -8.839253545273095, -70.2914196671918, -49.103016468230635, -0.03200000151991844, 0.17600000835955143, 0.7680000364780426, 0.0, 0.0, 0.0, 0.0, 0.0, 1.763228019498562E9, 0.0, 2025-11-15 12:33:39.498
35.0, -233.19772183708847, -136.48203903296962, -160.24723330140114, -131.10032299673185, -0.03200000151991844, 0.17600000835955143, 0.7680000364780426, 0.0, 0.0, 0.0, 0.0, 0.0, 1.7632280195142624E9, 0.0, 2025-11-15 12:33:39.514
35.0, -263.3525351798162, -170.69838372757658, -196.78605586849153, -163.14378581708297, -0.03200000151991844, 0.17600000835955143, 0.7680000364780426, 0.0, 0.0, 0.0, 0.0, 0.0, 1.7632280195142624E9, 0.0, 2025-11-15 12:33:39.514
36.0, -85.5988301858306, -27.63225082261488, -97.34959584660828, -75.05792216071859, -0.03200000151991844, 0.17600000835955143, 0.7680000364780426, 0.0, 0.0, 0.0, 0.0, 0.0, 1.7632280195149794E9, 0.0, 2025-11-15 12:33:39.514
36.0, -164.675274848938, -74.53059626696631, -108.7936897110194, -86.93958431994542, -0.03200000151991844, 0.17600000835955143, 0.7680000364780426, 0.0, 0.0, 0.0, 0.0, 0.0, 1.7632280195149794E9, 0.0, 2025-11-15 12:33:39.514
37.0, -274.58719464670867, -177.2095495504327, -203.9068253841251, -171.56978041725233, -0.03200000151991844, 0.17600000835955143, 0.7680000364780426, 0.0, 0.0, 0.0, 0.0, 0.0, 1.7632280195285473E9, 0.0, 2025-11-15 12:33:39.528
37.0, -177.00198510289192, -109.7380144498311, -159.83584430627525, -133.9725661627017, -0.03200000151991844, 0.17600000835955143, 0.7680000364780426, 0.0, 0.0, 0.0, 0.0, 0.0, 1.7632280195285473E9, 0.0, 2025-11-15 12:33:39.528
38.0, -81.9299883292988, -15.040007671806961, -73.75456702616066, -50.59523655055091, -0.03200000151991844, 0.17600000835955143, 0.7680000364780426, 0.0, 0.0, 0.0, 0.0, 0.0, 1.7632280195442705E9, 0.0, 2025-11-15 12:33:39.544
38.0, -263.50961097795516, -171.3640859196894, -184.7173987114802, -150.74227756401524, -0.03200000151991844, 0.17600000835955143, 0.7680000364780426, 0.0, 0.0, 0.0, 0.0, 0.0, 1.7632280195442705E9, 0.0, 2025-11-15 12:33:39.544
39.0, -242.92146172188222, -163.5364753124304, -198.99633674230427, -163.9067254080437, -0.03200000151991844, 0.17600000835955143, 0.7680000364780426, 0.0, 0.0, 0.0, 0.0, 0.0, 1.7632280195450084E9, 0.0, 2025-11-15 12:33:39.545
39.0, -62.47876865975559, -1.2659561350010335, -64.37863783724606, -45.034005316440016, -0.03200000151991844, 0.17600000835955143, 0.7680000364780426, 0.0, 0.0, 0.0, 0.0, 0.0, 1.7632280195450084E9, 0.0, 2025-11-15 12:33:39.545
40.0, -229.36058448255062, -130.3037243061699, -148.0738589456305, -121.99740650458261, -0.03200000151991844, 0.17600000835955143, 0.8960000425577164, 0.0, 0.0, 0.0, 0.0, 0.0, 1.7632280195585437E9, 0.0, 2025-11-15 12:33:39.558
40.0, -264.5268637659028, -170.07008053502068, -203.68243138678372, -166.315220979508, -0.03200000151991844, 0.17600000835955143, 0.8960000425577164, 0.0, 0.0, 0.0, 0.0, 0.0, 1.7632280195585437E9, 0.0, 2025-11-15 12:33:39.558
41.0, -100.77908410597593, -35.770273126196116, -100.7155058067292, -77.84788752766326, -0.03200000151991844, 0.19200000911951065, 0.8960000425577164, 0.0, 0.0, 0.0, 0.0, 0.0, 1.7632280195742512E9, 0.0, 2025-11-15 12:33:39.574
41.0, -162.49865307472646, -73.31886868132278, -102.25260468851775, -78.00122342584655, -0.03200000151991844, 0.19200000911951065, 0.8960000425577164, 0.0, 0.0, 0.0, 0.0, 0.0, 1.7632280195742512E9, 0.0, 2025-11-15 12:33:39.574
42.0, -264.452065766789, -174.31486698472872, -197.56021515931934, -158.60354727087542, -0.03200000151991844, 0.19200000911951065, 0.8960000425577164, 0.0, 0.0, 0.0, 0.0, 0.0, 1.763228019574965E9, 0.0, 2025-11-15 12:33:39.574
42.0, -170.6030162787065, -95.87046541413292, -144.71542878542095, -120.61738342093304, -0.03200000151991844, 0.19200000911951065, 0.8960000425577164, 0.0, 0.0, 0.0, 0.0, 0.0, 1.763228019574965E9, 0.0, 2025-11-15 12:33:39.574
43.0, -88.04846465680748, -20.242208510171622, -68.41398988943547, -50.61393605032936, -0.03200000151991844, 0.19200000911951065, 0.8960000425577164, 0.0, 0.0, 0.0, 0.0, 0.0, 1.763228019588544E9, 0.0, 2025-11-15 12:33:39.588
43.0, -282.4596840534359, -190.11968419747427, -202.70257759839296, -172.429957407061, -0.03200000151991844, 0.19200000911951065, 0.8960000425577164, 0.0, 0.0, 0.0, 0.0, 0.0, 1.763228019588544E9, 0.0, 2025-11-15 12:33:39.588
44.0, -243.7404998121783, -161.1691186404787, -197.04410896543413, -151.44911865564063, -0.03200000151991844, 0.19200000911951065, 0.8960000425577164, 0.0, 0.0, 0.0, 0.0, 0.0, 1.763228019604247E9, 0.0, 2025-11-15 12:33:39.604
44.0, -70.8112657610327, -6.101646777708083, -70.99078095890582, -59.68693334283307, -0.03200000151991844, 0.19200000911951065, 0.8960000425577164, 0.0, 0.0, 0.0, 0.0, 0.0, 1.763228019604247E9, 0.0, 2025-11-15 12:33:39.604
45.0, -226.02459372207522, -135.65178124280646, -156.23058074899018, -134.7504653534852, -0.03200000151991844, 0.19200000911951065, 0.8960000425577164, 0.0, 0.0, 0.0, 0.0, 0.0, 1.7632280196049564E9, 0.0, 2025-11-15 12:33:39.604
45.0, -265.73111155163497, -175.75098856771365, -205.40652526635677, -178.24550183815882, -0.03200000151991844, 0.19200000911951065, 0.8960000425577164, 0.0, 0.0, 0.0, 0.0, 0.0, 1.7632280196049564E9, 0.0, 2025-11-15 12:33:39.604
46.0, -108.44961891509593, -39.52139278175309, -105.57363584917039, -84.25433615176007, -0.03200000151991844, 0.19200000911951065, 0.8960000425577164, 0.0, 0.0, 0.0, 0.0, 0.0, 1.7632280196186006E9, 0.0, 2025-11-15 12:33:39.618
46.0, -146.61155806295574, -66.62818766059354, -101.10445540212095, -79.81507490435615, -0.03200000151991844, 0.19200000911951065, 0.8960000425577164, 0.0, 0.0, 0.0, 0.0, 0.0, 1.7632280196186006E9, 0.0, 2025-11-15 12:33:39.618
47.0, -280.66827197466046, -187.28484003106132, -204.07886078208685, -178.52599433483556, -0.03200000151991844, 0.19200000911951065, 0.8960000425577164, 0.0, 0.0, 0.0, 0.0, 0.0, 1.7632280196342845E9, 0.0, 2025-11-15 12:33:39.634
47.0, -187.1969523821026, -110.94974203547463, -157.20669463742524, -131.35089629376307, -0.03200000151991844, 0.19200000911951065, 0.8960000425577164, 0.0, 0.0, 0.0, 0.0, 0.0, 1.7632280196342845E9, 0.0, 2025-11-15 12:33:39.634
48.0, -85.67362818494439, -19.299753721337765, -63.802693244069815, -45.62116960948333, -0.03200000151991844, 0.19200000911951065, 0.8960000425577164, 0.0, 0.0, 0.0, 0.0, 0.0, 1.763228019635042E9, 0.0, 2025-11-15 12:33:39.635
48.0, -266.9017002377659, -174.16901088645682, -192.85168111510575, -164.15355880511925, -0.03200000151991844, 0.19200000911951065, 0.8960000425577164, 0.0, 0.0, 0.0, 0.0, 0.0, 1.763228019635042E9, 0.0, 2025-11-15 12:33:39.635
49.0, -242.1847014306113, -156.2361905989237, -191.73345102835447, -172.71044990373775, -0.03200000151991844, 0.19200000911951065, 0.8960000425577164, 0.0, 0.0, 0.0, 0.0, 0.0, 1.7632280196486034E9, 0.0, 2025-11-15 12:33:39.648
49.0, -51.13939199410379, 11.367425915319473, -63.19682945124805, -43.16031543863937, -0.03200000151991844, 0.19200000911951065, 0.8960000425577164, 0.0, 0.0, 0.0, 0.0, 0.0, 1.7632280196486034E9, 0.0, 2025-11-15 12:33:39.648
50.0, -226.37240441795439, -134.6382683548145, -162.3340974766761, -133.72573276562616, -0.03200000151991844, 0.19200000911951065, 0.9920000471174717, 0.0, 0.0, 0.0, 0.0, 0.0, 1.763228019679921E9, 0.0, 2025-11-15 12:33:39.679
50.0, -266.14998034667224, -177.76305474387482, -210.00286231189966, -183.70575577346608, -0.03200000151991844, 0.19200000911951065, 0.9920000471174717, 0.0, 0.0, 0.0, 0.0, 0.0, 1.763228019679921E9, 0.0, 2025-11-15 12:33:39.679
51.0, -103.7149055711925, -51.941600534599274, -116.61382051836699, -96.94381670141593, -0.03200000151991844, 0.19200000911951065, 0.9920000471174717, 0.0, 0.0, 0.0, 0.0, 0.0, 1.7632280196806495E9, 0.0, 2025-11-15 12:33:39.680
51.0, -157.17303553782403, -77.01388983754441, -108.39352041576058, -81.99169667856768, -0.03200000151991844, 0.19200000911951065, 0.9920000471174717, 0.0, 0.0, 0.0, 0.0, 0.0, 1.7632280196806495E9, 0.0, 2025-11-15 12:33:39.680
52.0, -268.0610692240298, -178.7690878319554, -202.43704470153898, -168.44322405429557, -0.03200000151991844, 0.19200000911951065, 0.9920000471174717, 0.0, 0.0, 0.0, 0.0, 0.0, 1.7632280196813767E9, 0.0, 2025-11-15 12:33:39.681
52.0, -182.2378450408578, -106.5852787871845, -163.54956496227533, -137.79848381737247, -0.03200000151991844, 0.19200000911951065, 0.9920000471174717, 0.0, 0.0, 0.0, 0.0, 0.0, 1.7632280196813767E9, 0.0, 2025-11-15 12:33:39.681
53.0, -83.60172360949218, -11.187910717446357, -70.90476325992495, -51.64614843809977, -0.03200000151991844, 0.19200000911951065, 0.9920000471174717, 0.0, 0.0, 0.0, 0.0, 0.0, 1.763228019694235E9, 0.0, 2025-11-15 12:33:39.694
53.0, -264.25759096909314, -168.73493625083938, -190.7236780403182, -162.41076542576775, -0.03200000151991844, 0.19200000911951065, 0.9920000471174717, 0.0, 0.0, 0.0, 0.0, 0.0, 1.763228019694235E9, 0.0, 2025-11-15 12:33:39.694
54.0, -238.88610966969281, -159.17575196409598, -191.47539793141186, -156.74107709294185, -0.03200000151991844, 0.19200000911951065, 0.9920000471174717, 0.0, 0.0, 0.0, 0.0, 0.0, 1.7632280196949484E9, 0.0, 2025-11-15 12:33:39.694
54.0, -56.936236925423145, 3.2705425112508237, -66.49168131221086, -57.28965747123584, -0.03200000151991844, 0.19200000911951065, 0.9920000471174717, 0.0, 0.0, 0.0, 0.0, 0.0, 1.7632280196949484E9, 0.0, 2025-11-15 12:33:39.694
55.0, -227.4831547047943, -134.8215234526433, -161.34676388837397, -135.05339724989608, -0.03200000151991844, 0.19200000911951065, 0.9920000471174717, 0.0, 0.0, 0.0, 0.0, 0.0, 1.7632280197086415E9, 0.0, 2025-11-15 12:33:39.708
55.0, -267.74317772779614, -181.48425519978628, -211.6596379922703, -179.5133279231377, -0.03200000151991844, 0.19200000911951065, 0.9920000471174717, 0.0, 0.0, 0.0, 0.0, 0.0, 1.7632280197086415E9, 0.0, 2025-11-15 12:33:39.708
56.0, -103.18757967744023, -35.381323530804366, -101.55698329675943, -74.36230076896027, -0.03200000151991844, 0.19200000911951065, 0.9920000471174717, 0.0, 0.0, 0.0, 0.0, 0.0, 1.7632280197242274E9, 0.0, 2025-11-15 12:33:39.724
56.0, -161.8591301823035, -79.40368590923026, -112.52610986679792, -88.48416300164536, -0.03200000151991844, 0.19200000911951065, 0.9920000471174717, 0.0, 0.0, 0.0, 0.0, 0.0, 1.7632280197242274E9, 0.0, 2025-11-15 12:33:39.724
57.0, -277.2088645156473, -188.11883772118017, -211.37166569568217, -176.3942513600923, -0.03200000151991844, 0.19200000911951065, 0.9920000471174717, 0.0, 0.0, 0.0, 0.0, 0.0, 1.7632280197249467E9, 0.0, 2025-11-15 12:33:39.724
57.0, -188.73405126389116, -117.68156195571646, -167.33060381747782, -138.58012290811166, -0.03200000151991844, 0.19200000911951065, 0.9920000471174717, 0.0, 0.0, 0.0, 0.0, 0.0, 1.7632280197249467E9, 0.0, 2025-11-15 12:33:39.724
58.0, -83.48952661082149, -11.614259312395006, -65.33605222590268, -54.93726039910689, -0.03200000151991844, 0.19200000911951065, 0.9920000471174717, 0.0, 0.0, 0.0, 0.0, 0.0, 1.763228019738575E9, 0.0, 2025-11-15 12:33:39.738
58.0, -259.13766792975366, -164.84918019687757, -186.54994968976825, -160.62309324694797, -0.03200000151991844, 0.19200000911951065, 0.9920000471174717, 0.0, 0.0, 0.0, 0.0, 0.0, 1.763228019738575E9, 0.0, 2025-11-15 12:33:39.738
59.0, -239.2974986648187, -153.52850303100422, -185.5364368017763, -149.9045399739407, -0.03200000151991844, 0.19200000911951065, 0.9920000471174717, 0.0, 0.0, 0.0, 0.0, 0.0, 1.763228019754246E9, 0.0, 2025-11-15 12:33:39.754
59.0, -59.804740191437304, 9.396498638670892, -59.400830996222794, -35.93108882429078, -0.03200000151991844, 0.19200000911951065, 0.9920000471174717, 0.0, 0.0, 0.0, 0.0, 0.0, 1.763228019754246E9, 0.0, 2025-11-15 12:33:39.754
60.0, -218.2530816141516, -122.87254309421405, -143.02125410549343, -121.1858482141979, -0.03200000151991844, 0.19200000911951065, 1.008000047877431, 0.0, 0.0, 0.0, 0.0, 0.0, 1.763228019754938E9, 0.0, 2025-11-15 12:33:39.754
60.0, -270.92583259008825, -176.5887261577882, -204.55756797641516, -166.07960728229955, -0.03200000151991844, 0.19200000911951065, 1.008000047877431, 0.0, 0.0, 0.0, 0.0, 0.0, 1.763228019754938E9, 0.0, 2025-11-15 12:33:39.754
61.0, -112.4251325679943, -46.38410920044407, -107.92603292129934, -90.36159277940169, -0.03200000151991844, 0.19200000911951065, 1.008000047877431, 0.0, 0.0, 0.0, 0.0, 0.0, 1.763228019768577E9, 0.0, 2025-11-15 12:33:39.768
61.0, -148.4029701417312, -62.69381290720776, -98.17237383686006, -77.99000372597948, -0.03200000151991844, 0.19200000911951065, 1.008000047877431, 0.0, 0.0, 0.0, 0.0, 0.0, 1.763228019768577E9, 0.0, 2025-11-15 12:33:39.768
62.0, -269.8375217029825, -176.51766805863008, -197.37322016153485, -167.72142336284742, -0.03200000151991844, 0.19200000911951065, 1.008000047877431, 0.0, 0.0, 0.0, 0.0, 0.0, 1.7632280197842655E9, 0.0, 2025-11-15 12:33:39.784
62.0, -184.76601741090417, -103.81775281997398, -157.43482853472233, -132.28587128268555, -0.03200000151991844, 0.19200000911951065, 1.008000047877431, 0.0, 0.0, 0.0, 0.0, 0.0, 1.7632280197842655E9, 0.0, 2025-11-15 12:33:39.784
63.0, -76.55949199292809, -2.058814925607294, -56.83899952657521, -48.10446318006143, -0.03200000151991844, 0.19200000911951065, 1.008000047877431, 0.0, 0.0, 0.0, 0.0, 0.0, 1.7632280197849495E9, 0.0, 2025-11-15 12:33:39.784
63.0, -282.6915578506887, -187.57281232764944, -208.58918012864888, -177.64711784524843, -0.03200000151991844, 0.19200000911951065, 1.008000047877431, 0.0, 0.0, 0.0, 0.0, 0.0, 1.7632280197849495E9, 0.0, 2025-11-15 12:33:39.784
64.0, -241.1562289427966, -155.10674081230536, -192.29817592166364, -151.61741415364668, -0.03200000151991844, 0.19200000911951065, 1.008000047877431, 0.0, 0.0, 0.0, 0.0, 0.0, 1.7632280197985845E9, 0.0, 2025-11-15 12:33:39.798
64.0, -61.67469016928226, 4.818861092906445, -63.828872543759644, -47.61453628586605, -0.03200000151991844, 0.19200000911951065, 1.008000047877431, 0.0, 0.0, 0.0, 0.0, 0.0, 1.7632280197985845E9, 0.0, 2025-11-15 12:33:39.798
65.0, -222.5128276636824, -123.82247768295929, -151.11439760960639, -118.71377434348688, -0.03200000151991844, 0.19200000911951065, 1.008000047877431, 0.0, 0.0, 0.0, 0.0, 0.0, 1.763228019814245E9, 0.0, 2025-11-15 12:33:39.814
65.0, -276.8647937197238, -181.76474769646302, -208.7986145261675, -169.31088084401563, -0.03200000151991844, 0.19200000911951065, 1.008000047877431, 0.0, 0.0, 0.0, 0.0, 0.0, 1.763228019814245E9, 0.0, 2025-11-15 12:33:39.814
66.0, -109.20507870614529, -38.50413999380544, -106.33657544013113, -87.36967281484976, -0.03200000151991844, 0.19200000911951065, 1.008000047877431, 0.0, 0.0, 0.0, 0.0, 0.0, 1.763228019814952E9, 0.0, 2025-11-15 12:33:39.814
66.0, -155.4078027587384, -67.76885714707896, -106.1271410426125, -84.84898024471477, -0.03200000151991844, 0.19200000911951065, 1.008000047877431, 0.0, 0.0, 0.0, 0.0, 0.0, 1.763228019814952E9, 0.0, 2025-11-15 12:33:39.814
67.0, -276.59926082286984, -180.86343180714175, -205.96377035975456, -171.47628291836008, -0.03200000151991844, 0.19200000911951065, 1.008000047877431, 0.0, 0.0, 0.0, 0.0, 0.0, 1.7632280198285737E9, 0.0, 2025-11-15 12:33:39.828
67.0, -186.20961879380047, -109.13963045692071, -163.50094626285136, -129.46598671609536, -0.03200000151991844, 0.19200000911951065, 1.008000047877431, 0.0, 0.0, 0.0, 0.0, 0.0, 1.7632280198285737E9, 0.0, 2025-11-15 12:33:39.828
68.0, -80.10865705087781, -7.328333963174373, -63.71293564513326, -40.673281968105584, -0.03200000151991844, 0.19200000911951065, 1.008000047877431, 0.0, 0.0, 0.0, 0.0, 0.0, 1.7632280198442247E9, 0.0, 2025-11-15 12:33:39.844
68.0, -275.73908383306116, -178.45493623567745, -197.73973035719246, -161.96945723099634, -0.03200000151991844, 0.19200000911951065, 1.008000047877431, 0.0, 0.0, 0.0, 0.0, 0.0, 1.7632280198442247E9, 0.0, 2025-11-15 12:33:39.844
69.0, -235.00783341564238, -151.0115503608249, -193.65575960557908, -153.67809902923182, -0.03200000151991844, 0.19200000911951065, 1.008000047877431, 0.0, 0.0, 0.0, 0.0, 0.0, 1.763228019844936E9, 0.0, 2025-11-15 12:33:39.844
69.0, -55.88158513791859, 2.664678718429059, -64.5469333352521, -50.7822315483354, -0.03200000151991844, 0.19200000911951065, 1.008000047877431, 0.0, 0.0, 0.0, 0.0, 0.0, 1.763228019844936E9, 0.0, 2025-11-15 12:33:39.844
70.0, -206.2106037568301, -114.92899558832869, -140.6239782338962, -105.79989979648963, -0.03200000151991844, 0.19200000911951065, 1.0240000486373901, 0.0, 0.0, 0.0, 0.0, 0.0, 1.7632280198585775E9, 0.0, 2025-11-15 12:33:39.858
70.0, -282.38114615436643, -188.68356261448935, -221.46565567608923, -185.3999304533936, -0.03200000151991844, 0.19200000911951065, 1.0240000486373901, 0.0, 0.0, 0.0, 0.0, 0.0, 1.7632280198585775E9, 0.0, 2025-11-15 12:33:39.858
71.0, -124.71444382239133, -51.40305494097993, -122.92677164357156, -99.05686017638072, -0.03200000151991844, 0.20800000987946987, 1.0240000486373901, 0.0, 0.0, 0.0, 0.0, 0.0, 1.7632280198742497E9, 0.0, 2025-11-15 12:33:39.874
71.0, -160.77081929519773, -69.81458242284134, -106.96113873273134, -87.78480170993134, -0.03200000151991844, 0.20800000987946987, 1.0240000486373901, 0.0, 0.0, 0.0, 0.0, 0.0, 1.7632280198742497E9, 0.0, 2025-11-15 12:33:39.874
72.0, -285.208510520868, -182.34817208955064, -215.51547484658659, -184.44625596469268, -0.01600000075995922, 0.20800000987946987, 1.0240000486373901, 0.0, 0.0, 0.0, 0.0, 0.0, 1.7632280198749478E9, 0.0, 2025-11-15 12:33:39.874
72.0, -178.07907629013062, -110.05590594606474, -167.44280081614852, -137.40205442206934, -0.01600000075995922, 0.20800000987946987, 1.0240000486373901, 0.0, 0.0, 0.0, 0.0, 0.0, 1.7632280198749478E9, 0.0, 2025-11-15 12:33:39.874
73.0, -83.60546350944787, -12.433297402691096, -70.57565206382424, -54.51839160406962, -0.01600000075995922, 0.20800000987946987, 1.0240000486373901, 0.0, 0.0, 0.0, 0.0, 0.0, 1.763228019888578E9, 0.0, 2025-11-15 12:33:39.888
73.0, -271.44941858388484, -173.49582889443263, -195.77254298049957, -161.15789894061163, -0.01600000075995922, 0.20800000987946987, 1.0240000486373901, 0.0, 0.0, 0.0, 0.0, 0.0, 1.763228019888578E9, 0.0, 2025-11-15 12:33:39.888
74.0, -251.96079991478473, -160.52959574805573, -200.0210693301633, -157.1711655878462, -0.01600000075995922, 0.20800000987946987, 1.0240000486373901, 0.0, 0.0, 0.0, 0.0, 0.0, 1.763228019904379E9, 0.0, 2025-11-15 12:33:39.904
74.0, -61.323139573447406, 2.2345902235247195, -71.62282405141741, -47.087210392113775, -0.01600000075995922, 0.20800000987946987, 1.0240000486373901, 0.0, 0.0, 0.0, 0.0, 0.0, 1.763228019904379E9, 0.0, 2025-11-15 12:33:39.904
75.0, -228.07779879774898, -130.374782405328, -159.14396281447262, -126.47406675154343, -0.01600000075995922, 0.20800000987946987, 1.0240000486373901, 0.0, 0.0, 0.0, 0.0, 0.0, 1.7632280199049468E9, 0.0, 2025-11-15 12:33:39.904
75.0, -277.0517887175083, -182.2883336902596, -215.0666868519038, -179.79756031977013, -0.01600000075995922, 0.20800000987946987, 1.0240000486373901, 0.0, 0.0, 0.0, 0.0, 0.0, 1.7632280199049468E9, 0.0, 2025-11-15 12:33:39.904
76.0, -111.61357427760959, -46.40280870022252, -112.56724876631051, -94.68865702813491, -0.01600000075995922, 0.20800000987946987, 1.0240000486373901, 0.0, 0.0, 0.0, 0.0, 0.0, 1.763228019918662E9, 0.0, 2025-11-15 12:33:39.918
76.0, -147.97288164682686, -56.83712957659736, -99.04377052653581, -65.63337427238002, -0.01600000075995922, 0.20800000987946987, 1.0240000486373901, 0.0, 0.0, 0.0, 0.0, 0.0, 1.763228019918662E9, 0.0, 2025-11-15 12:33:39.918
77.0, -278.03912230581045, -184.89878385933116, -213.02096157614142, -185.407410253305, -0.01600000075995922, 0.20800000987946987, 1.0240000486373901, 0.0, 0.0, 0.0, 0.0, 0.0, 1.7632280199343596E9, 0.0, 2025-11-15 12:33:39.934
77.0, -182.79883003421128, -107.73342807358131, -166.45546722784638, -138.47166580939665, -0.01600000075995922, 0.20800000987946987, 1.0240000486373901, 0.0, 0.0, 0.0, 0.0, 0.0, 1.7632280199343596E9, 0.0, 2025-11-15 12:33:39.934
78.0, -71.41338965389878, 1.3145748344250023, -60.208649386651814, -33.15234315721318, -0.01600000075995922, 0.20800000987946987, 1.0240000486373901, 0.0, 0.0, 0.0, 0.0, 0.0, 1.7632280199349391E9, 0.0, 2025-11-15 12:33:39.934
78.0, -273.14359326381236, -168.48436295380816, -192.19719862286001, -157.088887788821, -0.01600000075995922, 0.20800000987946987, 1.0240000486373901, 0.0, 0.0, 0.0, 0.0, 0.0, 1.7632280199349391E9, 0.0, 2025-11-15 12:33:39.934
79.0, -247.94040746241808, -157.29084238642827, -196.67011896986514, -161.5805076356046, -0.01600000075995922, 0.20800000987946987, 1.0240000486373901, 0.0, 0.0, 0.0, 0.0, 0.0, 1.7632280199485984E9, 0.0, 2025-11-15 12:33:39.948
79.0, -66.05037311743945, 9.011288943234831, -66.24858781509101, -48.0034858812578, -0.01600000075995922, 0.20800000987946987, 1.0240000486373901, 0.0, 0.0, 0.0, 0.0, 0.0, 1.7632280199485984E9, 0.0, 2025-11-15 12:33:39.948
80.0, -224.30797964241356, -119.84322413010523, -153.27605978399515, -124.05061158025637, -0.01600000075995922, 0.20800000987946987, 1.0240000486373901, 0.0, 0.0, 0.0, 0.0, 0.0, 1.763228019964366E9, 0.0, 2025-11-15 12:33:39.964
80.0, -257.81000344548374, -167.2053171689622, -203.26356259174645, -172.11580581078306, -0.01600000075995922, 0.20800000987946987, 1.0240000486373901, 0.0, 0.0, 0.0, 0.0, 0.0, 1.763228019964366E9, 0.0, 2025-11-15 12:33:39.964
81.0, -97.32715644687414, -34.31545204343274, -109.69874550029635, -86.84608682105318, -0.01600000075995922, 0.20800000987946987, 1.0240000486373901, 0.0, 0.0, 0.0, 0.0, 0.0, 1.7632280199649324E9, 0.0, 2025-11-15 12:33:39.964
81.0, -144.53217368759215, -57.67860706662759, -100.69680630695075, -75.20751815894619, -0.01600000075995922, 0.20800000987946987, 1.0240000486373901, 0.0, 0.0, 0.0, 0.0, 0.0, 1.7632280199649324E9, 0.0, 2025-11-15 12:33:39.964
82.0, -276.7264174213633, -181.13644450390711, -208.5106422295794, -170.93773732474074, -0.03200000151991844, 0.20800000987946987, 1.0240000486373901, 0.0, 0.0, 0.0, 0.0, 0.0, 1.7632280199785779E9, 0.0, 2025-11-15 12:33:39.978
82.0, -196.26620977465063, -113.4442553059198, -168.91632139869034, -130.09428990865126, -0.03200000151991844, 0.20800000987946987, 1.0240000486373901, 0.0, 0.0, 0.0, 0.0, 0.0, 1.7632280199785779E9, 0.0, 2025-11-15 12:33:39.978
83.0, -87.88016915880144, -10.963516720104963, -71.31989215500653, -55.77499798918143, -0.03200000151991844, 0.20800000987946987, 1.0240000486373901, 0.0, 0.0, 0.0, 0.0, 0.0, 1.7632280199944136E9, 0.0, 2025-11-15 12:33:39.994
83.0, -275.21923773922026, -171.85401281388476, -198.02770265378058, -165.00999589497223, -0.03200000151991844, 0.20800000987946987, 1.0240000486373901, 0.0, 0.0, 0.0, 0.0, 0.0, 1.7632280199944136E9, 0.0, 2025-11-15 12:33:39.994
84.0, -234.49172722175717, -148.95086548523977, -190.0953748477623, -160.55951494770125, -0.03200000151991844, 0.20800000987946987, 1.0240000486373901, 0.0, 0.0, 0.0, 0.0, 0.0, 1.7632280199949403E9, 0.0, 2025-11-15 12:33:39.994
84.0, -62.40397066064179, 7.126379365567118, -67.81934579648077, -50.699953749310225, -0.03200000151991844, 0.20800000987946987, 1.0240000486373901, 0.0, 0.0, 0.0, 0.0, 0.0, 1.7632280199949403E9, 0.0, 2025-11-15 12:33:39.994
85.0, -219.8799380948767, -124.43208137573674, -151.12187740951777, -120.60242382111028, -0.03200000151991844, 0.20800000987946987, 1.0240000486373901, 0.0, 0.0, 0.0, 0.0, 0.0, 1.76322802000865E9, 0.0, 2025-11-15 12:33:40.008
85.0, -258.80107693374157, -170.53008822957054, -201.11686001718044, -166.3526199790649, -0.03200000151991844, 0.20800000987946987, 1.0240000486373901, 0.0, 0.0, 0.0, 0.0, 0.0, 1.76322802000865E9, 0.0, 2025-11-15 12:33:40.008
86.0, -112.06610217224807, -44.37578292423859, -109.3135358048603, -87.59032691223547, -0.03200000151991844, 0.20800000987946987, 1.0240000486373901, 0.0, 0.0, 0.0, 0.0, 0.0, 1.763228020024372E9, 0.0, 2025-11-15 12:33:40.024
86.0, -147.4792148526758, -62.323562811594456, -104.4965446619317, -81.7635627812706, -0.03200000151991844, 0.20800000987946987, 1.0240000486373901, 0.0, 0.0, 0.0, 0.0, 0.0, 1.763228020024372E9, 0.0, 2025-11-15 12:33:40.024
87.0, -285.85925311315805, -186.41344334138557, -211.51378189399838, -180.5904191103764, -0.03200000151991844, 0.20800000987946987, 1.0240000486373901, 0.0, 0.0, 0.0, 0.0, 0.0, 1.7632280200249395E9, 0.0, 2025-11-15 12:33:40.024
87.0, -181.88629444502294, -100.72859545657411, -154.57380506861955, -121.80293170688674, -0.03200000151991844, 0.20800000987946987, 1.0240000486373901, 0.0, 0.0, 0.0, 0.0, 0.0, 1.7632280200249395E9, 0.0, 2025-11-15 12:33:40.024
88.0, -77.39348968304694, 1.1201000367291272, -61.1772834751755, -44.42814152361825, -0.03200000151991844, 0.20800000987946987, 1.0240000486373901, 0.0, 0.0, 0.0, 0.0, 0.0, 1.7632280200385883E9, 0.0, 2025-11-15 12:33:40.038
88.0, -261.3142897039652, -165.7617157860659, -187.76915707532316, -151.40797975612804, -0.03200000151991844, 0.20800000987946987, 1.0240000486373901, 0.0, 0.0, 0.0, 0.0, 0.0, 1.7632280200385883E9, 0.0, 2025-11-15 12:33:40.038
89.0, -238.4822004744783, -163.83192740892991, -202.3585068024695, -158.33427447406575, -0.03200000151991844, 0.20800000987946987, 1.0240000486373901, 0.0, 0.0, 0.0, 0.0, 0.0, 1.7632280200543635E9, 0.0, 2025-11-15 12:33:40.054
89.0, -56.66322422865778, 4.882439392153174, -67.4004770014435, -54.525871403981, -0.03200000151991844, 0.20800000987946987, 1.0240000486373901, 0.0, 0.0, 0.0, 0.0, 0.0, 1.7632280200543635E9, 0.0, 2025-11-15 12:33:40.054
90.0, -224.96994193457067, -130.2251864071004, -161.34676388837397, -127.57733723847196, -0.03200000151991844, 0.20800000987946987, 1.0240000486373901, 0.0, 0.0, 0.0, 0.0, 0.0, 1.7632280200549288E9, 0.0, 2025-11-15 12:33:40.054
90.0, -278.00546320620924, -187.2960597309284, -222.74096156097949, -184.65195046225563, -0.03200000151991844, 0.20800000987946987, 1.0240000486373901, 0.0, 0.0, 0.0, 0.0, 0.0, 1.7632280200549288E9, 0.0, 2025-11-15 12:33:40.054
91.0, -111.71455157641321, -44.226186926010996, -114.87476703897119, -96.3603923083283, -0.03200000151991844, 0.20800000987946987, 1.0240000486373901, 0.0, 0.0, 0.0, 0.0, 0.0, 1.7632280200685835E9, 0.0, 2025-11-15 12:33:40.068
91.0, -143.7767138965428, -56.87826847610995, -99.82914951723069, -73.13561358349398, -0.03200000151991844, 0.20800000987946987, 1.0240000486373901, 0.0, 0.0, 0.0, 0.0, 0.0, 1.7632280200685835E9, 0.0, 2025-11-15 12:33:40.068
92.0, -277.163985716179, -188.46290851710364, -212.75542867928743, -172.85630600200966, -0.03200000151991844, 0.20800000987946987, 1.0240000486373901, 0.0, 0.0, 0.0, 0.0, 0.0, 1.7632280201006627E9, 0.0, 2025-11-15 12:33:40.100
92.0, -182.17052684165537, -112.71497481456026, -159.3309578122571, -133.1535280724056, -0.03200000151991844, 0.20800000987946987, 1.0240000486373901, 0.0, 0.0, 0.0, 0.0, 0.0, 1.7632280201006627E9, 0.0, 2025-11-15 12:33:40.100
93.0, -76.82876478973776, -10.776521722320467, -65.75118112098426, -52.01639853371307, -0.03200000151991844, 0.20800000987946987, 1.0240000486373901, 0.0, 0.0, 0.0, 0.0, 0.0, 1.7632280201014235E9, 0.0, 2025-11-15 12:33:40.101
93.0, -271.8308883793652, -179.00844142911956, -196.9057326670736, -169.88682543719187, -0.03200000151991844, 0.20800000987946987, 1.0240000486373901, 0.0, 0.0, 0.0, 0.0, 0.0, 1.7632280201014235E9, 0.0, 2025-11-15 12:33:40.101
94.0, -239.5256325621158, -151.11252765962854, -188.92852606158704, -152.2344976463355, -0.03200000151991844, 0.20800000987946987, 1.0240000486373901, 0.0, 0.0, 0.0, 0.0, 0.0, 1.7632280201021185E9, 0.0, 2025-11-15 12:33:40.102
94.0, -56.173297334462404, 6.000669478904456, -64.10936504043639, -45.860523206647485, -0.03200000151991844, 0.20800000987946987, 1.0240000486373901, 0.0, 0.0, 0.0, 0.0, 0.0, 1.7632280201021185E9, 0.0, 2025-11-15 12:33:40.102
95.0, -218.97114240564406, -112.26244691992179, -141.44301632419229, -113.94166200002655, -0.03200000151991844, 0.20800000987946987, 1.0240000486373901, 0.0, 0.0, 0.0, 0.0, 0.0, 1.7632280201028664E9, 0.0, 2025-11-15 12:33:40.102
95.0, -265.6151746530086, -163.89550570817664, -197.7584298569709, -167.81492086173967, -0.03200000151991844, 0.20800000987946987, 1.0240000486373901, 0.0, 0.0, 0.0, 0.0, 0.0, 1.7632280201028664E9, 0.0, 2025-11-15 12:33:40.102
96.0, -97.12520184926689, -32.04533277032897, -102.55179668497294, -84.4675104492344, -0.03200000151991844, 0.20800000987946987, 1.0240000486373901, 0.0, 0.0, 0.0, 0.0, 0.0, 1.7632280201136355E9, 0.0, 2025-11-15 12:33:40.113
96.0, -140.42950343620032, -49.129195767920464, -100.33029611129314, -76.58380134264007, -0.03200000151991844, 0.20800000987946987, 1.0240000486373901, 0.0, 0.0, 0.0, 0.0, 0.0, 1.7632280201136355E9, 0.0, 2025-11-15 12:33:40.113
97.0, -272.979037665762, -171.97742951242253, -204.32943407911807, -167.60174656426534, -0.03200000151991844, 0.20800000987946987, 1.0240000486373901, 0.0, 0.0, 0.0, 0.0, 0.0, 1.7632280201285777E9, 0.0, 2025-11-15 12:33:40.128
97.0, -173.43786044511944, -100.2910271617584, -155.80423215404153, -122.95108099328354, -0.03200000151991844, 0.20800000987946987, 1.0240000486373901, 0.0, 0.0, 0.0, 0.0, 0.0, 1.7632280201285777E9, 0.0, 2025-11-15 12:33:40.128
98.0, -73.53765282873064, -1.247256635222584, -61.356798673048615, -44.20748742623255, -0.03200000151991844, 0.20800000987946987, 1.0240000486373901, 0.0, 0.0, 0.0, 0.0, 0.0, 1.76322802014426E9, 0.0, 2025-11-15 12:33:40.144
98.0, -267.2345513338223, -161.62164653511718, -190.09911474771798, -162.58280082372949, -0.03200000151991844, 0.20800000987946987, 1.0240000486373901, 0.0, 0.0, 0.0, 0.0, 0.0, 1.76322802014426E9, 0.0, 2025-11-15 12:33:40.144
99.0, -237.97731398046017, -148.48337799077854, -189.91959954984486, -162.62019982328638, -0.03200000151991844, 0.20800000987946987, 1.0240000486373901, 0.0, 0.0, 0.0, 0.0, 0.0, 1.7632280201449645E9, 0.0, 2025-11-15 12:33:40.144
99.0, -57.403724419884384, 10.567087324801832, -71.4059098539874, -51.62370903836563, -0.03200000151991844, 0.20800000987946987, 1.0240000486373901, 0.0, 0.0, 0.0, 0.0, 0.0, 1.7632280201449645E9, 0.0, 2025-11-15 12:33:40.144
100.0, -221.54045367520303, -126.3020313535817, -153.42191588226706, -127.64839533763006, -0.03200000151991844, 0.20800000987946987, 1.0240000486373901, 0.0, 0.0, 0.0, 0.0, 0.0, 1.7632280201592703E9, 0.0, 2025-11-15 12:33:40.159
100.0, -266.29583644494414, -175.97912246501073, -205.01383577100933, -160.00226985430345, -0.03200000151991844, 0.20800000987946987, 1.0240000486373901, 0.0, 0.0, 0.0, 0.0, 0.0, 1.7632280201592703E9, 0.0, 2025-11-15 12:33:40.159
0.0, -109.93061929754913, -46.917044944129884, -111.29942268133163, -89.89036538498476, -0.03200000151991844, 0.20800000987946987, 1.0240000486373901, 0.0, 0.0, 0.0, 0.0, 0.0, 1.763228020160032E9, 0.0, 2025-11-15 12:33:40.160
1.0, -151.90725640021265, -58.6565909050405, -101.06331650260836, -76.72965744091198, -0.03200000151991844, 0.20800000987946987, 1.0240000486373901, 0.0, 0.0, 0.0, 0.0, 0.0, 1.7632280201736364E9, 0.0, 2025-11-15 12:33:40.173
1.0, -283.5741742402315, -183.71136562339962, -208.0655941348523, -175.90806436585262, -0.03200000151991844, 0.20800000987946987, 1.0240000486373901, 0.0, 0.0, 0.0, 0.0, 0.0, 1.7632280201736364E9, 0.0, 2025-11-15 12:33:40.173
2.0, -190.18887234665453, -110.27095019351691, -163.9684337573126, -135.76771814143285, -0.03200000151991844, 0.20800000987946987, 1.0240000486373901, 0.0, 0.0, 0.0, 0.0, 0.0, 1.763228020189252E9, 0.0, 2025-11-15 12:33:40.189
2.0, -78.95676786452532, -6.148395527154207, -64.4384762365371, -49.41716806450859, -0.03200000151991844, 0.20800000987946987, 1.0240000486373901, 0.0, 0.0, 0.0, 0.0, 0.0, 1.763228020189252E9, 0.0, 2025-11-15 12:33:40.189
3.0, -275.2080180393532, -170.99196587409824, -195.39481308497488, -166.15440528141335, -0.03200000151991844, 0.20800000987946987, 1.0240000486373901, 0.0, 0.0, 0.0, 0.0, 0.0, 1.7632280201899643E9, 0.0, 2025-11-15 12:33:40.189
3.0, -247.49535936769098, -156.39139644708484, -190.9031932381913, -154.44477852014825, -0.03200000151991844, 0.20800000987946987, 1.0240000486373901, 0.0, 0.0, 0.0, 0.0, 0.0, 1.7632280201899643E9, 0.0, 2025-11-15 12:33:40.189
4.0, -56.84647932648659, 9.170234691351652, -58.48829540703446, -46.09613690385595, -0.03200000151991844, 0.20800000987946987, 1.0240000486373901, 0.0, 0.0, 0.0, 0.0, 0.0, 1.7632280202035837E9, 0.0, 2025-11-15 12:33:40.203
4.0, -210.70222360361367, -114.02954964898527, -139.9208770422265, -104.23288171505556, -0.03200000151991844, 0.20800000987946987, 1.0240000486373901, 0.0, 0.0, 0.0, 0.0, 0.0, 1.7632280202035837E9, 0.0, 2025-11-15 12:33:40.203
5.0, -276.67405882198364, -175.88001511618495, -207.51582884136587, -171.64457841636613, -0.03200000151991844, 0.20800000987946987, 1.0240000486373901, 0.0, 0.0, 0.0, 0.0, 0.0, 1.7632280202193387E9, 0.0, 2025-11-15 12:33:40.219
5.0, -112.9075796622783, -44.38513267412782, -110.39062699209899, -86.77128882193938, -0.03200000151991844, 0.20800000987946987, 1.0240000486373901, 0.0, 0.0, 0.0, 0.0, 0.0, 1.7632280202193387E9, 0.0, 2025-11-15 12:33:40.219
6.0, -147.07530565746129, -58.189103410579264, -101.36624839901924, -78.71180441742763, -0.03200000151991844, 0.20800000987946987, 1.0240000486373901, 0.0, 0.0, 0.0, 0.0, 0.0, 1.7632280202199748E9, 0.0, 2025-11-15 12:33:40.219
6.0, -283.37221964262426, -176.43352030962706, -207.07078074663877, -176.40921095991507, -0.03200000151991844, 0.20800000987946987, 1.0240000486373901, 0.0, 0.0, 0.0, 0.0, 0.0, 1.7632280202199748E9, 0.0, 2025-11-15 12:33:40.219
7.0, -188.85372806247324, -106.51235073804855, -164.8211309472099, -137.69002671865746, -0.03200000151991844, 0.20800000987946987, 1.0240000486373901, 0.0, 0.0, 0.0, 0.0, 0.0, 1.7632280202335703E9, 0.0, 2025-11-15 12:33:40.233
7.0, -83.42220841161907, -6.159615227021277, -64.43099643662572, -50.59149665059522, -0.03200000151991844, 0.20800000987946987, 1.0240000486373901, 0.0, 0.0, 0.0, 0.0, 0.0, 1.7632280202335703E9, 0.0, 2025-11-15 12:33:40.233
8.0, -273.7606767565012, -166.83693702332675, -188.4198996676132, -157.77702938066795, -0.03200000151991844, 0.20800000987946987, 1.0240000486373901, 0.0, 0.0, 0.0, 0.0, 0.0, 1.763228020249297E9, 0.0, 2025-11-15 12:33:40.249
8.0, -240.8196379467845, -153.3284183833748, -192.25329712219536, -162.1714118286036, -0.03200000151991844, 0.20800000987946987, 1.0240000486373901, 0.0, 0.0, 0.0, 0.0, 0.0, 1.763228020249297E9, 0.0, 2025-11-15 12:33:40.249
9.0, -47.92307803221047, 15.883355111815035, -58.7313889041543, -37.25127350864932, -0.03200000151991844, 0.20800000987946987, 1.0240000486373901, 0.0, 0.0, 0.0, 0.0, 0.0, 1.7632280202499597E9, 0.0, 2025-11-15 12:33:40.249
9.0, -220.81865298375487, -125.07347421813756, -152.72629449050874, -118.85963044175878, -0.03200000151991844, 0.20800000987946987, 1.0240000486373901, 0.0, 0.0, 0.0, 0.0, 0.0, 1.7632280202499597E9, 0.0, 2025-11-15 12:33:40.249
10.0, -280.48875677678734, -181.68059994746, -208.77617512643337, -172.321500308346, -0.03200000151991844, 0.20800000987946987, 1.0240000486373901, 0.0, 0.0, 0.0, 0.0, 0.0, 1.7632280202635777E9, 0.0, 2025-11-15 12:33:40.263
10.0, -126.00096940714866, -53.697483563795686, -116.10145422443748, -88.85815299721435, -0.03200000151991844, 0.20800000987946987, 1.0240000486373901, 0.0, 0.0, 0.0, 0.0, 0.0, 1.7632280202635777E9, 0.0, 2025-11-15 12:33:40.263
11.0, -135.8406461905688, -57.51966131851077, -101.50088479742408, -81.50924958428368, -0.03200000151991844, 0.20800000987946987, 1.0240000486373901, 0.0, 0.0, 0.0, 0.0, 0.0, 1.7632280202792437E9, 0.0, 2025-11-15 12:33:40.279
11.0, -275.41371253691614, -177.38719479832798, -210.36563260760158, -173.394851595629, -0.03200000151991844, 0.20800000987946987, 1.0240000486373901, 0.0, 0.0, 0.0, 0.0, 0.0, 1.7632280202792437E9, 0.0, 2025-11-15 12:33:40.279
12.0, -185.59627520106733, -106.13462084252387, -156.03984585125, -130.21022680727765, -0.03200000151991844, 0.20800000987946987, 1.0240000486373901, 0.0, 0.0, 0.0, 0.0, 0.0, 1.7632280202799597E9, 0.0, 2025-11-15 12:33:40.279
12.0, -71.69762205053121, 1.3837629836052656, -62.70690255705267, -43.59788373345509, -0.03200000151991844, 0.20800000987946987, 1.0240000486373901, 0.0, 0.0, 0.0, 0.0, 0.0, 1.7632280202799597E9, 0.0, 2025-11-15 12:33:40.279
13.0, -271.2699033860117, -169.7877180883661, -193.96617130190134, -152.61970734177157, -0.03200000151991844, 0.20800000987946987, 1.0240000486373901, 0.0, 0.0, 0.0, 0.0, 0.0, 1.7632280202936351E9, 0.0, 2025-11-15 12:33:40.293
13.0, -251.76632511708885, -159.51421291008592, -200.37635982595384, -165.43634448992088, -0.03200000151991844, 0.20800000987946987, 1.0240000486373901, 0.0, 0.0, 0.0, 0.0, 0.0, 1.7632280202936351E9, 0.0, 2025-11-15 12:33:40.293
14.0, -65.12661782838404, 6.02497882861644, -72.15762974508107, -53.067310421261936, -0.03200000151991844, 0.20800000987946987, 1.0240000486373901, 0.0, 0.0, 0.0, 0.0, 0.0, 1.7632280203093853E9, 0.0, 2025-11-15 12:33:40.309
14.0, -218.68691000901163, -116.84569431561977, -142.60238531045616, -110.26534034358338, -0.03200000151991844, 0.20800000987946987, 1.0240000486373901, 0.0, 0.0, 0.0, 0.0, 0.0, 1.7632280203093853E9, 0.0, 2025-11-15 12:33:40.309
15.0, -272.6125274701044, -172.87313555181026, -211.74939559120685, -173.27143489709124, -0.03200000151991844, 0.20800000987946987, 1.0240000486373901, 0.0, 0.0, 0.0, 0.0, 0.0, 1.7632280203099852E9, 0.0, 2025-11-15 12:33:40.309
15.0, -110.67485938873142, -43.667071882635355, -113.53962275478989, -93.66392444027588, -0.03200000151991844, 0.20800000987946987, 1.0240000486373901, 0.0, 0.0, 0.0, 0.0, 0.0, 1.7632280203099852E9, 0.0, 2025-11-15 12:33:40.309
16.0, -135.04778739996254, -47.99039623141289, -93.7854711888358, -77.80674862815067, -0.03200000151991844, 0.20800000987946987, 1.0240000486373901, 0.0, 0.0, 0.0, 0.0, 0.0, 1.7632280203400245E9, 0.0, 2025-11-15 12:33:40.340
16.0, -280.29802187904716, -182.7202921351418, -208.12543253414333, -173.42477079527453, -0.03200000151991844, 0.20800000987946987, 1.0240000486373901, 0.0, 0.0, 0.0, 0.0, 0.0, 1.7632280203400245E9, 0.0, 2025-11-15 12:33:40.340
17.0, -194.4261789964512, -110.05777589604259, -163.77395895961672, -134.77290475321934, -0.03200000151991844, 0.20800000987946987, 1.0240000486373901, 0.0, 0.0, 0.0, 0.0, 0.0, 1.7632280203406804E9, 0.0, 2025-11-15 12:33:40.340
17.0, -64.68530963361263, 10.823270471766591, -51.692897187545896, -30.137983792927116, -0.03200000151991844, 0.20800000987946987, 1.0240000486373901, 0.0, 0.0, 0.0, 0.0, 0.0, 1.7632280203406804E9, 0.0, 2025-11-15 12:33:40.340
18.0, -263.21041898149997, -167.31564421765506, -185.3793610036373, -144.53404363757, -0.03200000151991844, 0.20800000987946987, 1.0240000486373901, 0.0, 0.0, 0.0, 0.0, 0.0, 1.76322802034142E9, 0.0, 2025-11-15 12:33:40.341
18.0, -250.8650092277676, -162.5958904735744, -202.44078460149467, -169.34080004366115, -0.03200000151991844, 0.20800000987946987, 1.0240000486373901, 0.0, 0.0, 0.0, 0.0, 0.0, 1.76322802034142E9, 0.0, 2025-11-15 12:33:40.341
19.0, -66.10273171681911, -4.9703270411118865, -79.83564435411245, -68.35976134007797, -0.03200000151991844, 0.20800000987946987, 1.0240000486373901, 0.0, 0.0, 0.0, 0.0, 0.0, 1.763228020353714E9, 0.0, 2025-11-15 12:33:40.353
19.0, -225.23547483142465, -128.8806923730299, -158.38102322351187, -125.72234686044976, -0.03200000151991844, 0.20800000987946987, 1.0240000486373901, 0.0, 0.0, 0.0, 0.0, 0.0, 1.763228020353714E9, 0.0, 2025-11-15 12:33:40.353
20.0, -276.85731391981244, -183.13916093017906, -216.065240140073, -176.53262765845284, -0.03200000151991844, 0.20800000987946987, 1.0240000486373901, 0.0, 0.0, 0.0, 0.0, 0.0, 1.7632280203692865E9, 0.0, 2025-11-15 12:33:40.369
20.0, -124.81168122123927, -53.49926886614412, -123.36807983834296, -100.34338576113805, -0.03200000151991844, 0.20800000987946987, 1.0240000486373901, 0.0, 0.0, 0.0, 0.0, 0.0, 1.7632280203692865E9, 0.0, 2025-11-15 12:33:40.369
21.0, -137.48620217107236, -57.336406220681965, -102.22642538882792, -74.54555586678907, -0.03200000151991844, 0.20800000987946987, 1.0240000486373901, 0.0, 0.0, 0.0, 0.0, 0.0, 1.76322802036999E9, 0.0, 2025-11-15 12:33:40.369
21.0, -273.0949745643884, -180.73814515862614, -207.29891464393586, -162.1714118286036, -0.03200000151991844, 0.20800000987946987, 1.0240000486373901, 0.0, 0.0, 0.0, 0.0, 0.0, 1.76322802036999E9, 0.0, 2025-11-15 12:33:40.369
22.0, -188.08330867160112, -114.79996903985739, -168.20574040710926, -139.81428989348933, -0.03200000151991844, 0.20800000987946987, 1.0240000486373901, 0.0, 0.0, 0.0, 0.0, 0.0, 1.763228020383644E9, 0.0, 2025-11-15 12:33:40.383
22.0, -71.46200835332274, -0.8339976901188493, -66.16631001606584, -49.858476259279996, -0.03200000151991844, 0.20800000987946987, 1.0240000486373901, 0.0, 0.0, 0.0, 0.0, 0.0, 1.763228020383644E9, 0.0, 2025-11-15 12:33:40.383
23.0, -263.47969177830964, -166.68360112514347, -191.80824902746826, -157.54515558341518, -0.03200000151991844, 0.20800000987946987, 1.0240000486373901, 0.0, 0.0, 0.0, 0.0, 0.0, 1.763228020399386E9, 0.0, 2025-11-15 12:33:40.399
23.0, -246.42574798036367, -156.02114635147154, -197.25354336295277, -159.1346130645834, -0.03200000151991844, 0.20800000987946987, 1.0240000486373901, 0.0, 0.0, 0.0, 0.0, 0.0, 1.763228020399386E9, 0.0, 2025-11-15 12:33:40.399
24.0, -63.55211994703859, 0.8788764895871282, -75.83395140152425, -59.62335504358634, -0.03200000151991844, 0.20800000987946987, 1.0240000486373901, 0.0, 0.0, 0.0, 0.0, 0.0, 1.7632280203999405E9, 0.0, 2025-11-15 12:33:40.399
24.0, -209.6213925164193, -113.15067315939814, -140.90073083061725, -108.14107716875151, -0.03200000151991844, 0.20800000987946987, 1.0240000486373901, 0.0, 0.0, 0.0, 0.0, 0.0, 1.7632280203999405E9, 0.0, 2025-11-15 12:33:40.399
25.0, -267.9039934258908, -175.8650555163622, -209.82708701398224, -163.48411671305075, -0.03200000151991844, 0.20800000987946987, 1.0240000486373901, 0.0, 0.0, 0.0, 0.0, 0.0, 1.763228020413656E9, 0.0, 2025-11-15 12:33:40.413
25.0, -129.86802596133202, -53.5067486660555, -125.06225451827049, -104.73776820907369, -0.03200000151991844, 0.20800000987946987, 1.0240000486373901, 0.0, 0.0, 0.0, 0.0, 0.0, 1.763228020413656E9, 0.0, 2025-11-15 12:33:40.413
26.0, -136.71204288024455, -47.53412843681872, -91.563970615156, -68.19146584207192, -0.03200000151991844, 0.20800000987946987, 1.0240000486373901, 0.0, 0.0, 0.0, 0.0, 0.0, 1.7632280204292808E9, 0.0, 2025-11-15 12:33:40.429
26.0, -269.8263020031154, -178.3820081865415, -203.48795658908784, -169.57267384091392, -0.03200000151991844, 0.20800000987946987, 1.0240000486373901, 0.0, 0.0, 0.0, 0.0, 0.0, 1.7632280204292808E9, 0.0, 2025-11-15 12:33:40.429
27.0, -192.3916734205559, -116.10893402434886, -174.98991892673075, -154.6055942182429, -0.03200000151991844, 0.20800000987946987, 1.0240000486373901, 0.0, 0.0, 0.0, 0.0, 0.0, 1.7632280204299972E9, 0.0, 2025-11-15 12:33:40.429
27.0, -68.63838388677686, 1.6006771810352802, -64.66661013383418, -54.679207302164286, -0.03200000151991844, 0.20800000987946987, 1.0240000486373901, 0.0, 0.0, 0.0, 0.0, 0.0, 1.7632280204299972E9, 0.0, 2025-11-15 12:33:40.429
28.0, -265.7610307512805, -161.9675872810185, -183.33363572787493, -145.1960059297271, -0.03200000151991844, 0.20800000987946987, 1.0240000486373901, 0.0, 0.0, 0.0, 0.0, 0.0, 1.7632280204436207E9, 0.0, 2025-11-15 12:33:40.443
28.0, -250.6331354305148, -157.15807593800128, -193.15087311156094, -155.5704884068109, -0.03200000151991844, 0.20800000987946987, 1.0240000486373901, 0.0, 0.0, 0.0, 0.0, 0.0, 1.7632280204436207E9, 0.0, 2025-11-15 12:33:40.443
29.0, -64.86482483148575, 3.8745363540947437, -69.94360897131264, -55.0457174978219, -0.03200000151991844, 0.20800000987946987, 1.0240000486373901, 0.0, 0.0, 0.0, 0.0, 0.0, 1.7632280204593842E9, 0.0, 2025-11-15 12:33:40.459
29.0, -207.22037674486637, -112.17455927096307, -143.32044610194862, -117.72270085522905, -0.03200000151991844, 0.20800000987946987, 1.0240000486373901, 0.0, 0.0, 0.0, 0.0, 0.0, 1.7632280204593842E9, 0.0, 2025-11-15 12:33:40.459
30.0, -264.02571717184037, -173.49769884441048, -206.85386654920876, -169.04160804720595, -0.03200000151991844, 0.20800000987946987, 1.0240000486373901, 0.0, 0.0, 0.0, 0.0, 0.0, 1.7632280204600625E9, 0.0, 2025-11-15 12:33:40.460
30.0, -106.57218913733959, -37.95624465029687, -106.48243153840303, -90.08858008263633, -0.03200000151991844, 0.20800000987946987, 1.0240000486373901, 0.0, 0.0, 0.0, 0.0, 0.0, 1.7632280204600625E9, 0.0, 2025-11-15 12:33:40.460
31.0, -133.70890321582556, -50.37645240314305, -98.76701792981476, -84.07482095388696, -0.03200000151991844, 0.20800000987946987, 1.0240000486373901, 0.0, 0.0, 0.0, 0.0, 0.0, 1.763228020473604E9, 0.0, 2025-11-15 12:33:40.473
31.0, -282.4634239533916, -183.40843372698873, -215.96426284126937, -184.12836446845904, -0.03200000151991844, 0.20800000987946987, 1.0240000486373901, 0.0, 0.0, 0.0, 0.0, 0.0, 1.763228020473604E9, 0.0, 2025-11-15 12:33:40.473
32.0, -194.85252759139985, -119.94981127884239, -172.83199665229768, -151.0489493603818, -0.03200000151991844, 0.20800000987946987, 1.0240000486373901, 0.0, 0.0, 0.0, 0.0, 0.0, 1.7632280204892902E9, 0.0, 2025-11-15 12:33:40.489
32.0, -73.810665525496, -3.6763216564431787, -67.94276249501854, -64.42912648664787, -0.03200000151991844, 0.20800000987946987, 1.0240000486373901, 0.0, 0.0, 0.0, 0.0, 0.0, 1.7632280204892902E9, 0.0, 2025-11-15 12:33:40.489
33.0, -268.29294302128255, -167.038891620934, -185.67107320018113, -149.10046148346737, -0.03200000151991844, 0.20800000987946987, 1.0240000486373901, 0.0, 0.0, 0.0, 0.0, 0.0, 1.7632280204899852E9, 0.0, 2025-11-15 12:33:40.489
33.0, -249.95621353853494, -163.20549416635185, -202.45200430136174, -162.7585761216469, -0.03200000151991844, 0.20800000987946987, 1.0240000486373901, 0.0, 0.0, 0.0, 0.0, 0.0, 1.7632280204899852E9, 0.0, 2025-11-15 12:33:40.489
34.0, -56.7305424278602, 8.84860329516232, -70.46345506515354, -59.84026924101636, -0.03200000151991844, 0.20800000987946987, 1.0240000486373901, 0.0, 0.0, 0.0, 0.0, 0.0, 1.7632280205036364E9, 0.0, 2025-11-15 12:33:40.503
34.0, -207.47468994185328, -110.4616850912571, -141.46545572392642, -109.90257004788145, -0.03200000151991844, 0.20800000987946987, 1.0240000486373901, 0.0, 0.0, 0.0, 0.0, 0.0, 1.7632280205036364E9, 0.0, 2025-11-15 12:33:40.503
35.0, -276.4683643244207, -183.22143872920424, -215.23498234990984, -180.6988762090914, -0.03200000151991844, 0.20800000987946987, 1.0240000486373901, 0.0, 0.0, 0.0, 0.0, 0.0, 1.7632280205192828E9, 0.0, 2025-11-15 12:33:40.519
35.0, -121.21015756390989, -57.62437851727009, -123.63361273519695, -107.45293557690457, -0.03200000151991844, 0.20800000987946987, 1.0240000486373901, 0.0, 0.0, 0.0, 0.0, 0.0, 1.7632280205192828E9, 0.0, 2025-11-15 12:33:40.519
36.0, -134.79347420297563, -52.19404378160834, -95.56940346769989, -79.27278941078112, -0.03200000151991844, 0.20800000987946987, 1.0240000486373901, 0.0, 0.0, 0.0, 0.0, 0.0, 1.7632280205199883E9, 0.0, 2025-11-15 12:33:40.519
36.0, -275.9372985307127, -186.81548258662224, -204.27333557978272, -164.63226599944755, -0.03200000151991844, 0.20800000987946987, 1.0240000486373901, 0.0, 0.0, 0.0, 0.0, 0.0, 1.7632280205199883E9, 0.0, 2025-11-15 12:33:40.519
37.0, -192.86290081497282, -123.01278934255242, -174.22697933577, -144.16753344191238, -0.03200000151991844, 0.20800000987946987, 1.0240000486373901, 0.0, 0.0, 0.0, 0.0, 0.0, 1.7632280205336325E9, 0.0, 2025-11-15 12:33:40.533
37.0, -68.82911878451705, -5.123662939295173, -69.7005154741928, -54.279038006905466, -0.03200000151991844, 0.20800000987946987, 1.0240000486373901, 0.0, 0.0, 0.0, 0.0, 0.0, 1.7632280205336325E9, 0.0, 2025-11-15 12:33:40.533
38.0, -270.5256632948294, -172.66744105424732, -193.4949439074844, -157.11132718855515, -0.03200000151991844, 0.20800000987946987, 1.0240000486373901, 0.0, 0.0, 0.0, 0.0, 0.0, 1.76322802054927E9, 0.0, 2025-11-15 12:33:40.549
38.0, -242.94390112161636, -162.45751417521387, -198.9065791433677, -160.69415134610608, -0.03200000151991844, 0.20800000987946987, 1.0240000486373901, 0.0, 0.0, 0.0, 0.0, 0.0, 1.76322802054927E9, 0.0, 2025-11-15 12:33:40.549
39.0, -63.90741044282913, -5.104963439516723, -79.05400526337326, -77.55991523107514, -0.03200000151991844, 0.20800000987946987, 1.0240000486373901, 0.0, 0.0, 0.0, 0.0, 0.0, 1.763228020549981E9, 0.0, 2025-11-15 12:33:40.549
39.0, -208.15161183383316, -121.38593286182731, -146.83595206029713, -117.86481705354527, -0.03200000151991844, 0.20800000987946987, 1.0240000486373901, 0.0, 0.0, 0.0, 0.0, 0.0, 1.763228020549981E9, 0.0, 2025-11-15 12:33:40.549
40.0, -279.67345858644694, -190.39830674417317, -222.94291615858674, -180.63903780980036, -0.03200000151991844, 0.20800000987946987, 1.0240000486373901, 0.0, 0.0, 0.0, 0.0, 0.0, 1.763228020563641E9, 0.0, 2025-11-15 12:33:40.563
40.0, -120.15550577640533, -49.22830311674625, -120.19664467591792, -87.63146581174806, -0.03200000151991844, 0.20800000987946987, 1.0240000486373901, 0.0, 0.0, 0.0, 0.0, 0.0, 1.763228020563641E9, 0.0, 2025-11-15 12:33:40.563
41.0, -134.2848478090018, -45.92597145587206, -93.43766049295664, -61.44468632200733, -0.03200000151991844, 0.20800000987946987, 1.0240000486373901, 0.0, 0.0, 0.0, 0.0, 0.0, 1.7632280205793562E9, 0.0, 2025-11-15 12:33:40.579
41.0, -278.5365289999172, -178.46802588552237, -202.8372139967978, -157.99020367814228, -0.03200000151991844, 0.20800000987946987, 1.0240000486373901, 0.0, 0.0, 0.0, 0.0, 0.0, 1.7632280205793562E9, 0.0, 2025-11-15 12:33:40.579
42.0, -199.62090003490448, -116.59138111863285, -177.66020749509335, -148.1991455941461, -0.03200000151991844, 0.20800000987946987, 1.0240000486373901, 0.0, 0.0, 0.0, 0.0, 0.0, 1.7632280205799944E9, 0.0, 2025-11-15 12:33:40.579
42.0, -69.41628307756037, -1.1818083859980106, -67.00404760614038, -55.83857628842816, -0.03200000151991844, 0.20800000987946987, 1.0240000486373901, 0.0, 0.0, 0.0, 0.0, 0.0, 1.7632280205799944E9, 0.0, 2025-11-15 12:33:40.579
43.0, -260.0876025184989, -161.61977658513933, -184.7211386114359, -146.82286241045222, -0.03200000151991844, 0.20800000987946987, 1.0240000486373901, 0.0, 0.0, 0.0, 0.0, 0.0, 1.763228020593598E9, 0.0, 2025-11-15 12:33:40.593
43.0, -236.46265449840575, -149.7007154263556, -186.86036138609052, -149.84096167469397, -0.03200000151991844, 0.20800000987946987, 1.0240000486373901, 0.0, 0.0, 0.0, 0.0, 0.0, 1.763228020593598E9, 0.0, 2025-11-15 12:33:40.593
44.0, -64.01586754154414, 4.775852243416011, -70.60183136351407, -58.92773365182802, -0.03200000151991844, 0.20800000987946987, 1.0240000486373901, 0.0, 0.0, 0.0, 0.0, 0.0, 1.7632280206092775E9, 0.0, 2025-11-15 12:33:40.609
44.0, -217.71079612057656, -116.01169662550092, -146.01691397000104, -109.74923414969817, -0.03200000151991844, 0.20800000987946987, 1.0240000486373901, 0.0, 0.0, 0.0, 0.0, 0.0, 1.7632280206092775E9, 0.0, 2025-11-15 12:33:40.609
45.0, -265.91810654941946, -172.49914555624127, -209.01926862355322, -178.48485543532297, -0.03200000151991844, 0.20800000987946987, 1.0240000486373901, 0.0, 0.0, 0.0, 0.0, 0.0, 1.7632280206099823E9, 0.0, 2025-11-15 12:33:40.609
45.0, -120.75388976931572, -49.52749511320144, -118.32295479811728, -110.06712564593181, -0.03200000151991844, 0.20800000987946987, 1.0240000486373901, 0.0, 0.0, 0.0, 0.0, 0.0, 1.7632280206099823E9, 0.0, 2025-11-15 12:33:40.609
46.0, -126.96212369576097, -36.045155772939324, -79.56637155730277, -67.76511724712327, -0.03200000151991844, 0.20800000987946987, 1.0240000486373901, 0.0, 0.0, 0.0, 0.0, 0.0, 1.7632280206236212E9, 0.0, 2025-11-15 12:33:40.623
46.0, -273.618560558185, -170.77879157662392, -200.47359722480178, -161.86100013228133, -0.03200000151991844, 0.20800000987946987, 1.0240000486373901, 0.0, 0.0, 0.0, 0.0, 0.0, 1.7632280206236212E9, 0.0, 2025-11-15 12:33:40.623
47.0, -192.76940331608057, -111.95390517357737, -163.2952517652884, -138.03035761462525, -0.03200000151991844, 0.20800000987946987, 1.0240000486373901, 0.0, 0.0, 0.0, 0.0, 0.0, 1.7632280206392953E9, 0.0, 2025-11-15 12:33:40.639
47.0, -63.26040775049478, 8.354936501011252, -54.87555204983801, -56.18264708435163, -0.03200000151991844, 0.20800000987946987, 1.0240000486373901, 0.0, 0.0, 0.0, 0.0, 0.0, 1.7632280206392953E9, 0.0, 2025-11-15 12:33:40.639
48.0, -246.95681377407163, -147.19872235599905, -173.52013824414462, -137.46937262127176, -0.03200000151991844, 0.20800000987946987, 1.0240000486373901, 0.0, 0.0, 0.0, 0.0, 0.0, 1.7632280206399877E9, 0.0, 2025-11-15 12:33:40.639
48.0, -247.79455136414617, -155.77057305444032, -193.91755260247737, -165.57098088832572, -0.03200000151991844, 0.20800000987946987, 1.0240000486373901, 0.0, 0.0, 0.0, 0.0, 0.0, 1.7632280206399877E9, 0.0, 2025-11-15 12:33:40.639
49.0, -60.10019228793681, 12.84655634779483, -62.935036454349756, -61.3437090232037, -0.03200000151991844, 0.20800000987946987, 1.0240000486373901, 0.0, 0.0, 0.0, 0.0, 0.0, 1.7632280206536226E9, 0.0, 2025-11-15 12:33:40.653
49.0, -209.97294311225414, -110.43550579156727, -141.30837992578745, -112.28862621961161, -0.03200000151991844, 0.20800000987946987, 1.0240000486373901, 0.0, 0.0, 0.0, 0.0, 0.0, 1.7632280206536226E9, 0.0, 2025-11-15 12:33:40.653
50.0, -279.08255439344794, -176.1605076128617, -208.45080383028835, -171.33790661999956, -0.03200000151991844, 0.20800000987946987, 1.0240000486373901, 0.0, 0.0, 0.0, 0.0, 0.0, 1.7632280206693168E9, 0.0, 2025-11-15 12:33:40.669
50.0, -119.06345498934388, -41.284755610860884, -110.84689478669316, -97.97228918923065, -0.03200000151991844, 0.20800000987946987, 1.0240000486373901, 0.0, 0.0, 0.0, 0.0, 0.0, 1.7632280206693168E9, 0.0, 2025-11-15 12:33:40.669
51.0, -125.19689091667533, -33.07193530816585, -79.79076555464417, -72.68682558881119, -0.03200000151991844, 0.20800000987946987, 1.0240000486373901, 0.0, 0.0, 0.0, 0.0, 0.0, 1.7632280206699917E9, 0.0, 2025-11-15 12:33:40.669
51.0, -272.6873254692182, -170.05699088517576, -197.80330865643919, -165.22691009240225, -0.03200000151991844, 0.20800000987946987, 1.0240000486373901, 0.0, 0.0, 0.0, 0.0, 0.0, 1.7632280206699917E9, 0.0, 2025-11-15 12:33:40.669
52.0, -191.78206972777843, -118.97743729036301, -169.9373140865937, -150.07283547194675, -0.03200000151991844, 0.20800000987946987, 1.0240000486373901, 0.0, 0.0, 0.0, 0.0, 0.0, 1.7632280206836128E9, 0.0, 2025-11-15 12:33:40.683
52.0, -52.500715577974916, 20.382454758509994, -45.87735275644809, -41.27540586097166, -0.03200000151991844, 0.20800000987946987, 1.0240000486373901, 0.0, 0.0, 0.0, 0.0, 0.0, 1.7632280206836128E9, 0.0, 2025-11-15 12:33:40.683
53.0, -264.9120734613389, -155.22828756086528, -177.65646759513766, -146.58724871324375, -0.03200000151991844, 0.20800000987946987, 1.0240000486373901, 0.0, 0.0, 0.0, 0.0, 0.0, 1.7632280206993072E9, 0.0, 2025-11-15 12:33:40.699
53.0, -241.75087303575128, -150.80024601332843, -186.49011129047722, -153.56216213060543, -0.03200000151991844, 0.20800000987946987, 1.0240000486373901, 0.0, 0.0, 0.0, 0.0, 0.0, 1.7632280206993072E9, 0.0, 2025-11-15 12:33:40.699
54.0, -56.554767129942775, 15.333589818328619, -62.25437466241419, -51.31329734204337, -0.03200000151991844, 0.20800000987946987, 1.0240000486373901, 0.0, 0.0, 0.0, 0.0, 0.0, 1.7632280206999905E9, 0.0, 2025-11-15 12:33:40.699
54.0, -193.74177730455995, -98.29953043535352, -127.60164658818394, -99.41589057212695, -0.03200000151991844, 0.20800000987946987, 1.0240000486373901, 0.0, 0.0, 0.0, 0.0, 0.0, 1.7632280206999905E9, 0.0, 2025-11-15 12:33:40.699
55.0, -269.1269407114014, -166.5265253270045, -200.7615695213899, -163.7234703102149, -0.03200000151991844, 0.20800000987946987, 1.0240000486373901, 0.0, 0.0, 0.0, 0.0, 0.0, 1.763228020713628E9, 0.0, 2025-11-15 12:33:40.713
55.0, -114.60549424216151, -46.427118049934506, -115.98551732581109, -102.5835858345963, -0.03200000151991844, 0.20800000987946987, 1.0240000486373901, 0.0, 0.0, 0.0, 0.0, 0.0, 1.763228020713628E9, 0.0, 2025-11-15 12:33:40.713
56.0, -127.91953808441758, -37.234443958848715, -83.28009221330285, -58.03389756241813, -0.03200000151991844, 0.20800000987946987, 1.0240000486373901, 0.0, 0.0, 0.0, 0.0, 0.0, 1.763228020729278E9, 0.0, 2025-11-15 12:33:40.729
56.0, -287.14951859787107, -182.24158494081348, -208.46202353015542, -169.80828753812239, -0.03200000151991844, 0.20800000987946987, 1.0240000486373901, 0.0, 0.0, 0.0, 0.0, 0.0, 1.763228020729278E9, 0.0, 2025-11-15 12:33:40.729
57.0, -195.06570188887417, -109.61646770127118, -168.46005360409617, -140.8951209806837, -0.03200000151991844, 0.20800000987946987, 1.0240000486373901, 0.0, 0.0, 0.0, 0.0, 0.0, 1.76322802072998E9, 0.0, 2025-11-15 12:33:40.729
57.0, -65.45572902448475, 10.669934573583305, -59.06050010025501, -46.36914960062131, -0.03200000151991844, 0.20800000987946987, 1.0240000486373901, 0.0, 0.0, 0.0, 0.0, 0.0, 1.76322802072998E9, 0.0, 2025-11-15 12:33:40.729
58.0, -266.9428391372785, -155.39658305887133, -180.4913117615506, -136.87098862836137, -0.03200000151991844, 0.20800000987946987, 1.0240000486373901, 0.0, 0.0, 0.0, 0.0, 0.0, 1.76322802074361E9, 0.0, 2025-11-15 12:33:40.743
58.0, -254.03270449023694, -159.91438220534474, -201.80500160902739, -160.2453633514233, -0.03200000151991844, 0.20800000987946987, 1.0240000486373901, 0.0, 0.0, 0.0, 0.0, 0.0, 1.76322802074361E9, 0.0, 2025-11-15 12:33:40.743
59.0, -56.06110033579171, 14.136821832507849, -71.43208915367723, -65.5286570736207, -0.03200000151991844, 0.20800000987946987, 1.0240000486373901, 0.0, 0.0, 0.0, 0.0, 0.0, 1.7632280207593E9, 0.0, 2025-11-15 12:33:40.759
59.0, -200.00236983038485, -99.35418222285807, -135.1375449988991, -102.09739884035662, -0.03200000151991844, 0.20800000987946987, 1.0240000486373901, 0.0, 0.0, 0.0, 0.0, 0.0, 1.7632280207593E9, 0.0, 2025-11-15 12:33:40.759
60.0, -267.2831700332463, -170.3449631817639, -202.7998149972409, -164.3517735027708, -0.03200000151991844, 0.20800000987946987, 1.0240000486373901, 0.0, 0.0, 0.0, 0.0, 0.0, 1.763228020759991E9, 0.0, 2025-11-15 12:33:40.759
60.0, -118.03872240148485, -42.9826701907441, -115.65266622975469, -98.9184838780202, -0.03200000151991844, 0.20800000987946987, 1.0240000486373901, 0.0, 0.0, 0.0, 0.0, 0.0, 1.763228020759991E9, 0.0, 2025-11-15 12:33:40.759
61.0, -129.1350055700168, -36.19849167112261, -80.76313954312354, -59.48871864518151, -0.03200000151991844, 0.20800000987946987, 1.0240000486373901, 0.0, 0.0, 0.0, 0.0, 0.0, 1.7632280207736564E9, 0.0, 2025-11-15 12:33:40.773
61.0, -280.4363981774077, -179.3469023751095, -201.9882567068562, -166.3900189786218, -0.03200000151991844, 0.20800000987946987, 1.0240000486373901, 0.0, 0.0, 0.0, 0.0, 0.0, 1.7632280207736564E9, 0.0, 2025-11-15 12:33:40.773
62.0, -194.3102420978248, -109.33223530463874, -161.84417058248073, -136.69147343048826, -0.03200000151991844, 0.20800000987946987, 1.0240000486373901, 0.0, 0.0, 0.0, 0.0, 0.0, 1.763228020789307E9, 0.0, 2025-11-15 12:33:40.789
62.0, -62.579745958559215, 11.324417065829039, -58.34243930876255, -46.55240469845012, -0.03200000151991844, 0.20800000987946987, 1.0240000486373901, 0.0, 0.0, 0.0, 0.0, 0.0, 1.763228020789307E9, 0.0, 2025-11-15 12:33:40.789
63.0, -261.7443781988695, -162.12466307915747, -183.24761802889407, -145.8691879217513, -0.03200000151991844, 0.20800000987946987, 1.0240000486373901, 0.0, 0.0, 0.0, 0.0, 0.0, 1.7632280207899828E9, 0.0, 2025-11-15 12:33:40.789
63.0, -243.1907345186919, -156.36521714739501, -193.5734818065539, -152.98621753742918, -0.03200000151991844, 0.20800000987946987, 1.0240000486373901, 0.0, 0.0, 0.0, 0.0, 0.0, 1.7632280207899828E9, 0.0, 2025-11-15 12:33:40.789
64.0, -54.33700645621866, 8.43347440008074, -65.066779429093, -59.36904184659943, -0.03200000151991844, 0.20800000987946987, 1.0240000486373901, 0.0, 0.0, 0.0, 0.0, 0.0, 1.7632280208036244E9, 0.0, 2025-11-15 12:33:40.803
64.0, -209.8009077142924, -106.58714873716235, -131.84643303789198, -96.53242770629004, -0.03200000151991844, 0.20800000987946987, 1.0240000486373901, 0.0, 0.0, 0.0, 0.0, 0.0, 1.7632280208036244E9, 0.0, 2025-11-15 12:33:40.803
65.0, -272.74342396855354, -181.8601151453331, -206.8015079498291, -171.36782581964508, -0.03200000151991844, 0.20800000987946987, 1.0240000486373901, 0.0, 0.0, 0.0, 0.0, 0.0, 1.7632280208192875E9, 0.0, 2025-11-15 12:33:40.819
65.0, -131.04983434733003, -56.03866093605757, -125.61949961166829, -115.1833087853156, -0.03200000151991844, 0.20800000987946987, 1.0240000486373901, 0.0, 0.0, 0.0, 0.0, 0.0, 1.7632280208192875E9, 0.0, 2025-11-15 12:33:40.819
66.0, -135.04030760005116, -44.127079577185214, -89.53320493921638, -68.48317803861573, -0.03200000151991844, 0.20800000987946987, 1.0240000486373901, 0.0, 0.0, 0.0, 0.0, 0.0, 1.7632280208199773E9, 0.0, 2025-11-15 12:33:40.819
66.0, -278.89181949570775, -181.13083465397358, -207.20167724508792, -166.63311247574165, -0.03200000151991844, 0.20800000987946987, 1.0240000486373901, 0.0, 0.0, 0.0, 0.0, 0.0, 1.7632280208199773E9, 0.0, 2025-11-15 12:33:40.819
67.0, -195.11806048825383, -111.49015757907182, -165.4456942398101, -135.91357423970476, -0.03200000151991844, 0.20800000987946987, 1.0240000486373901, 0.0, 0.0, 0.0, 0.0, 0.0, 1.7632280208336537E9, 0.0, 2025-11-15 12:33:40.833
67.0, -67.57999219931662, 2.9507810650393367, -67.19852240383625, -59.204486248549074, -0.03200000151991844, 0.20800000987946987, 1.0240000486373901, 0.0, 0.0, 0.0, 0.0, 0.0, 1.7632280208336537E9, 0.0, 2025-11-15 12:33:40.833
68.0, -265.4580988548696, -163.96095395740122, -184.77349721081555, -141.0521967788227, -0.03200000151991844, 0.20800000987946987, 1.0240000486373901, 0.0, 0.0, 0.0, 0.0, 0.0, 1.7632280208492908E9, 0.0, 2025-11-15 12:33:40.849
68.0, -253.64749479480088, -167.51011901535094, -202.388426002115, -166.8425468732603, -0.03200000151991844, 0.20800000987946987, 1.0240000486373901, 0.0, 0.0, 0.0, 0.0, 0.0, 1.7632280208492908E9, 0.0, 2025-11-15 12:33:40.849
69.0, -64.83490563184023, -4.484140046872199, -78.07789137493819, -70.54760281415656, -0.03200000151991844, 0.20800000987946987, 1.0240000486373901, 0.0, 0.0, 0.0, 0.0, 0.0, 1.763228020849983E9, 0.0, 2025-11-15 12:33:40.849
69.0, -203.54779498837888, -101.90479399263859, -133.57426681742072, -95.97144271293655, -0.03200000151991844, 0.20800000987946987, 1.0240000486373901, 0.0, 0.0, 0.0, 0.0, 0.0, 1.763228020849983E9, 0.0, 2025-11-15 12:33:40.849
70.0, -264.5642627654597, -172.91801435127854, -204.49398967716843, -165.10723329382017, -0.03200000151991844, 0.20800000987946987, 1.0240000486373901, 0.0, 0.0, 0.0, 0.0, 0.0, 1.7632280208635993E9, 0.0, 2025-11-15 12:33:40.863
70.0, -125.38762581441551, -53.293574368581176, -121.44203136116266, -102.4751287358813, -0.03200000151991844, 0.20800000987946987, 1.0240000486373901, 0.0, 0.0, 0.0, 0.0, 0.0, 1.7632280208635993E9, 0.0, 2025-11-15 12:33:40.863
71.0, -130.41031145490706, -41.284755610860884, -94.2305192835629, -70.96273170923814, -0.03200000151991844, 0.20800000987946987, 1.0240000486373901, 0.0, 0.0, 0.0, 0.0, 0.0, 1.7632280208794086E9, 0.0, 2025-11-15 12:33:40.879
71.0, -271.0118502890691, -174.40275463368744, -204.2434163801372, -159.88259305572137, -0.03200000151991844, 0.20800000987946987, 1.0240000486373901, 0.0, 0.0, 0.0, 0.0, 0.0, 1.7632280208794086E9, 0.0, 2025-11-15 12:33:40.879
72.0, -188.34136176854372, -113.79767585173249, -163.63932256121188, -126.19357425486669, -0.03200000151991844, 0.20800000987946987, 1.0240000486373901, 0.0, 0.0, 0.0, 0.0, 0.0, 1.7632280208800056E9, 0.0, 2025-11-15 12:33:40.880
72.0, -61.70460936892778, 7.812651007436216, -59.56538659427315, -53.05983062135056, -0.03200000151991844, 0.20800000987946987, 1.0240000486373901, 0.0, 0.0, 0.0, 0.0, 0.0, 1.7632280208800056E9, 0.0, 2025-11-15 12:33:40.880
73.0, -263.7489645751193, -162.04612518008798, -185.11382810678333, -143.76362424669787, -0.03200000151991844, 0.20800000987946987, 1.0240000486373901, 0.0, 0.0, 0.0, 0.0, 0.0, 1.7632280208936448E9, 0.0, 2025-11-15 12:33:40.893
73.0, -246.65014197770506, -160.40056919958442, -201.52076921239495, -157.14124638820067, -0.03200000151991844, 0.20800000987946987, 1.0240000486373901, 0.0, 0.0, 0.0, 0.0, 0.0, 1.7632280208936448E9, 0.0, 2025-11-15 12:33:40.893
74.0, -59.19139659870416, 6.44010772369802, -73.10008453391492, -70.32694871677086, -0.03200000151991844, 0.20800000987946987, 1.0240000486373901, 0.0, 0.0, 0.0, 0.0, 0.0, 1.7632280209094036E9, 0.0, 2025-11-15 12:33:40.909
74.0, -201.25523631554097, -102.24512488860637, -130.66088475193828, -94.58767972933128, -0.03200000151991844, 0.20800000987946987, 1.0240000486373901, 0.0, 0.0, 0.0, 0.0, 0.0, 1.7632280209094036E9, 0.0, 2025-11-15 12:33:40.909
75.0, -272.2684566741809, -175.16569422464818, -206.51353565324098, -167.48954956559464, -0.03200000151991844, 0.20800000987946987, 1.0240000486373901, 0.0, 0.0, 0.0, 0.0, 0.0, 1.76322802090998E9, 0.0, 2025-11-15 12:33:40.909
75.0, -135.22730259783566, -58.72764900419861, -133.0992995230481, -125.77844535978511, -0.03200000151991844, 0.20800000987946987, 1.0240000486373901, 0.0, 0.0, 0.0, 0.0, 0.0, 1.76322802090998E9, 0.0, 2025-11-15 12:33:40.909
76.0, -127.11171969398856, -42.058914901688695, -89.51824533939362, -71.76307029975578, -0.03200000151991844, 0.20800000987946987, 1.0240000486373901, 0.0, 0.0, 0.0, 0.0, 0.0, 1.763228020923637E9, 0.0, 2025-11-15 12:33:40.923
76.0, -269.9085798021406, -166.83319712337106, -196.84963416773826, -158.910219067242, -0.03200000151991844, 0.20800000987946987, 1.0240000486373901, 0.0, 0.0, 0.0, 0.0, 0.0, 1.763228020923637E9, 0.0, 2025-11-15 12:33:40.923
77.0, -196.10913397651166, -117.60863390658051, -173.0040320502594, -147.79897629888728, -0.03200000151991844, 0.20800000987946987, 1.0240000486373901, 0.0, 0.0, 0.0, 0.0, 0.0, 1.7632280209394205E9, 0.0, 2025-11-15 12:33:40.939
77.0, -61.85046546719968, 6.885155818425119, -61.68964976910502, -52.46518652839586, -0.03200000151991844, 0.20800000987946987, 1.0240000486373901, 0.0, 0.0, 0.0, 0.0, 0.0, 1.7632280209394205E9, 0.0, 2025-11-15 12:33:40.939
78.0, -255.88021506834775, -159.79844530671835, -183.44583272654563, -144.96787203243002, -0.03200000151991844, 0.20800000987946987, 1.0240000486373901, 0.0, 0.0, 0.0, 0.0, 0.0, 1.7632280209399931E9, 0.0, 2025-11-15 12:33:40.939
78.0, -253.54651749599725, -163.64306246116757, -202.14159260503948, -161.74132333369926, -0.03200000151991844, 0.20800000987946987, 1.0240000486373901, 0.0, 0.0, 0.0, 0.0, 0.0, 1.7632280209399931E9, 0.0, 2025-11-15 12:33:40.939
79.0, -67.5126740001142, -2.169141974300146, -92.03145810961723, -92.70651005161926, -0.03200000151991844, 0.20800000987946987, 1.0240000486373901, 0.0, 0.0, 0.0, 0.0, 0.0, 1.76322802095366E9, 0.0, 2025-11-15 12:33:40.953
79.0, -208.37600583117455, -114.99818373750895, -141.5140744233504, -104.5881722108461, -0.03200000151991844, 0.20800000987946987, 1.0240000486373901, 0.0, 0.0, 0.0, 0.0, 0.0, 1.76322802095366E9, 0.0, 2025-11-15 12:33:40.953
80.0, -271.03054978884757, -174.47381273284554, -212.73672917950898, -169.3557596434839, -0.03200000151991844, 0.20800000987946987, 1.0240000486373901, 0.0, 0.0, 0.0, 0.0, 0.0, 1.7632280209693975E9, 0.0, 2025-11-15 12:33:40.969
80.0, -130.27567505650222, -62.85649855528027, -137.28050767350942, -123.59060388570651, -0.03200000151991844, 0.20800000987946987, 1.0240000486373901, 0.0, 0.0, 0.0, 0.0, 0.0, 1.7632280209693975E9, 0.0, 2025-11-15 12:33:40.969
81.0, -131.59585974086076, -45.47344356123358, -96.33234305866063, -77.09616763656959, -0.03200000151991844, 0.20800000987946987, 1.0240000486373901, 0.0, 0.0, 0.0, 0.0, 0.0, 1.763228020969982E9, 0.0, 2025-11-15 12:33:40.969
81.0, -271.9393454780802, -181.50108474958688, -204.80814127344638, -161.78246223321185, -0.03200000151991844, 0.20800000987946987, 1.0240000486373901, 0.0, 0.0, 0.0, 0.0, 0.0, 1.763228020969982E9, 0.0, 2025-11-15 12:33:40.969
82.0, -210.2122967094183, -131.90627143718302, -191.6436934294179, -165.3204075912945, -0.03200000151991844, 0.20800000987946987, 1.0240000486373901, 0.0, 0.0, 0.0, 0.0, 0.0, 1.7632280209836292E9, 0.0, 2025-11-15 12:33:40.983
82.0, -69.63319727499038, 2.2252404736354947, -74.9625547118485, -71.46387830330059, -0.03200000151991844, 0.20800000987946987, 1.0240000486373901, 0.0, 0.0, 0.0, 0.0, 0.0, 1.7632280209836292E9, 0.0, 2025-11-15 12:33:40.983
83.0, -257.4135740501806, -159.49925331026316, -184.04047681950033, -138.36694861063734, -0.03200000151991844, 0.20800000987946987, 1.0240000486373901, 0.0, 0.0, 0.0, 0.0, 0.0, 1.7632280209994383E9, 0.0, 2025-11-15 12:33:40.999
83.0, -248.64724855404347, -167.86914941109717, -207.74396273866296, -163.41305861389264, -0.03200000151991844, 0.20800000987946987, 1.0240000486373901, 0.0, 0.0, 0.0, 0.0, 0.0, 1.7632280209994383E9, 0.0, 2025-11-15 12:33:40.999
84.0, -58.09186601173133, -1.810111578553915, -95.35248927026987, -95.35061932029203, -0.03200000151991844, 0.20800000987946987, 1.0240000486373901, 0.0, 0.0, 0.0, 0.0, 0.0, 1.7632280209999783E9, 0.0, 2025-11-15 12:33:40.999
84.0, -204.20227748062462, -116.11267392430454, -141.66741032153368, -111.0731587340124, -0.03200000151991844, 0.20800000987946987, 1.0240000486373901, 0.0, 0.0, 0.0, 0.0, 0.0, 1.7632280209999783E9, 0.0, 2025-11-15 12:33:40.999
85.0, -269.0558826122433, -180.1995995650068, -211.2482489971444, -164.67340489896014, -0.03200000151991844, 0.20800000987946987, 1.0240000486373901, 0.0, 0.0, 0.0, 0.0, 0.0, 1.763228021013616E9, 0.0, 2025-11-15 12:33:41.013
85.0, -130.75064235087484, -64.84986523166299, -140.88951113075018, -128.66190822562203, -0.03200000151991844, 0.20800000987946987, 1.0240000486373901, 0.0, 0.0, 0.0, 0.0, 0.0, 1.763228021013616E9, 0.0, 2025-11-15 12:33:41.013
86.0, -129.63989206403494, -43.96626387909055, -90.55419762711972, -72.51853009080514, -0.03200000151991844, 0.20800000987946987, 1.0240000486373901, 0.0, 0.0, 0.0, 0.0, 0.0, 1.7632280210293996E9, 0.0, 2025-11-15 12:33:41.029
86.0, -275.78396263252944, -182.14808744192123, -207.5420081410557, -162.30978812696412, -0.03200000151991844, 0.20800000987946987, 1.0240000486373901, 0.0, 0.0, 0.0, 0.0, 0.0, 1.7632280210293996E9, 0.0, 2025-11-15 12:33:41.029
87.0, -206.56963415257633, -138.04344726447016, -193.66697930544615, -160.99708324251696, -0.03200000151991844, 0.20800000987946987, 1.0240000486373901, 0.0, 0.0, 0.0, 0.0, 0.0, 1.7632280210299938E9, 0.0, 2025-11-15 12:33:41.029
87.0, -68.34667169023305, -5.879122730344534, -77.66276247985661, -75.97793754981831, -0.03200000151991844, 0.20800000987946987, 1.0240000486373901, 0.0, 0.0, 0.0, 0.0, 0.0, 1.7632280210299938E9, 0.0, 2025-11-15 12:33:41.029
88.0, -261.17217350564897, -162.93622136954218, -190.57782194204628, -139.28696399973705, -0.03200000151991844, 0.20800000987946987, 1.0240000486373901, 0.0, 0.0, 0.0, 0.0, 0.0, 1.7632280210435967E9, 0.0, 2025-11-15 12:33:41.043
88.0, -248.38919545710087, -168.47127330396324, -210.6236857045442, -165.11097319377586, -0.03200000151991844, 0.20800000987946987, 1.0240000486373901, 0.0, 0.0, 0.0, 0.0, 0.0, 1.7632280210435967E9, 0.0, 2025-11-15 12:33:41.043
89.0, -73.32821843121201, -11.077583668753505, -96.339822858572, -100.35834536096081, -0.03200000151991844, 0.20800000987946987, 1.0240000486373901, 0.0, 0.0, 0.0, 0.0, 0.0, 1.7632280210594022E9, 0.0, 2025-11-15 12:33:41.059
89.0, -208.81357412599027, -114.46711794380099, -143.24190820287913, -106.60023838700727, -0.03200000151991844, 0.20800000987946987, 1.0240000486373901, 0.0, 0.0, 0.0, 0.0, 0.0, 1.7632280210594022E9, 0.0, 2025-11-15 12:33:41.059
90.0, -271.9131661783904, -183.61412822455168, -218.37649831268936, -167.59426676435396, -0.03200000151991844, 0.20800000987946987, 1.0240000486373901, 0.0, 0.0, 0.0, 0.0, 0.0, 1.763228021059976E9, 0.0, 2025-11-15 12:33:41.059
90.0, -125.35022681485862, -71.65648315101862, -152.65523639135063, -139.89282779255882, -0.03200000151991844, 0.20800000987946987, 1.0240000486373901, 0.0, 0.0, 0.0, 0.0, 0.0, 1.763228021059976E9, 0.0, 2025-11-15 12:33:41.059
91.0, -129.8044476620853, -50.41759130265564, -101.68413989525288, -74.72507106466219, -0.03200000151991844, 0.20800000987946987, 1.0240000486373901, 0.0, 0.0, 0.0, 0.0, 0.0, 1.7632280210736303E9, 0.0, 2025-11-15 12:33:41.073
91.0, -274.29548245016485, -177.7537049939856, -204.85675997287035, -146.91635990934446, -0.03200000151991844, 0.20800000987946987, 1.0240000486373901, 0.0, 0.0, 0.0, 0.0, 0.0, 1.7632280210736303E9, 0.0, 2025-11-15 12:33:41.073
92.0, -191.80450912751257, -110.42802599165589, -166.80327792372555, -143.4569524503313, -0.03200000151991844, 0.20800000987946987, 1.0240000486373901, 0.0, 0.0, 0.0, 0.0, 0.0, 1.7632280210894034E9, 0.0, 2025-11-15 12:33:41.089
92.0, -78.50797986984253, -9.200153890997171, -77.07933808676898, -82.3544669742696, -0.03200000151991844, 0.20800000987946987, 1.0240000486373901, 0.0, 0.0, 0.0, 0.0, 0.0, 1.7632280210894034E9, 0.0, 2025-11-15 12:33:41.089
93.0, -257.0844628540799, -152.1877488968894, -175.76781811751425, -127.25570584228262, -0.03200000151991844, 0.20800000987946987, 1.0240000486373901, 0.0, 0.0, 0.0, 0.0, 0.0, 1.7632280210899673E9, 0.0, 2025-11-15 12:33:41.089
93.0, -248.85294305160642, -160.2285338016227, -198.33437445014715, -159.9499112549238, -0.03200000151991844, 0.20800000987946987, 1.0240000486373901, 0.0, 0.0, 0.0, 0.0, 0.0, 1.7632280210899673E9, 0.0, 2025-11-15 12:33:41.089
94.0, -68.80667938478291, -8.287618301808834, -87.13966896757483, -88.22610990470275, -0.03200000151991844, 0.20800000987946987, 1.0240000486373901, 0.0, 0.0, 0.0, 0.0, 0.0, 1.7632280211036744E9, 0.0, 2025-11-15 12:33:41.103
94.0, -196.78231596853584, -107.46976512670517, -131.25552884489298, -96.9176374017261, -0.03200000151991844, 0.20800000987946987, 1.0240000486373901, 0.0, 0.0, 0.0, 0.0, 0.0, 1.7632280211036744E9, 0.0, 2025-11-15 12:33:41.103
95.0, -258.07179644238204, -169.39128869306296, -197.08150796499103, -152.23075774637982, -0.03200000151991844, 0.20800000987946987, 1.0240000486373901, 0.0, 0.0, 0.0, 0.0, 0.0, 1.7632280211193976E9, 0.0, 2025-11-15 12:33:41.119
95.0, -138.64557115733624, -64.86482483148575, -140.15275083947927, -123.78507868340239, -0.03200000151991844, 0.20800000987946987, 1.0240000486373901, 0.0, 0.0, 0.0, 0.0, 0.0, 1.7632280211193976E9, 0.0, 2025-11-15 12:33:41.119
96.0, -123.83182743284851, -40.77986911684275, -89.84361663553864, -73.59936117799953, -0.03200000151991844, 0.20800000987946987, 1.0240000486373901, 0.0, 0.0, 0.0, 0.0, 0.0, 1.763228021119974E9, 0.0, 2025-11-15 12:33:41.119
96.0, -269.39995340816677, -171.69880696572363, -193.39396660868078, -144.5265638376586, -0.03200000151991844, 0.20800000987946987, 1.0240000486373901, 0.0, 0.0, 0.0, 0.0, 0.0, 1.763228021119974E9, 0.0, 2025-11-15 12:33:41.119
97.0, -200.92612511944026, -118.52116949576885, -170.40854148101062, -147.25295090535656, -0.03200000151991844, 0.20800000987946987, 1.0240000486373901, 0.0, 0.0, 0.0, 0.0, 0.0, 1.7632280211336603E9, 0.0, 2025-11-15 12:33:41.133
97.0, -74.83165821339935, -1.1593689862638712, -67.01900720596313, -68.52431693812832, -0.03200000151991844, 0.20800000987946987, 1.0240000486373901, 0.0, 0.0, 0.0, 0.0, 0.0, 1.7632280211336603E9, 0.0, 2025-11-15 12:33:41.133
98.0, -264.81109616253525, -163.7402998600155, -175.4162675216794, -135.79389744112268, -0.03200000151991844, 0.20800000987946987, 1.0240000486373901, 0.0, 0.0, 0.0, 0.0, 0.0, 1.7632280211494277E9, 0.0, 2025-11-15 12:33:41.149
98.0, -253.50163869652897, -159.5553518095985, -193.2032317109406, -157.11880698846653, -0.03200000151991844, 0.20800000987946987, 1.0240000486373901, 0.0, 0.0, 0.0, 0.0, 0.0, 1.7632280211494277E9, 0.0, 2025-11-15 12:33:41.149
99.0, -68.70570208597928, -0.1570757981389761, -79.60751045681536, -82.9079721677117, -0.03200000151991844, 0.20800000987946987, 1.0240000486373901, 0.0, 0.0, 0.0, 0.0, 0.0, 1.7632280211499777E9, 0.0, 2025-11-15 12:33:41.149
99.0, -201.53198891226202, -98.64360123127699, -120.74267006944865, -91.18437076965347, -0.03200000151991844, 0.20800000987946987, 1.0240000486373901, 0.0, 0.0, 0.0, 0.0, 0.0, 1.7632280211499777E9, 0.0, 2025-11-15 12:33:41.149
100.0, -274.7293108450249, -174.50373193249106, -200.94108471926302, -165.7617157860659, -0.03200000151991844, 0.20800000987946987, 1.0240000486373901, 0.0, 0.0, 0.0, 0.0, 0.0, 1.7632280211644292E9, 0.0, 2025-11-15 12:33:41.164
100.0, -131.59959964081645, -57.751535115763545, -128.11401288211346, -117.4085492589511, -0.03200000151991844, 0.20800000987946987, 1.0240000486373901, 0.0, 0.0, 0.0, 0.0, 0.0, 1.7632280211644292E9, 0.0, 2025-11-15 12:33:41.164
0.0, -109.05922260787338, -25.648233896121383, -71.17216610675678, -48.85992297111079, -0.03200000151991844, 0.20800000987946987, 1.0240000486373901, 0.0, 0.0, 0.0, 0.0, 0.0, 1.7632280211649783E9, 0.0, 2025-11-15 12:33:41.164
1.0, -278.63750629872084, -172.18125406000763, -189.94764879951254, -152.04002284863964, -0.03200000151991844, 0.20800000987946987, 1.0240000486373901, 0.0, 0.0, 0.0, 0.0, 0.0, 1.763228021178681E9, 0.0, 2025-11-15 12:33:41.178
1.0, -201.92467840760946, -121.49438996054232, -168.34972655540332, -142.58929566061124, -0.03200000151991844, 0.20800000987946987, 1.0240000486373901, 0.0, 0.0, 0.0, 0.0, 0.0, 1.763228021178681E9, 0.0, 2025-11-15 12:33:41.178
2.0, -54.76335505116731, 19.122108473442495, -48.276498578023165, -47.435021087992936, -0.03200000151991844, 0.20800000987946987, 1.0240000486373901, 0.0, 0.0, 0.0, 0.0, 0.0, 1.763228021194308E9, 0.0, 2025-11-15 12:33:41.194
2.0, -248.5574909551069, -136.15105788689107, -161.4683106369339, -127.99620603350922, -0.03200000151991844, 0.20800000987946987, 1.0240000486373901, 0.0, 0.0, 0.0, 0.0, 0.0, 1.763228021194308E9, 0.0, 2025-11-15 12:33:41.194
3.0, -241.59005733765662, -148.0738589456305, -183.8890108712949, -143.72622524714097, -0.03200000151991844, 0.20800000987946987, 1.0240000486373901, 0.0, 0.0, 0.0, 0.0, 0.0, 1.763228021195034E9, 0.0, 2025-11-15 12:33:41.195
3.0, -56.36777213215828, 18.93137357570231, -60.25165823614225, -60.767764430027455, -0.03200000151991844, 0.20800000987946987, 1.0240000486373901, 0.0, 0.0, 0.0, 0.0, 0.0, 1.763228021195034E9, 0.0, 2025-11-15 12:33:41.195
4.0, -188.80884926300496, -81.79909183084965, -110.53087324043736, -92.60179285285994, -0.03200000151991844, 0.20800000987946987, 1.0240000486373901, 0.0, 0.0, 0.0, 0.0, 0.0, 1.7632280212086904E9, 0.0, 2025-11-15 12:33:41.208
4.0, -275.15191954001784, -168.83778349962085, -195.6285568322055, -165.6569985873066, -0.03200000151991844, 0.20800000987946987, 1.0240000486373901, 0.0, 0.0, 0.0, 0.0, 0.0, 1.7632280212086904E9, 0.0, 2025-11-15 12:33:41.208
5.0, -134.10907251108438, -59.18765669874847, -123.98329338105395, -112.54667931655422, -0.03200000151991844, 0.20800000987946987, 1.0240000486373901, 0.0, 0.0, 0.0, 0.0, 0.0, 1.7632280212243896E9, 0.0, 2025-11-15 12:33:41.224
5.0, -119.97599057853222, -32.851281210780144, -80.52191599598154, -68.06056934362277, -0.03200000151991844, 0.20800000987946987, 1.0240000486373901, 0.0, 0.0, 0.0, 0.0, 0.0, 1.7632280212243896E9, 0.0, 2025-11-15 12:33:41.224
6.0, -275.58948783483356, -166.33205052930862, -196.71312781935558, -162.130272929091, -0.03200000151991844, 0.20800000987946987, 1.0240000486373901, 0.0, 0.0, 0.0, 0.0, 0.0, 1.7632280212250326E9, 0.0, 2025-11-15 12:33:41.225
6.0, -219.55456679873168, -126.3936589024961, -179.53950722282752, -153.67435912927613, -0.03200000151991844, 0.20800000987946987, 1.0240000486373901, 0.0, 0.0, 0.0, 0.0, 0.0, 1.7632280212250326E9, 0.0, 2025-11-15 12:33:41.225
7.0, -59.53172749467194, 10.03041168116033, -60.17686023702845, -63.194959501270205, -0.03200000151991844, 0.20800000987946987, 1.0240000486373901, 0.0, 0.0, 0.0, 0.0, 0.0, 1.7632280212386372E9, 0.0, 2025-11-15 12:33:41.238
7.0, -255.65582107100636, -157.15433603804559, -177.74061534414068, -147.33148880442604, -0.03200000151991844, 0.20800000987946987, 1.0240000486373901, 0.0, 0.0, 0.0, 0.0, 0.0, 1.7632280212386372E9, 0.0, 2025-11-15 12:33:41.238
8.0, -261.1572139058262, -170.416021280922, -203.003639544826, -172.5047554061748, -0.03200000151991844, 0.20800000987946987, 1.0240000486373901, 0.0, 0.0, 0.0, 0.0, 0.0, 1.763228021254307E9, 0.0, 2025-11-15 12:33:41.254
8.0, -65.12661782838404, 1.0658714873716235, -77.3504808335565, -82.56016147183254, -0.03200000151991844, 0.20800000987946987, 1.0240000486373901, 0.0, 0.0, 0.0, 0.0, 0.0, 1.763228021254307E9, 0.0, 2025-11-15 12:33:41.254
9.0, -195.0582220889628, -96.87462855223566, -122.06846460374072, -97.53846079437062, -0.03200000151991844, 0.20800000987946987, 1.0240000486373901, 0.0, 0.0, 0.0, 0.0, 0.0, 1.7632280212550159E9, 0.0, 2025-11-15 12:33:41.255
9.0, -283.18522464483976, -179.6049554720521, -209.3390300697647, -170.46277003036812, -0.03200000151991844, 0.20800000987946987, 1.0240000486373901, 0.0, 0.0, 0.0, 0.0, 0.0, 1.7632280212550159E9, 0.0, 2025-11-15 12:33:41.255
10.0, -129.0976065704599, -53.01308187190443, -123.99077318096533, -107.99896097043529, -0.03200000151991844, 0.20800000987946987, 1.0240000486373901, 0.0, 0.0, 0.0, 0.0, 0.0, 1.7632280212687404E9, 0.0, 2025-11-15 12:33:41.268
10.0, -117.58245460689068, -30.461485139094293, -77.7207309291698, -69.39197372784838, -0.03200000151991844, 0.20800000987946987, 1.0240000486373901, 0.0, 0.0, 0.0, 0.0, 0.0, 1.7632280212687404E9, 0.0, 2025-11-15 12:33:41.268
11.0, -278.2709961030632, -172.4505268568173, -196.1858019256033, -167.01458227122203, -0.03200000151991844, 0.20800000987946987, 1.0240000486373901, 0.0, 0.0, 0.0, 0.0, 0.0, 1.76322802128432E9, 0.0, 2025-11-15 12:33:41.284
11.0, -200.6531124226749, -112.15585977118462, -166.47603667760268, -143.07548265485093, -0.03200000151991844, 0.20800000987946987, 1.0240000486373901, 0.0, 0.0, 0.0, 0.0, 0.0, 1.76322802128432E9, 0.0, 2025-11-15 12:33:41.284
12.0, -58.585532805882394, 14.125602132640779, -58.333089558873326, -54.51091180415824, -0.03200000151991844, 0.20800000987946987, 1.0240000486373901, 0.0, 0.0, 0.0, 0.0, 0.0, 1.763228021285018E9, 0.0, 2025-11-15 12:33:41.285
12.0, -250.43118083290756, -147.94296244718134, -169.2061636452563, -137.83214291697368, -0.03200000151991844, 0.20800000987946987, 1.0240000486373901, 0.0, 0.0, 0.0, 0.0, 0.0, 1.763228021285018E9, 0.0, 2025-11-15 12:33:41.285
13.0, -248.90530165098608, -160.4791070986539, -193.22754106065258, -156.11651380034164, -0.03200000151991844, 0.20800000987946987, 1.0240000486373901, 0.0, 0.0, 0.0, 0.0, 0.0, 1.7632280212986598E9, 0.0, 2025-11-15 12:33:41.298
13.0, -55.313120344653726, 2.7675259672105312, -68.64025383675471, -71.45265860343352, -0.03200000151991844, 0.20800000987946987, 1.0240000486373901, 0.0, 0.0, 0.0, 0.0, 0.0, 1.7632280212986598E9, 0.0, 2025-11-15 12:33:41.298
14.0, -195.7949823802337, -92.71585980150849, -119.68988823192194, -91.90243156114593, -0.03200000151991844, 0.20800000987946987, 1.0240000486373901, 0.0, 0.0, 0.0, 0.0, 0.0, 1.7632280213143125E9, 0.0, 2025-11-15 12:33:41.314
14.0, -272.37691377289593, -172.8245168523863, -199.2637395891361, -155.65650610579178, -0.03200000151991844, 0.20800000987946987, 1.0240000486373901, 0.0, 0.0, 0.0, 0.0, 0.0, 1.7632280213143125E9, 0.0, 2025-11-15 12:33:41.314
15.0, -130.11111945845187, -61.10996527597308, -122.91742189368233, -106.2935665906407, -0.03200000151991844, 0.20800000987946987, 1.0240000486373901, 0.0, 0.0, 0.0, 0.0, 0.0, 1.763228021315034E9, 0.0, 2025-11-15 12:33:41.315
15.0, -114.56435534264892, -36.875413563102484, -86.56933422433212, -72.40633309213445, -0.03200000151991844, 0.20800000987946987, 1.0240000486373901, 0.0, 0.0, 0.0, 0.0, 0.0, 1.763228021315034E9, 0.0, 2025-11-15 12:33:41.315
16.0, -285.9116117125377, -186.41531329136342, -208.47137328004465, -177.56857994617894, -0.03200000151991844, 0.20800000987946987, 1.0240000486373901, 0.0, 0.0, 0.0, 0.0, 0.0, 1.7632280213286996E9, 0.0, 2025-11-15 12:33:41.328
16.0, -207.6130662402138, -129.34817986749113, -177.33296624897048, -149.36973428027704, -0.03200000151991844, 0.20800000987946987, 1.0240000486373901, 0.0, 0.0, 0.0, 0.0, 0.0, 1.7632280213286996E9, 0.0, 2025-11-15 12:33:41.328
17.0, -74.38287021871656, -4.188687950372696, -69.84450162248686, -61.66908031934872, -0.03200000151991844, 0.20800000987946987, 1.0240000486373901, 0.0, 0.0, 0.0, 0.0, 0.0, 1.763228021344306E9, 0.0, 2025-11-15 12:33:41.344
17.0, -270.1217540996149, -171.28741797059774, -188.64990351488814, -148.9770447849296, -0.03200000151991844, 0.20800000987946987, 1.0240000486373901, 0.0, 0.0, 0.0, 0.0, 0.0, 1.763228021344306E9, 0.0, 2025-11-15 12:33:41.344
18.0, -278.95913769491017, -186.6397072887048, -223.28511700453237, -185.54204665170982, -0.03200000151991844, 0.20800000987946987, 1.0240000486373901, 0.0, 0.0, 0.0, 0.0, 0.0, 1.763228021345032E9, 0.0, 2025-11-15 12:33:41.345
18.0, -85.43053468782455, -18.703239678405225, -97.10837229946628, -86.79372822167352, -0.03200000151991844, 0.20800000987946987, 1.0240000486373901, 0.0, 0.0, 0.0, 0.0, 0.0, 1.763228021345032E9, 0.0, 2025-11-15 12:33:41.345
19.0, -209.01178882364184, -113.30774895753711, -139.8629085929133, -113.54897250467911, -0.03200000151991844, 0.20800000987946987, 1.0240000486373901, 0.0, 0.0, 0.0, 0.0, 0.0, 1.7632280213586211E9, 0.0, 2025-11-15 12:33:41.358
19.0, -283.9032854363322, -187.36898778006434, -210.2702651587315, -169.83072693785653, -0.03200000151991844, 0.20800000987946987, 1.0240000486373901, 0.0, 0.0, 0.0, 0.0, 0.0, 1.7632280213586211E9, 0.0, 2025-11-15 12:33:41.358
20.0, -152.05685239844024, -82.83878401853144, -140.1209616898559, -117.92091555288061, -0.03200000151991844, 0.20800000987946987, 1.0240000486373901, 0.0, 0.0, 0.0, 0.0, 0.0, 1.7632280213743532E9, 0.0, 2025-11-15 12:33:41.374
20.0, -119.69175818189979, -40.7237706175074, -81.69250468211249, -65.83906876994297, -0.03200000151991844, 0.20800000987946987, 1.0240000486373901, 0.0, 0.0, 0.0, 0.0, 0.0, 1.7632280213743532E9, 0.0, 2025-11-15 12:33:41.374
21.0, -292.33675983641297, -189.4932509548962, -212.29355103475973, -174.81227367883548, -0.03200000151991844, 0.20800000987946987, 1.0240000486373901, 0.0, 0.0, 0.0, 0.0, 0.0, 1.7632280213750713E9, 0.0, 2025-11-15 12:33:41.375
21.0, -231.19687536079437, -143.7393148969859, -187.67004972649738, -154.5756750185974, -0.03200000151991844, 0.20800000987946987, 1.0240000486373901, 0.0, 0.0, 0.0, 0.0, 0.0, 1.7632280213750713E9, 0.0, 2025-11-15 12:33:41.375
22.0, -72.94300873577595, -0.9536744887009263, -61.612981820013374, -46.85159669490531, -0.03200000151991844, 0.20800000987946987, 1.0240000486373901, 0.0, 0.0, 0.0, 0.0, 0.0, 1.7632280213886223E9, 0.0, 2025-11-15 12:33:41.388
22.0, -261.99869139585644, -155.2582067605108, -175.22366267396137, -137.1178220254369, -0.03200000151991844, 0.20800000987946987, 1.0240000486373901, 0.0, 0.0, 0.0, 0.0, 0.0, 1.7632280213886223E9, 0.0, 2025-11-15 12:33:41.388
23.0, -266.0190838482231, -168.65078850183636, -204.342523728963, -163.2821621154435, -0.03200000151991844, 0.20800000987946987, 1.0240000486373901, 0.0, 0.0, 0.0, 0.0, 0.0, 1.763228021404295E9, 0.0, 2025-11-15 12:33:41.404
23.0, -71.4433088535443, -4.214867250062525, -77.62349353032187, -72.02486329665408, -0.03200000151991844, 0.20800000987946987, 1.0240000486373901, 0.0, 0.0, 0.0, 0.0, 0.0, 1.763228021404295E9, 0.0, 2025-11-15 12:33:41.404
24.0, -201.88353950809687, -100.47241230960935, -122.30407830094919, -95.4366370192729, -0.03200000151991844, 0.20800000987946987, 1.0240000486373901, 0.0, 0.0, 0.0, 0.0, 0.0, 1.7632280214050016E9, 0.0, 2025-11-15 12:33:41.405
24.0, -296.1439779913053, -191.5314964307472, -212.4581066328101, -180.36976501299068, -0.03200000151991844, 0.20800000987946987, 1.0240000486373901, 0.0, 0.0, 0.0, 0.0, 0.0, 1.7632280214050016E9, 0.0, 2025-11-15 12:33:41.405
25.0, -147.3296188544482, -66.93298950698227, -131.61268929066136, -109.58093865169212, -0.03200000151991844, 0.20800000987946987, 1.0240000486373901, 0.0, 0.0, 0.0, 0.0, 0.0, 1.763228021418678E9, 0.0, 2025-11-15 12:33:41.418
25.0, -115.14777973573655, -24.238291612826288, -67.15177365439013, -44.01675252849236, -0.03200000151991844, 0.20800000987946987, 1.0240000486373901, 0.0, 0.0, 0.0, 0.0, 0.0, 1.763228021418678E9, 0.0, 2025-11-15 12:33:41.418
26.0, -291.8804920418188, -181.9012540448457, -198.7812924948521, -166.92482467228547, -0.03200000151991844, 0.20800000987946987, 1.0240000486373901, 0.0, 0.0, 0.0, 0.0, 0.0, 1.7632280214342988E9, 0.0, 2025-11-15 12:33:41.434
26.0, -217.93145021796227, -126.47967660147697, -173.66786429239437, -138.7858174056746, -0.03200000151991844, 0.20800000987946987, 1.0240000486373901, 0.0, 0.0, 0.0, 0.0, 0.0, 1.7632280214342988E9, 0.0, 2025-11-15 12:33:41.434
27.0, -58.21528271026909, 16.85198920033872, -47.906248482409865, -44.76847241958603, -0.03200000151991844, 0.20800000987946987, 1.0240000486373901, 0.0, 0.0, 0.0, 0.0, 0.0, 1.7632280214350064E9, 0.0, 2025-11-15 12:33:41.435
27.0, -262.0847090948373, -144.5471332874149, -162.23125022789463, -131.9343206868507, -0.03200000151991844, 0.20800000987946987, 1.0240000486373901, 0.0, 0.0, 0.0, 0.0, 0.0, 1.7632280214350064E9, 0.0, 2025-11-15 12:33:41.435
28.0, -267.25325083360076, -167.92524791043252, -198.79251219471917, -167.45963036594912, -0.03200000151991844, 0.20800000987946987, 1.0240000486373901, 0.0, 0.0, 0.0, 0.0, 0.0, 1.7632280214486473E9, 0.0, 2025-11-15 12:33:41.448
28.0, -72.62137733958662, 1.851250478066504, -68.40090023959056, -63.957899092230946, -0.03200000151991844, 0.20800000987946987, 1.0240000486373901, 0.0, 0.0, 0.0, 0.0, 0.0, 1.7632280214486473E9, 0.0, 2025-11-15 12:33:41.448
29.0, -191.06774883624166, -85.1874411907047, -111.83983822492883, -94.81955352658406, -0.03200000151991844, 0.20800000987946987, 1.0240000486373901, 0.0, 0.0, 0.0, 0.0, 0.0, 1.763228021464298E9, 0.0, 2025-11-15 12:33:41.464
29.0, -287.0934200985357, -180.3491955632344, -209.2679719706066, -176.64482465712354, -0.03200000151991844, 0.20800000987946987, 1.0240000486373901, 0.0, 0.0, 0.0, 0.0, 0.0, 1.763228021464298E9, 0.0, 2025-11-15 12:33:41.464
30.0, -154.51022676937282, -69.31530577875674, -132.9702729745768, -120.59868392115459, -0.03200000151991844, 0.20800000987946987, 1.0240000486373901, 0.0, 0.0, 0.0, 0.0, 0.0, 1.7632280214650092E9, 0.0, 2025-11-15 12:33:41.465
30.0, -106.06356274336576, -15.019438222050667, -68.59911493724212, -59.84400914097205, -0.03200000151991844, 0.20800000987946987, 1.0240000486373901, 0.0, 0.0, 0.0, 0.0, 0.0, 1.7632280214650092E9, 0.0, 2025-11-15 12:33:41.465
31.0, -289.9918425641954, -177.77988429367542, -200.14261607872322, -180.3622852130793, -0.03200000151991844, 0.20800000987946987, 1.0240000486373901, 0.0, 0.0, 0.0, 0.0, 0.0, 1.763228021478706E9, 0.0, 2025-11-15 12:33:41.478
31.0, -211.78305469080806, -124.00012293085456, -174.6963367802091, -146.98367810854688, -0.03200000151991844, 0.20800000987946987, 1.0240000486373901, 0.0, 0.0, 0.0, 0.0, 0.0, 1.763228021478706E9, 0.0, 2025-11-15 12:33:41.478
32.0, -52.79242777451873, 28.55039626173675, -38.623816792387515, -44.83205071883276, -0.03200000151991844, 0.20800000987946987, 1.0240000486373901, 0.0, 0.0, 0.0, 0.0, 0.0, 1.763228021494294E9, 0.0, 2025-11-15 12:33:41.494
32.0, -256.1943666646257, -142.02270081732422, -165.00999589497223, -143.70378584740683, -0.03200000151991844, 0.20800000987946987, 1.0240000486373901, 0.0, 0.0, 0.0, 0.0, 0.0, 1.763228021494294E9, 0.0, 2025-11-15 12:33:41.494
33.0, -274.6208537463099, -177.28621749952435, -207.34566339338198, -182.68476308556274, -0.03200000151991844, 0.20800000987946987, 1.0240000486373901, 0.0, 0.0, 0.0, 0.0, 0.0, 1.7632280214950068E9, 0.0, 2025-11-15 12:33:41.495
33.0, -73.16740273311734, -0.18699499778449535, -74.39969976851717, -77.34674093360081, -0.03200000151991844, 0.20800000987946987, 1.0240000486373901, 0.0, 0.0, 0.0, 0.0, 0.0, 1.7632280214950068E9, 0.0, 2025-11-15 12:33:41.495
34.0, -186.99873768445104, -88.7814850481227, -109.30792595492676, -96.92137730168179, -0.03200000151991844, 0.20800000987946987, 1.0240000486373901, 0.0, 0.0, 0.0, 0.0, 0.0, 1.763228021508644E9, 0.0, 2025-11-15 12:33:41.508
34.0, -291.1399918505922, -189.0930816596374, -215.77539789350703, -182.995174781885, -0.03200000151991844, 0.20800000987946987, 1.0240000486373901, 0.0, 0.0, 0.0, 0.0, 0.0, 1.763228021508644E9, 0.0, 2025-11-15 12:33:41.508
35.0, -140.5155211351812, -68.43642928916961, -129.3724892172031, -114.28199289599434, -0.03200000151991844, 0.20800000987946987, 1.0240000486373901, 0.0, 0.0, 0.0, 0.0, 0.0, 1.763228021524302E9, 0.0, 2025-11-15 12:33:41.524
35.0, -106.89756043348461, -12.652081550098956, -57.40185446990654, -52.13981523225084, -0.03200000151991844, 0.20800000987946987, 1.0240000486373901, 0.0, 0.0, 0.0, 0.0, 0.0, 1.763228021524302E9, 0.0, 2025-11-15 12:33:41.524
36.0, -292.8865251298994, -176.21286621224135, -198.34746409999207, -167.48954956559464, -0.03200000151991844, 0.20800000987946987, 1.0240000486373901, 0.0, 0.0, 0.0, 0.0, 0.0, 1.7632280215249987E9, 0.0, 2025-11-15 12:33:41.524
36.0, -227.52429360430688, -132.0670871352777, -176.7271024561487, -147.82141569862142, -0.03200000151991844, 0.20800000987946987, 1.0240000486373901, 0.0, 0.0, 0.0, 0.0, 0.0, 1.7632280215249987E9, 0.0, 2025-11-15 12:33:41.524
37.0, -55.04758744779974, 14.645448226481676, -53.46747971652076, -52.46518652839586, -0.03200000151991844, 0.20800000987946987, 1.0240000486373901, 0.0, 0.0, 0.0, 0.0, 0.0, 1.7632280215386436E9, 0.0, 2025-11-15 12:33:41.538
37.0, -248.3443166576326, -138.55581355839968, -157.36564038554206, -131.70244688959792, -0.03200000151991844, 0.20800000987946987, 1.0240000486373901, 0.0, 0.0, 0.0, 0.0, 0.0, 1.7632280215386436E9, 0.0, 2025-11-15 12:33:41.538
38.0, -269.18303921073675, -170.40854148101062, -203.13453604327515, -174.67015748051926, -0.03200000151991844, 0.20800000987946987, 1.0240000486373901, 0.0, 0.0, 0.0, 0.0, 0.0, 1.7632280215543225E9, 0.0, 2025-11-15 12:33:41.554
38.0, -57.721615916118026, 4.472920347005129, -67.94463244499639, -60.91362052829936, -0.03200000151991844, 0.20800000987946987, 1.0240000486373901, 0.0, 0.0, 0.0, 0.0, 0.0, 1.7632280215543225E9, 0.0, 2025-11-15 12:33:41.554
39.0, -194.5383759951219, -82.47601372282952, -114.4054095945321, -101.67479014536366, -0.03200000151991844, 0.20800000987946987, 1.0240000486373901, 0.0, 0.0, 0.0, 0.0, 0.0, 1.7632280215550244E9, 0.0, 2025-11-15 12:33:41.555
39.0, -289.07556707505137, -181.65816054772586, -207.09882999630645, -178.6606307332404, -0.03200000151991844, 0.20800000987946987, 1.0240000486373901, 0.0, 0.0, 0.0, 0.0, 0.0, 1.7632280215550244E9, 0.0, 2025-11-15 12:33:41.555
40.0, -137.78913406748325, -57.97218921314925, -128.4487339281477, -110.83006523689255, -0.03200000151991844, 0.20800000987946987, 1.0240000486373901, 0.0, 0.0, 0.0, 0.0, 0.0, 1.7632280215686157E9, 0.0, 2025-11-15 12:33:41.568
40.0, -90.10166973248124, -6.107256627641618, -58.729518954176456, -49.71262016100809, -0.03200000151991844, 0.20800000987946987, 1.0240000486373901, 0.0, 0.0, 0.0, 0.0, 0.0, 1.7632280215686157E9, 0.0, 2025-11-15 12:33:41.568
41.0, -289.44581717066467, -180.2369985645637, -201.81061145896092, -173.39111169567332, -0.03200000151991844, 0.20800000987946987, 1.0240000486373901, 0.0, 0.0, 0.0, 0.0, 0.0, 1.76322802158436E9, 0.0, 2025-11-15 12:33:41.584
41.0, -214.90213125385344, -124.22825682815164, -170.45903013041243, -138.94289320381358, -0.03200000151991844, 0.20800000987946987, 1.0240000486373901, 0.0, 0.0, 0.0, 0.0, 0.0, 1.76322802158436E9, 0.0, 2025-11-15 12:33:41.584
42.0, -36.1274335719645, 36.25833007041365, -34.79041933780536, -36.275159620214254, -0.03200000151991844, 0.20800000987946987, 1.0240000486373901, 0.0, 0.0, 0.0, 0.0, 0.0, 1.7632280215850272E9, 0.0, 2025-11-15 12:33:41.585
42.0, -247.50657906755805, -142.56872621085495, -167.08190047042444, -142.28636376420036, -0.03200000151991844, 0.20800000987946987, 1.0240000486373901, 0.0, 0.0, 0.0, 0.0, 0.0, 1.7632280215850272E9, 0.0, 2025-11-15 12:33:41.585
43.0, -261.7892569983378, -163.95721405744553, -199.28243908891454, -164.81926099723205, -0.03200000151991844, 0.20800000987946987, 1.0240000486373901, 0.0, 0.0, 0.0, 0.0, 0.0, 1.7632280215986133E9, 0.0, 2025-11-15 12:33:41.598
43.0, -64.02334734145552, 7.610696409828961, -69.85946122230962, -63.29967670002952, -0.03200000151991844, 0.20800000987946987, 1.0240000486373901, 0.0, 0.0, 0.0, 0.0, 0.0, 1.7632280215986133E9, 0.0, 2025-11-15 12:33:41.598
44.0, -182.1555672418326, -78.43692177068442, -111.26015373179689, -91.46486326633021, -0.03200000151991844, 0.20800000987946987, 1.0240000486373901, 0.0, 0.0, 0.0, 0.0, 0.0, 1.7632280216306825E9, 0.0, 2025-11-15 12:33:41.630
44.0, -290.59770635701716, -189.95699854940176, -217.73136557033285, -189.41284310584888, -0.03200000151991844, 0.20800000987946987, 1.0240000486373901, 0.0, 0.0, 0.0, 0.0, 0.0, 1.7632280216306825E9, 0.0, 2025-11-15 12:33:41.630
45.0, -143.72809519711882, -66.66745661012828, -136.79993052920327, -113.22734110848978, -0.03200000151991844, 0.20800000987946987, 1.0240000486373901, 0.0, 0.0, 0.0, 0.0, 0.0, 1.7632280216313803E9, 0.0, 2025-11-15 12:33:41.631
45.0, -99.43646002188325, -13.624455538578331, -66.04476326750591, -57.28965747123584, -0.03200000151991844, 0.20800000987946987, 1.0240000486373901, 0.0, 0.0, 0.0, 0.0, 0.0, 1.7632280216313803E9, 0.0, 2025-11-15 12:33:41.631
46.0, -287.6506651919335, -180.95505935605615, -208.57983037875965, -181.2486415025778, -0.03200000151991844, 0.20800000987946987, 1.0240000486373901, 0.0, 0.0, 0.0, 0.0, 0.0, 1.7632280216321497E9, 0.0, 2025-11-15 12:33:41.632
46.0, -210.05522091127932, -126.73024989850819, -179.71528252074495, -146.88644070969895, -0.03200000151991844, 0.20800000987946987, 1.0240000486373901, 0.0, 0.0, 0.0, 0.0, 0.0, 1.7632280216321497E9, 0.0, 2025-11-15 12:33:41.632
47.0, -35.88060017488897, 33.4608849035576, -37.456968006212264, -29.270327003207058, -0.03200000151991844, 0.20800000987946987, 1.0240000486373901, 0.0, 0.0, 0.0, 0.0, 0.0, 1.7632280216328895E9, 0.0, 2025-11-15 12:33:41.632
47.0, -246.964293573983, -144.79770658444613, -167.5419081649743, -137.2337589240633, -0.03200000151991844, 0.20800000987946987, 1.0240000486373901, 0.0, 0.0, 0.0, 0.0, 0.0, 1.7632280216328895E9, 0.0, 2025-11-15 12:33:41.632
48.0, -262.40260059107095, -169.91861458681524, -205.73750641243532, -171.19205052172765, -0.03200000151991844, 0.20800000987946987, 1.0240000486373901, 0.0, 0.0, 0.0, 0.0, 0.0, 1.7632280216436715E9, 0.0, 2025-11-15 12:33:41.643
48.0, -63.46236234810203, 5.194721038453281, -72.1258405954577, -68.11666784295812, -0.03200000151991844, 0.20800000987946987, 1.0240000486373901, 0.0, 0.0, 0.0, 0.0, 0.0, 1.7632280216436715E9, 0.0, 2025-11-15 12:33:41.643
49.0, -186.4227930912748, -88.49725265149027, -118.87832994153723, -95.94900331320241, -0.03200000151991844, 0.20800000987946987, 1.0240000486373901, 0.0, 0.0, 0.0, 0.0, 0.0, 1.7632280216586506E9, 0.0, 2025-11-15 12:33:41.658
49.0, -279.4752438887954, -178.14639448933303, -204.7464329241775, -171.5473410175182, -0.03200000151991844, 0.20800000987946987, 1.0240000486373901, 0.0, 0.0, 0.0, 0.0, 0.0, 1.7632280216586506E9, 0.0, 2025-11-15 12:33:41.658
50.0, -141.75342802051455, -62.77796065621078, -126.86301634693518, -107.5165138761513, -0.03200000151991844, 0.20800000987946987, 1.0240000486373901, 0.0, 0.0, 0.0, 0.0, 0.0, 1.7632280216744068E9, 0.0, 2025-11-15 12:33:41.674
50.0, -94.16694098431617, -7.932327806018293, -62.832189205568284, -53.28422461869195, -0.03200000151991844, 0.20800000987946987, 1.0240000486373901, 0.0, 0.0, 0.0, 0.0, 0.0, 1.7632280216744068E9, 0.0, 2025-11-15 12:33:41.674
51.0, -286.19584410917014, -181.43002665042877, -205.46823361562565, -174.08673308743164, -0.03200000151991844, 0.2240000106394291, 1.0240000486373901, 0.0, 0.0, 0.0, 0.0, 0.0, 1.7632280216749818E9, 0.0, 2025-11-15 12:33:41.674
51.0, -227.81974570080638, -145.2539743790403, -190.2543205958791, -157.1337665882893, -0.03200000151991844, 0.2240000106394291, 1.0240000486373901, 0.0, 0.0, 0.0, 0.0, 0.0, 1.7632280216749818E9, 0.0, 2025-11-15 12:33:41.674
52.0, -45.312627863138914, 21.807356641627848, -46.238253102172166, -39.072604787070304, -0.03200000151991844, 0.2240000106394291, 1.0240000486373901, 0.0, 0.0, 0.0, 0.0, 0.0, 1.7632280216886551E9, 0.0, 2025-11-15 12:33:41.688
52.0, -251.7102266177535, -142.42661001253873, -162.00311633059755, -129.57070391485468, -0.03200000151991844, 0.2240000106394291, 1.0240000486373901, 0.0, 0.0, 0.0, 0.0, 0.0, 1.7632280216886551E9, 0.0, 2025-11-15 12:33:41.688
53.0, -274.32914154976606, -177.32361649908125, -210.1206691605039, -169.66991123976186, -0.03200000151991844, 0.2240000106394291, 1.0240000486373901, 0.0, 0.0, 0.0, 0.0, 0.0, 1.7632280217044137E9, 0.0, 2025-11-15 12:33:41.704
53.0, -69.52848007623106, -4.854390142485499, -78.71554431738332, -68.63651393679902, -0.03200000151991844, 0.2240000106394291, 1.0240000486373901, 0.0, 0.0, 0.0, 0.0, 0.0, 1.7632280217044137E9, 0.0, 2025-11-15 12:33:41.704
54.0, -182.84744873363525, -88.92734114639461, -120.47900712257251, -90.29801448015496, -0.03200000151991844, 0.2240000106394291, 1.0240000486373901, 0.0, 0.0, 0.0, 0.0, 0.0, 1.7632280217049818E9, 0.0, 2025-11-15 12:33:41.704
54.0, -298.1111653679982, -201.34125401452184, -229.85238132672384, -195.72205433109775, -0.03200000151991844, 0.2240000106394291, 1.0240000486373901, 0.0, 0.0, 0.0, 0.0, 0.0, 1.7632280217049818E9, 0.0, 2025-11-15 12:33:41.704
55.0, -150.87878391239792, -81.20070783793926, -143.15028065396473, -115.31794518372044, -0.03200000151991844, 0.2240000106394291, 1.0240000486373901, 0.0, 0.0, 0.0, 0.0, 0.0, 1.76322802171872E9, 0.0, 2025-11-15 12:33:41.718
55.0, -107.33512872830033, -23.037783727049828, -75.2000383590348, -56.53419768018648, -0.03200000151991844, 0.2240000106394291, 1.0240000486373901, 0.0, 0.0, 0.0, 0.0, 0.0, 1.76322802171872E9, 0.0, 2025-11-15 12:33:41.718
56.0, -298.15978406742215, -190.50676384288818, -214.09992271335796, -171.55856071738526, -0.03200000151991844, 0.2240000106394291, 1.0240000486373901, 0.0, 0.0, 0.0, 0.0, 0.0, 1.7632280217344158E9, 0.0, 2025-11-15 12:33:41.734
56.0, -224.68944943789393, -140.04803364071995, -183.96380887040868, -147.74287779955193, -0.03200000151991844, 0.2240000106394291, 1.0240000486373901, 0.0, 0.0, 0.0, 0.0, 0.0, 1.7632280217344158E9, 0.0, 2025-11-15 12:33:41.734
57.0, -49.81920730974525, 24.260731012560427, -44.259846025612205, -30.684009186457843, -0.03200000151991844, 0.2240000106394291, 1.0240000486373901, 0.0, 0.0, 0.0, 0.0, 0.0, 1.763228021734979E9, 0.0, 2025-11-15 12:33:41.734
57.0, -251.4895725203678, -146.67139646224678, -167.56434756470844, -137.28611752344295, -0.03200000151991844, 0.2240000106394291, 1.0240000486373901, 0.0, 0.0, 0.0, 0.0, 0.0, 1.763228021734979E9, 0.0, 2025-11-15 12:33:41.734
58.0, -282.5045628529042, -185.25220440514386, -217.5630700723268, -182.995174781885, -0.03200000151991844, 0.2240000106394291, 1.0240000486373901, 0.0, 0.0, 0.0, 0.0, 0.0, 1.7632280217486768E9, 0.0, 2025-11-15 12:33:41.748
58.0, -80.59110414516181, -8.149242003448308, -82.76959586935118, -72.18193909479305, -0.03200000151991844, 0.2240000106394291, 1.0240000486373901, 0.0, 0.0, 0.0, 0.0, 0.0, 1.7632280217486768E9, 0.0, 2025-11-15 12:33:41.748
59.0, -188.57697546575218, -88.03724495694041, -116.62317026825622, -86.47957662539557, -0.03200000151991844, 0.2240000106394291, 1.0240000486373901, 0.0, 0.0, 0.0, 0.0, 0.0, 1.7632280217644112E9, 0.0, 2025-11-15 12:33:41.764
59.0, -303.4741819044575, -194.71041139308363, -221.99111161986366, -186.13295084470883, -0.03200000151991844, 0.2240000106394291, 1.0240000486373901, 0.0, 0.0, 0.0, 0.0, 0.0, 1.7632280217644112E9, 0.0, 2025-11-15 12:33:41.764
60.0, -145.48958807624876, -73.04398603457958, -135.91357423970476, -111.70520182652399, -0.03200000151991844, 0.2240000106394291, 1.0240000486373901, 0.0, 0.0, 0.0, 0.0, 0.0, 1.7632280217649891E9, 0.0, 2025-11-15 12:33:41.764
60.0, -95.05329727381468, -12.607202750630677, -62.424540110398084, -51.81444393610582, -0.03200000151991844, 0.2240000106394291, 1.0240000486373901, 0.0, 0.0, 0.0, 0.0, 0.0, 1.7632280217649891E9, 0.0, 2025-11-15 12:33:41.764
61.0, -290.22371636144817, -182.4248400386423, -208.01510548545048, -175.85570576647297, -0.03200000151991844, 0.2240000106394291, 1.0240000486373901, 0.0, 0.0, 0.0, 0.0, 0.0, 1.7632280217786963E9, 0.0, 2025-11-15 12:33:41.778
61.0, -232.89478994067758, -143.9973679939285, -186.6303575388156, -157.32824138598517, -0.03200000151991844, 0.2240000106394291, 1.0240000486373901, 0.0, 0.0, 0.0, 0.0, 0.0, 1.7632280217786963E9, 0.0, 2025-11-15 12:33:41.778
62.0, -49.36667941510677, 26.859961481764913, -44.86196991847828, -38.37324349535629, -0.03200000151991844, 0.2240000106394291, 1.0240000486373901, 0.0, 0.0, 0.0, 0.0, 0.0, 1.76322802179443E9, 0.0, 2025-11-15 12:33:41.794
