%OpenBCI Raw EXG Data
%Number of channels = 4
%Sample Rate = 200 Hz
%Board = OpenBCI_GUI$BoardGanglionBLE
Sample Index, EXG Channel 0, EXG Channel 1, EXG Channel 2, EXG Channel 3, Accel Channel 0, Accel Channel 1, Accel Channel 2, Other, Other, Other, Other, Other, Timestamp, Marker Channel, Timestamp (Formatted)
82.0, 66.89185060746968, 35.211158082820475, 13.343963041901588, -6.062377828173339, -0.03200000151991844, 0.0, 0.0, 0.0, 0.0, 0.0, 0.0, 0.0, 1.7632264133365972E9, 0.0, 2025-11-15 12:06:53.336
82.0, 252.12535551283509, 129.78200826235116, 154.6673025675118, 110.00167739670724, -0.03200000151991844, 0.0, 0.0, 0.0, 0.0, 0.0, 0.0, 0.0, 1.7632264133365972E9, 0.0, 2025-11-15 12:06:53.336
0.0, -228.2741435454227, -146.8266023104079, -191.76150027802214, -141.91237376863137, -0.03200000151991844, 0.0, 0.0, 0.0, 0.0, 0.0, 0.0, 0.0, 1.763226413360408E9, 0.0, 2025-11-15 12:06:53.360
1.0, -449.2480023773387, 92.61301255272701, 3.1957445121370256, 1.9914967264048755, -0.03200000151991844, 0.17600000835955143, 0.0, 0.0, 0.0, 0.0, 0.0, 0.0, 1.7632264133739247E9, 0.0, 2025-11-15 12:06:53.373
1.0, -672.0600220374763, -78.02366282558069, -103.82897251984105, -77.43649853253737, -0.03200000151991844, 0.17600000835955143, 0.0, 0.0, 0.0, 0.0, 0.0, 0.0, 1.7632264133739247E9, 0.0, 2025-11-15 12:06:53.373
2.0, -758.6910646110773, -166.3900189786218, -200.90181576972827, -153.30036913370714, -0.03200000151991844, 0.17600000835955143, 0.0, 0.0, 0.0, 0.0, 0.0, 0.0, 1.76322641339056E9, 0.0, 2025-11-15 12:06:53.390
2.0, -533.4181907800958, 7.881839156616479, -68.77115033520386, -57.07648317376152, -0.03200000151991844, 0.17600000835955143, 0.0, 0.0, 0.0, 0.0, 0.0, 0.0, 1.76322641339056E9, 0.0, 2025-11-15 12:06:53.390
3.0, -550.7077482752502, 21.424016896169633, -22.35525198513642, -14.995128872338682, -0.03200000151991844, 0.17600000835955143, 0.0, 0.0, 0.0, 0.0, 0.0, 0.0, 1.7632264133913074E9, 0.0, 2025-11-15 12:06:53.391
3.0, -764.2111569456756, -167.75882236240432, -190.97612128732726, -142.62295476021245, -0.03200000151991844, 0.17600000835955143, 0.0, 0.0, 0.0, 0.0, 0.0, 0.0, 1.7632264133913074E9, 0.0, 2025-11-15 12:06:53.391
4.0, -649.5046854047105, -85.99338963115588, -149.3136357809417, -122.34895710041746, -0.03200000151991844, 0.17600000835955143, 0.0, 0.0, 0.0, 0.0, 0.0, 0.0, 1.7632264134037127E9, 0.0, 2025-11-15 12:06:53.403
4.0, -454.68581691291183, 97.0672333999537, 25.736121545080096, 26.00913424184546, -0.03200000151991844, 0.17600000835955143, 0.0, 0.0, 0.0, 0.0, 0.0, 0.0, 1.7632264134037127E9, 0.0, 2025-11-15 12:06:53.403
5.0, -236.23639055108652, -132.31205058237538, -147.85133489826694, -110.16062314482406, -0.03200000151991844, 0.17600000835955143, 0.0, 0.0, 0.0, 0.0, 0.0, 0.0, 1.7632264134193437E9, 0.0, 2025-11-15 12:06:53.419
5.0, -247.96097691217437, -157.85930717969313, -197.67802200792357, -154.16054612351581, -0.03200000151991844, 0.17600000835955143, 0.0, 0.0, 0.0, 0.0, 0.0, 0.0, 1.7632264134193437E9, 0.0, 2025-11-15 12:06:53.419
6.0, -459.57386615499854, 75.76102335238829, -7.148818765301257, -3.461277408991009, -0.03200000151991844, 0.17600000835955143, 0.0, 0.0, 0.0, 0.0, 0.0, 0.0, 1.7632264134200504E9, 0.0, 2025-11-15 12:06:53.420
6.0, -666.0238235089928, -77.97504412615672, -106.60397828696296, -75.80590215185657, -0.03200000151991844, 0.17600000835955143, 0.0, 0.0, 0.0, 0.0, 0.0, 0.0, 1.7632264134200504E9, 0.0, 2025-11-15 12:06:53.420
7.0, -747.1684328475967, -158.0163829778321, -187.8458250244148, -135.03095785016194, -0.03200000151991844, 0.17600000835955143, 0.0, 0.0, 0.0, 0.0, 0.0, 0.0, 1.763226413433752E9, 0.0, 2025-11-15 12:06:53.433
7.0, -571.8718421244994, -17.07825314765796, -94.67369742831215, -76.37810684507713, -0.03200000151991844, 0.17600000835955143, 0.0, 0.0, 0.0, 0.0, 0.0, 0.0, 1.763226413433752E9, 0.0, 2025-11-15 12:06:53.433
8.0, -562.0920037403703, 14.037714483682066, -26.906710231211036, -5.271388987544924, -0.03200000151991844, 0.17600000835955143, 0.0, 0.0, 0.0, 0.0, 0.0, 0.0, 1.763226413449483E9, 0.0, 2025-11-15 12:06:53.449
8.0, -761.5259087774903, -165.6532586873509, -196.97866071620956, -155.15909941168502, -0.03200000151991844, 0.17600000835955143, 0.0, 0.0, 0.0, 0.0, 0.0, 0.0, 1.763226413449483E9, 0.0, 2025-11-15 12:06:53.449
9.0, -639.4854934234172, -77.48885713191703, -145.76821062294766, -120.83429761836305, -0.03200000151991844, 0.17600000835955143, 0.0, 0.0, 0.0, 0.0, 0.0, 0.0, 1.7632264134500623E9, 0.0, 2025-11-15 12:06:53.450
9.0, -448.4775829864666, 104.45353581244126, 28.612104611005634, 35.059692134615034, -0.03200000151991844, 0.17600000835955143, 0.0, 0.0, 0.0, 0.0, 0.0, 0.0, 1.7632264134500623E9, 0.0, 2025-11-15 12:06:53.450
10.0, -259.64816427370533, 340.0504034711048, -171.07237372314557, -128.8227239237167, -0.03200000151991844, 0.17600000835955143, 1.0240000486373901, 0.0, 0.0, 0.0, 0.0, 0.0, 1.763226413480068E9, 0.0, 2025-11-15 12:06:53.480
10.0, -236.69265834568068, 340.80960316210985, -194.8843167410232, -150.06161577207968, -0.03200000151991844, 0.17600000835955143, 1.0240000486373901, 0.0, 0.0, 0.0, 0.0, 0.0, 1.763226413480068E9, 0.0, 2025-11-15 12:06:53.480
11.0, -449.12832557875663, 578.1698336498812, -0.30854174634441733, 12.410858002956957, -0.03200000151991844, 0.144000006839633, 1.0240000486373901, 0.0, 0.0, 0.0, 0.0, 0.0, 1.7632264134808433E9, 0.0, 2025-11-15 12:06:53.480
11.0, -667.878813887015, 419.527017429471, -95.64233151683584, -53.568457015324384, -0.03200000151991844, 0.144000006839633, 1.0240000486373901, 0.0, 0.0, 0.0, 0.0, 0.0, 1.7632264134808433E9, 0.0, 2025-11-15 12:06:53.480
12.0, -759.7494562985376, 325.1207228479907, -197.72664070734754, -144.54900323739275, -0.01600000075995922, 0.144000006839633, 1.0240000486373901, 0.0, 0.0, 0.0, 0.0, 0.0, 1.76322641348146E9, 0.0, 2025-11-15 12:06:53.481
12.0, -562.4173750365153, 489.9755128948018, -83.82798755681142, -65.30426307627931, -0.01600000075995922, 0.144000006839633, 1.0240000486373901, 0.0, 0.0, 0.0, 0.0, 0.0, 1.76322641348146E9, 0.0, 2025-11-15 12:06:53.481
13.0, -554.3204916324466, 513.9819307103753, -22.886317778844386, -3.8053482049144804, -0.01600000075995922, 0.144000006839633, 1.0240000486373901, 0.0, 0.0, 0.0, 0.0, 0.0, 1.7632264135105276E9, 0.0, 2025-11-15 12:06:53.510
13.0, -754.7454701578245, 327.02433192543685, -194.11763725010678, -150.31966886902228, -0.01600000075995922, 0.144000006839633, 1.0240000486373901, 0.0, 0.0, 0.0, 0.0, 0.0, 1.7632264135105276E9, 0.0, 2025-11-15 12:06:53.510
14.0, -650.9258473878726, 403.378129420802, -157.63865308230743, -125.72608676040545, -0.01600000075995922, 0.144000006839633, 1.0240000486373901, 0.0, 0.0, 0.0, 0.0, 0.0, 1.763226413511178E9, 0.0, 2025-11-15 12:06:53.511
14.0, -453.89669802226126, 583.4318728875369, 10.26415542839095, 21.59231239417568, -0.01600000075995922, 0.144000006839633, 1.0240000486373901, 0.0, 0.0, 0.0, 0.0, 0.0, 1.763226413511178E9, 0.0, 2025-11-15 12:06:53.511
15.0, -229.983277825173, 368.5858401330188, -144.48916483810171, -99.96191596565768, -0.01600000075995922, 0.144000006839633, 1.0240000486373901, 0.0, 0.0, 0.0, 0.0, 0.0, 1.7632264135244827E9, 0.0, 2025-11-15 12:06:53.524
15.0, -241.36753329029307, 342.77305063884705, -189.97008819924667, -153.8725738269277, -0.01600000075995922, 0.144000006839633, 1.0240000486373901, 0.0, 0.0, 0.0, 0.0, 0.0, 1.7632264135244827E9, 0.0, 2025-11-15 12:06:53.524
16.0, -476.14162295870483, 565.1923808036372, -8.771935346070677, -3.2892420110292733, -0.01600000075995922, 0.144000006839633, 1.0240000486373901, 0.0, 0.0, 0.0, 0.0, 0.0, 1.7632264135251284E9, 0.0, 2025-11-15 12:06:53.525
16.0, -666.4352125041187, 421.022977411747, -90.97493637213483, -52.24827233096585, -0.01600000075995922, 0.144000006839633, 1.0240000486373901, 0.0, 0.0, 0.0, 0.0, 0.0, 1.7632264135251284E9, 0.0, 2025-11-15 12:06:53.525
17.0, -753.3729268740863, 330.09478978905827, -190.97612128732726, -142.55563656101003, -0.01600000075995922, 0.144000006839633, 1.0240000486373901, 0.0, 0.0, 0.0, 0.0, 0.0, 1.763226413539435E9, 0.0, 2025-11-15 12:06:53.539
17.0, -555.8127117147669, 493.3002839554101, -76.4267255445011, -58.329349658917636, -0.01600000075995922, 0.144000006839633, 1.0240000486373901, 0.0, 0.0, 0.0, 0.0, 0.0, 1.763226413539435E9, 0.0, 2025-11-15 12:06:53.539
18.0, -548.1683562053367, 514.5840546032414, -20.440423207823187, -2.4402847210876644, -0.01600000075995922, 0.144000006839633, 1.0240000486373901, 0.0, 0.0, 0.0, 0.0, 0.0, 1.763226413540089E9, 0.0, 2025-11-15 12:06:53.540
18.0, -750.493203908205, 334.3545358385891, -184.61081156274304, -131.02178509766236, -0.01600000075995922, 0.144000006839633, 1.0240000486373901, 0.0, 0.0, 0.0, 0.0, 0.0, 1.763226413540089E9, 0.0, 2025-11-15 12:06:53.540
19.0, -656.1205684263259, 392.1023310543969, -156.74107709294185, -128.59085012646392, -0.01600000075995922, 0.144000006839633, 1.0240000486373901, 0.0, 0.0, 0.0, 0.0, 0.0, 1.76322641355378E9, 0.0, 2025-11-15 12:06:53.553
19.0, -458.7735275644809, 581.790056806989, 20.907910702284425, 29.864971096161753, -0.01600000075995922, 0.144000006839633, 1.0240000486373901, 0.0, 0.0, 0.0, 0.0, 0.0, 1.76322641355378E9, 0.0, 2025-11-15 12:06:53.553
20.0, -241.27403579140082, 354.15356620401144, -155.43585200840607, -104.8836243073456, -0.01600000075995922, 0.144000006839633, 0.49600002355873585, 0.0, 0.0, 0.0, 0.0, 0.0, 1.7632264135693872E9, 0.0, 2025-11-15 12:06:53.569
20.0, -237.24990343907848, 350.29398944973946, -181.30100010195747, -137.50303172087297, -0.01600000075995922, 0.144000006839633, 0.49600002355873585, 0.0, 0.0, 0.0, 0.0, 0.0, 1.7632264135693872E9, 0.0, 2025-11-15 12:06:53.569
21.0, -477.8470173384994, 568.0496643697843, -4.710403994191438, 0.9518045387230814, -0.01600000075995922, 0.2240000106394291, 0.49600002355873585, 0.0, 0.0, 0.0, 0.0, 0.0, 1.7632264135701227E9, 0.0, 2025-11-15 12:06:53.570
21.0, -664.0940351318568, 412.0883564176038, -96.88397830212489, -60.352635534945875, -0.01600000075995922, 0.2240000106394291, 0.49600002355873585, 0.0, 0.0, 0.0, 0.0, 0.0, 1.7632264135701227E9, 0.0, 2025-11-15 12:06:53.570
22.0, -749.8312416160479, 326.43716763239354, -198.1829085019417, -152.5000305431895, -0.01600000075995922, 0.2240000106394291, 0.49600002355873585, 0.0, 0.0, 0.0, 0.0, 0.0, 1.7632264135838344E9, 0.0, 2025-11-15 12:06:53.583
22.0, -555.5396990180016, 490.2709649913013, -76.74461704073474, -64.58246238483116, -0.01600000075995922, 0.2240000106394291, 0.49600002355873585, 0.0, 0.0, 0.0, 0.0, 0.0, 1.7632264135838344E9, 0.0, 2025-11-15 12:06:53.583
23.0, -550.8984831729904, 505.58585530985147, -27.381677525583655, -4.665525194723159, -0.01600000075995922, 0.2240000106394291, 0.49600002355873585, 0.0, 0.0, 0.0, 0.0, 0.0, 1.763226413599393E9, 0.0, 2025-11-15 12:06:53.599
23.0, -748.780329728499, 334.3096570391208, -184.89130405941978, -134.21191975986585, -0.01600000075995922, 0.2240000106394291, 0.49600002355873585, 0.0, 0.0, 0.0, 0.0, 0.0, 1.763226413599393E9, 0.0, 2025-11-15 12:06:53.599
24.0, -654.0524037508294, 396.64630950056016, -151.99514404917136, -115.1833087853156, -0.01600000075995922, 0.2240000106394291, 0.49600002355873585, 0.0, 0.0, 0.0, 0.0, 0.0, 1.7632264136000803E9, 0.0, 2025-11-15 12:06:53.600
24.0, -457.5169211793691, 579.1983061376959, 19.830819515045732, 26.065232741180807, -0.01600000075995922, 0.2240000106394291, 0.49600002355873585, 0.0, 0.0, 0.0, 0.0, 0.0, 1.7632264136000803E9, 0.0, 2025-11-15 12:06:53.600
25.0, -259.9847552697174, 346.6101879933849, -154.2764830221422, -107.96156197087839, -0.01600000075995922, 0.2240000106394291, 0.49600002355873585, 0.0, 0.0, 0.0, 0.0, 0.0, 1.7632264136137865E9, 0.0, 2025-11-15 12:06:53.613
25.0, -230.18149252282456, 351.7188913328573, -182.4379296884872, -139.98258539149538, -0.01600000075995922, 0.2240000106394291, 0.49600002355873585, 0.0, 0.0, 0.0, 0.0, 0.0, 1.7632264136137865E9, 0.0, 2025-11-15 12:06:53.613
26.0, -468.5197068490088, 571.4567132294178, -7.242316264193505, -0.521716043818742, -0.01600000075995922, 0.2240000106394291, 0.49600002355873585, 0.0, 0.0, 0.0, 0.0, 0.0, 1.7632264136293788E9, 0.0, 2025-11-15 12:06:53.629
26.0, -656.9545661164448, 423.9101801775396, -89.88288558507338, -46.9675335935317, -0.01600000075995922, 0.2240000106394291, 0.49600002355873585, 0.0, 0.0, 0.0, 0.0, 0.0, 1.7632264136293788E9, 0.0, 2025-11-15 12:06:53.629
27.0, -753.761876469478, 329.5375446956605, -192.68899546703324, -142.17416676552966, -0.01600000075995922, 0.2240000106394291, 0.49600002355873585, 0.0, 0.0, 0.0, 0.0, 0.0, 1.7632264136300597E9, 0.0, 2025-11-15 12:06:53.630
27.0, -546.874350820668, 494.10062254592776, -78.55846851924434, -64.57124268496409, -0.01600000075995922, 0.2240000106394291, 0.49600002355873585, 0.0, 0.0, 0.0, 0.0, 0.0, 1.7632264136300597E9, 0.0, 2025-11-15 12:06:53.630
28.0, -554.4476482309401, 514.9169056992978, -19.49796841898933, -0.6787918419577181, -0.01600000075995922, 0.2240000106394291, 0.49600002355873585, 0.0, 0.0, 0.0, 0.0, 0.0, 1.7632264136437435E9, 0.0, 2025-11-15 12:06:53.643
28.0, -763.470656754449, 318.08971093129367, -197.56956490920857, -154.93096551438794, -0.01600000075995922, 0.2240000106394291, 0.49600002355873585, 0.0, 0.0, 0.0, 0.0, 0.0, 1.7632264136437435E9, 0.0, 2025-11-15 12:06:53.643
29.0, -642.4437542883679, 404.4140817085281, -146.62838761275634, -110.42615604167804, -0.01600000075995922, 0.2240000106394291, 0.49600002355873585, 0.0, 0.0, 0.0, 0.0, 0.0, 1.763226413659464E9, 0.0, 2025-11-15 12:06:53.659
29.0, -465.8494182806462, 578.3082099482417, 15.447656766977161, 14.572520177345723, -0.01600000075995922, 0.2240000106394291, 0.49600002355873585, 0.0, 0.0, 0.0, 0.0, 0.0, 1.763226413659464E9, 0.0, 2025-11-15 12:06:53.659
30.0, -255.35101922461763, 355.2830159906298, -152.96377813769504, -104.78264700854197, -0.01600000075995922, 0.2240000106394291, 0.7520000357180834, 0.0, 0.0, 0.0, 0.0, 0.0, 1.7632264136601038E9, 0.0, 2025-11-15 12:06:53.660
30.0, -231.88314700266346, 358.73868354968727, -176.48026905907318, -127.69327413709834, -0.01600000075995922, 0.2240000106394291, 0.7520000357180834, 0.0, 0.0, 0.0, 0.0, 0.0, 1.7632264136601038E9, 0.0, 2025-11-15 12:06:53.660
31.0, -459.7833005525172, 574.8899413887411, -4.63934589503333, -4.751542893704027, -0.01600000075995922, 0.2400000113993883, 0.7520000357180834, 0.0, 0.0, 0.0, 0.0, 0.0, 1.7632264136737146E9, 0.0, 2025-11-15 12:06:53.673
31.0, -638.1279097395018, 440.5115960808471, -77.62723343027756, -49.136675567831844, -0.01600000075995922, 0.2400000113993883, 0.7520000357180834, 0.0, 0.0, 0.0, 0.0, 0.0, 1.7632264136737146E9, 0.0, 2025-11-15 12:06:53.673
32.0, -755.957197743468, 325.39373554475605, -196.00628672773018, -150.29348956933245, -0.01600000075995922, 0.2400000113993883, 0.7520000357180834, 0.0, 0.0, 0.0, 0.0, 0.0, 1.763226413689454E9, 0.0, 2025-11-15 12:06:53.689
32.0, -559.309518173337, 483.76353906840086, -82.30584827484563, -64.11871479032561, -0.01600000075995922, 0.2400000113993883, 0.7520000357180834, 0.0, 0.0, 0.0, 0.0, 0.0, 1.763226413689454E9, 0.0, 2025-11-15 12:06:53.689
33.0, -542.4388294732198, 517.8415074646473, -17.399884543847293, -4.908618691843003, -0.01600000075995922, 0.2400000113993883, 0.7520000357180834, 0.0, 0.0, 0.0, 0.0, 0.0, 1.7632264136901555E9, 0.0, 2025-11-15 12:06:53.690
33.0, -756.6378595354035, 333.54671744816005, -180.37724481290206, -141.88245456898585, -0.01600000075995922, 0.2400000113993883, 0.7520000357180834, 0.0, 0.0, 0.0, 0.0, 0.0, 1.7632264136901555E9, 0.0, 2025-11-15 12:06:53.690
34.0, -645.2262398554012, 407.06567077711225, -147.5334434020333, -118.33978434791788, -0.01600000075995922, 0.2400000113993883, 0.7520000357180834, 0.0, 0.0, 0.0, 0.0, 0.0, 1.7632264137037146E9, 0.0, 2025-11-15 12:06:53.703
34.0, -461.4363363329321, 578.9664323404431, 23.14811077574268, 28.182016116101295, -0.01600000075995922, 0.2400000113993883, 0.7520000357180834, 0.0, 0.0, 0.0, 0.0, 0.0, 1.7632264137037146E9, 0.0, 2025-11-15 12:06:53.703
35.0, -235.89605965511873, 366.5475946571678, -137.3796150223352, -91.58827996486798, -0.01600000075995922, 0.2400000113993883, 0.7520000357180834, 0.0, 0.0, 0.0, 0.0, 0.0, 1.7632264137194536E9, 0.0, 2025-11-15 12:06:53.719
35.0, -231.864447502885, 347.380607384257, -182.60248528653756, -150.3121890691109, -0.01600000075995922, 0.2400000113993883, 0.7520000357180834, 0.0, 0.0, 0.0, 0.0, 0.0, 1.7632264137194536E9, 0.0, 2025-11-15 12:06:53.719
36.0, -454.5885795140639, 581.3861476117745, 0.5965140429325402, 0.19260484771803021, -0.01600000075995922, 0.2400000113993883, 0.7520000357180834, 0.0, 0.0, 0.0, 0.0, 0.0, 1.7632264137200792E9, 0.0, 2025-11-15 12:06:53.720
36.0, -665.3469016170129, 426.84974154271185, -85.3576066386886, -52.07623693300411, -0.01600000075995922, 0.2400000113993883, 0.7520000357180834, 0.0, 0.0, 0.0, 0.0, 0.0, 1.7632264137200792E9, 0.0, 2025-11-15 12:06:53.720
37.0, -745.3695409689099, 330.0873099891469, -195.04513243911788, -156.12399360025302, -0.01600000075995922, 0.2400000113993883, 0.7520000357180834, 0.0, 0.0, 0.0, 0.0, 0.0, 1.7632264137337065E9, 0.0, 2025-11-15 12:06:53.733
37.0, -548.3590911030769, 498.55858329311013, -72.2754365936853, -55.24393219547346, -0.01600000075995922, 0.2400000113993883, 0.7520000357180834, 0.0, 0.0, 0.0, 0.0, 0.0, 1.7632264137337065E9, 0.0, 2025-11-15 12:06:53.733
38.0, -545.8757975324988, 517.5123962685466, -17.411104243714362, -3.6931512062437832, -0.01600000075995922, 0.2400000113993883, 0.7520000357180834, 0.0, 0.0, 0.0, 0.0, 0.0, 1.7632264137494564E9, 0.0, 2025-11-15 12:06:53.749
38.0, -751.7124112937599, 338.0794761944562, -177.8789916425012, -125.43063466390595, -0.01600000075995922, 0.2400000113993883, 0.7520000357180834, 0.0, 0.0, 0.0, 0.0, 0.0, 1.7632264137494564E9, 0.0, 2025-11-15 12:06:53.749
39.0, -651.2175595844164, 398.3741432800889, -154.25404362240806, -129.28647151822224, -0.01600000075995922, 0.2400000113993883, 0.7520000357180834, 0.0, 0.0, 0.0, 0.0, 0.0, 1.7632264137500854E9, 0.0, 2025-11-15 12:06:53.750
39.0, -453.01782153267413, 588.6939121251926, 25.56034624716267, 36.28263942012563, -0.01600000075995922, 0.2400000113993883, 0.7520000357180834, 0.0, 0.0, 0.0, 0.0, 0.0, 1.7632264137500854E9, 0.0, 2025-11-15 12:06:53.750
40.0, -229.54196963040158, 370.2575754132122, -139.1261483016424, -102.35545193729922, -0.01600000075995922, 0.2400000113993883, 0.8800000417977571, 0.0, 0.0, 0.0, 0.0, 0.0, 1.7632264137637894E9, 0.0, 2025-11-15 12:06:53.763
40.0, -238.79074222082272, 343.7192453276366, -188.54518631612882, -143.47565195010975, -0.01600000075995922, 0.2400000113993883, 0.8800000417977571, 0.0, 0.0, 0.0, 0.0, 0.0, 1.7632264137637894E9, 0.0, 2025-11-15 12:06:53.763
41.0, 3.2780223111622036, 565.2970980023965, -14.598699477035552, -8.506402449216694, -0.01600000075995922, 0.27200001291930676, 0.8800000417977571, 0.0, 0.0, 0.0, 0.0, 0.0, 1.7632264137794478E9, 0.0, 2025-11-15 12:06:53.779
41.0, -164.6846245988272, 426.33363534882665, -88.01293560722843, -51.092643244657665, -0.01600000075995922, 0.27200001291930676, 0.8800000417977571, 0.0, 0.0, 0.0, 0.0, 0.0, 1.7632264137794478E9, 0.0, 2025-11-15 12:06:53.779
42.0, -249.2886413964443, 343.9062403254211, -183.86283157160506, -137.21879932424054, -0.03200000151991844, 0.27200001291930676, 0.8800000417977571, 0.0, 0.0, 0.0, 0.0, 0.0, 1.763226413780089E9, 0.0, 2025-11-15 12:06:53.780
42.0, -60.43865323392674, 492.65328126307577, -82.66113877063617, -72.50731039093807, -0.03200000151991844, 0.27200001291930676, 0.8800000417977571, 0.0, 0.0, 0.0, 0.0, 0.0, 1.763226413780089E9, 0.0, 2025-11-15 12:06:53.780
43.0, -44.52537892246619, 526.540514761582, -12.418337802868336, 1.8381608282215893, -0.03200000151991844, 0.27200001291930676, 0.8800000417977571, 0.0, 0.0, 0.0, 0.0, 0.0, 1.7632264137937353E9, 0.0, 2025-11-15 12:06:53.793
43.0, -259.4312500762753, 338.61802178807557, -169.85690623754635, -126.5226854509674, -0.03200000151991844, 0.27200001291930676, 0.8800000417977571, 0.0, 0.0, 0.0, 0.0, 0.0, 1.7632264137937353E9, 0.0, 2025-11-15 12:06:53.793
44.0, -181.11400510417297, 389.38716368656605, -155.64154650596902, -123.36620988836512, -0.03200000151991844, 0.27200001291930676, 0.8800000417977571, 0.0, 0.0, 0.0, 0.0, 0.0, 1.7632264138093507E9, 0.0, 2025-11-15 12:06:53.809
44.0, 25.20131585141644, 579.6134350327775, 21.042547100689262, 30.616690987255424, -0.03200000151991844, 0.27200001291930676, 0.8800000417977571, 0.0, 0.0, 0.0, 0.0, 0.0, 1.7632264138093507E9, 0.0, 2025-11-15 12:06:53.809
45.0, 246.13777568377554, 356.872473471798, -149.9381990735419, -121.3728432119824, -0.03200000151991844, 0.27200001291930676, 0.8800000417977571, 0.0, 0.0, 0.0, 0.0, 0.0, 1.7632264138100765E9, 0.0, 2025-11-15 12:06:53.810
45.0, 261.89023429714143, 345.65651350468397, -185.41862995317206, -150.35706786857918, -0.03200000151991844, 0.27200001291930676, 0.8800000417977571, 0.0, 0.0, 0.0, 0.0, 0.0, 1.7632264138100765E9, 0.0, 2025-11-15 12:06:53.810
46.0, 501.1952127618715, 560.4614073596895, -9.347879939246923, -5.989449779037386, -0.03200000151991844, 0.27200001291930676, 0.8800000417977571, 0.0, 0.0, 0.0, 0.0, 0.0, 1.7632264138237317E9, 0.0, 2025-11-15 12:06:53.823
46.0, 324.61209645401686, 428.5700955223292, -80.6116735949181, -52.46892642835155, -0.03200000151991844, 0.27200001291930676, 0.8800000417977571, 0.0, 0.0, 0.0, 0.0, 0.0, 1.7632264138237317E9, 0.0, 2025-11-15 12:06:53.823
47.0, 237.68934168387204, 332.29011106304824, -195.81555182999, -154.04086932493374, -0.03200000151991844, 0.27200001291930676, 0.8800000417977571, 0.0, 0.0, 0.0, 0.0, 0.0, 1.7632264138394136E9, 0.0, 2025-11-15 12:06:53.839
47.0, 415.9853321714327, 486.3777291374281, -80.10304720094427, -64.63482098421082, -0.03200000151991844, 0.27200001291930676, 0.8800000417977571, 0.0, 0.0, 0.0, 0.0, 0.0, 1.7632264138394136E9, 0.0, 2025-11-15 12:06:53.839
48.0, 457.5206610793248, 540.8007532926276, 4.343893798533827, 8.330627151299268, -0.03200000151991844, 0.27200001291930676, 0.8800000417977571, 0.0, 0.0, 0.0, 0.0, 0.0, 1.763226413840094E9, 0.0, 2025-11-15 12:06:53.840
48.0, 215.8408461427316, 329.9377139909193, -186.09929174510762, -156.55034219520167, -0.03200000151991844, 0.27200001291930676, 0.8800000417977571, 0.0, 0.0, 0.0, 0.0, 0.0, 1.763226413840094E9, 0.0, 2025-11-15 12:06:53.840
49.0, 321.9679871853441, 398.4414614792913, -154.38120022090152, -122.83514409465715, -0.03200000151991844, 0.27200001291930676, 0.8800000417977571, 0.0, 0.0, 0.0, 0.0, 0.0, 1.7632264138537862E9, 0.0, 2025-11-15 12:06:53.853
49.0, 509.2060784669593, 576.2400452727452, 16.64816465275362, 21.315559797454625, -0.03200000151991844, 0.27200001291930676, 0.8800000417977571, 0.0, 0.0, 0.0, 0.0, 0.0, 1.7632264138537862E9, 0.0, 2025-11-15 12:06:53.853
50.0, 750.0275863637216, 366.7682487545535, -134.88510175189003, -95.90786441368982, -0.03200000151991844, 0.27200001291930676, 0.944000044837594, 0.0, 0.0, 0.0, 0.0, 0.0, 1.763226413869377E9, 0.0, 2025-11-15 12:06:53.869
50.0, 744.8291254253127, 345.3124427087605, -181.12148490408435, -140.85772198112682, -0.03200000151991844, 0.27200001291930676, 0.944000044837594, 0.0, 0.0, 0.0, 0.0, 0.0, 1.763226413869377E9, 0.0, 2025-11-15 12:06:53.869
51.0, 984.9718414801173, 555.0235928241163, -14.060153883416206, -6.000669478904456, -0.03200000151991844, 0.27200001291930676, 0.944000044837594, 0.0, 0.0, 0.0, 0.0, 0.0, 1.7632264138700998E9, 0.0, 2025-11-15 12:06:53.870
51.0, 812.2183827268891, 433.2786295665428, -82.03657547803596, -49.940754058305174, -0.03200000151991844, 0.27200001291930676, 0.944000044837594, 0.0, 0.0, 0.0, 0.0, 0.0, 1.7632264138700998E9, 0.0, 2025-11-15 12:06:53.870
52.0, 721.271495604422, 336.50871821306646, -181.48799509974197, -130.748772400897, -0.03200000151991844, 0.27200001291930676, 0.944000044837594, 0.0, 0.0, 0.0, 0.0, 0.0, 1.763226413883702E9, 0.0, 2025-11-15 12:06:53.883
52.0, 914.1044772197492, 483.31475107371807, -83.92148505570367, -79.44108490878716, -0.03200000151991844, 0.27200001291930676, 0.944000044837594, 0.0, 0.0, 0.0, 0.0, 0.0, 1.763226413883702E9, 0.0, 2025-11-15 12:06:53.883
53.0, 929.2248927406035, 526.4844162622467, -5.4284647856839, 2.4664640207774937, -0.03200000151991844, 0.27200001291930676, 0.944000044837594, 0.0, 0.0, 0.0, 0.0, 0.0, 1.7632264138993585E9, 0.0, 2025-11-15 12:06:53.899
53.0, 715.5531885721721, 327.5628775190562, -190.3702574945055, -148.37492089206353, -0.03200000151991844, 0.27200001291930676, 0.944000044837594, 0.0, 0.0, 0.0, 0.0, 0.0, 1.7632264138993585E9, 0.0, 2025-11-15 12:06:53.899
54.0, 812.8878248189576, 401.8634699387476, -147.4960444024764, -113.78084630193189, -0.03200000151991844, 0.27200001291930676, 0.944000044837594, 0.0, 0.0, 0.0, 0.0, 0.0, 1.7632264139000807E9, 0.0, 2025-11-15 12:06:53.900
54.0, 1023.5189903234132, 591.4838774921373, 23.5108810714446, 25.029280453454703, -0.03200000151991844, 0.27200001291930676, 0.944000044837594, 0.0, 0.0, 0.0, 0.0, 0.0, 1.7632264139000807E9, 0.0, 2025-11-15 12:06:53.900
55.0, 1228.2467237478122, 368.4699032343924, -144.06655614310876, -104.63305101031438, -0.03200000151991844, 0.27200001291930676, 0.944000044837594, 0.0, 0.0, 0.0, 0.0, 0.0, 1.7632264139136755E9, 0.0, 2025-11-15 12:06:53.913
55.0, 1240.5584744019434, 346.54660969413817, -188.72096161404625, -143.87208134541288, -0.03200000151991844, 0.27200001291930676, 0.944000044837594, 0.0, 0.0, 0.0, 0.0, 0.0, 1.7632264139136755E9, 0.0, 2025-11-15 12:06:53.913
56.0, 1009.554203888867, 575.9782522758469, 3.6894113062880933, 8.061354354489595, -0.03200000151991844, 0.27200001291930676, 0.944000044837594, 0.0, 0.0, 0.0, 0.0, 0.0, 1.7632264139293568E9, 0.0, 2025-11-15 12:06:53.929
56.0, 821.1118648215197, 433.0504956692457, -80.70143119385466, -50.53913805121556, -0.03200000151991844, 0.27200001291930676, 0.944000044837594, 0.0, 0.0, 0.0, 0.0, 0.0, 1.7632264139293568E9, 0.0, 2025-11-15 12:06:53.929
57.0, 725.9949892484583, 332.4845858607441, -190.8115656892769, -155.3124353098683, -0.03200000151991844, 0.27200001291930676, 0.944000044837594, 0.0, 0.0, 0.0, 0.0, 0.0, 1.7632264139300523E9, 0.0, 2025-11-15 12:06:53.930
57.0, 909.8035922707058, 481.05585150048137, -88.42058470239863, -76.5015235436149, -0.03200000151991844, 0.27200001291930676, 0.944000044837594, 0.0, 0.0, 0.0, 0.0, 0.0, 1.7632264139300523E9, 0.0, 2025-11-15 12:06:53.930
58.0, 960.5128957699053, 531.7240161001682, -7.919238156173378, 6.602793371770531, -0.03200000151991844, 0.27200001291930676, 0.944000044837594, 0.0, 0.0, 0.0, 0.0, 0.0, 1.7632264139436884E9, 0.0, 2025-11-15 12:06:53.943
58.0, 722.4233847907744, 335.95895291958004, -179.71902242070064, -128.17198133142665, -0.03200000151991844, 0.27200001291930676, 0.944000044837594, 0.0, 0.0, 0.0, 0.0, 0.0, 1.7632264139436884E9, 0.0, 2025-11-15 12:06:53.943
59.0, 812.4427767242305, 399.784085563384, -148.93216598546132, -119.25231993710622, -0.03200000151991844, 0.27200001291930676, 0.944000044837594, 0.0, 0.0, 0.0, 0.0, 0.0, 1.763226413959362E9, 0.0, 2025-11-15 12:06:53.959
59.0, 1011.7196059632115, 583.4318728875369, 24.116744864266366, 29.083332005422562, -0.03200000151991844, 0.27200001291930676, 0.944000044837594, 0.0, 0.0, 0.0, 0.0, 0.0, 1.763226413959362E9, 0.0, 2025-11-15 12:06:53.959
60.0, 1250.1064389888197, 367.30679434817284, -141.47480547381565, -97.36642539640889, -0.03200000151991844, 0.27200001291930676, 0.9760000463575125, 0.0, 0.0, 0.0, 0.0, 0.0, 1.7632264139600916E9, 0.0, 2025-11-15 12:06:53.960
60.0, 1231.4592978097498, 344.26153082121164, -185.8524583480321, -141.9385530683212, -0.03200000151991844, 0.27200001291930676, 0.9760000463575125, 0.0, 0.0, 0.0, 0.0, 0.0, 1.7632264139600916E9, 0.0, 2025-11-15 12:06:53.960
61.0, 992.2945655933581, 555.5770980175585, -18.77990762749687, -23.94844936626032, -0.03200000151991844, 0.27200001291930676, 0.9760000463575125, 0.0, 0.0, 0.0, 0.0, 0.0, 1.7632264139736738E9, 0.0, 2025-11-15 12:06:53.973
61.0, 823.4493022938259, 435.616067038849, -79.85621380386874, -53.74423231324181, -0.03200000151991844, 0.27200001291930676, 0.9760000463575125, 0.0, 0.0, 0.0, 0.0, 0.0, 1.7632264139736738E9, 0.0, 2025-11-15 12:06:53.973
62.0, 729.5254548066296, 335.32690982706845, -185.78514014882967, -141.1943129771389, -0.03200000151991844, 0.27200001291930676, 0.9760000463575125, 0.0, 0.0, 0.0, 0.0, 0.0, 1.7632264139894018E9, 0.0, 2025-11-15 12:06:53.989
62.0, 908.4983671861701, 478.1162901353091, -87.95683710789308, -74.12294717179611, -0.03200000151991844, 0.27200001291930676, 0.9760000463575125, 0.0, 0.0, 0.0, 0.0, 0.0, 1.7632264139894018E9, 0.0, 2025-11-15 12:06:53.989
63.0, 949.6185671989806, 535.1123654600233, -2.7918353169225156, 9.516175437252969, -0.03200000151991844, 0.27200001291930676, 0.9760000463575125, 0.0, 0.0, 0.0, 0.0, 0.0, 1.7632264139900744E9, 0.0, 2025-11-15 12:06:53.990
63.0, 714.2479634876363, 333.55045734811574, -175.40691777179018, -136.2277258359827, -0.03200000151991844, 0.27200001291930676, 0.9760000463575125, 0.0, 0.0, 0.0, 0.0, 0.0, 1.7632264139900744E9, 0.0, 2025-11-15 12:06:53.990
64.0, 810.4531499478035, 398.65463577676564, -149.63900707708672, -120.94275471707806, -0.03200000151991844, 0.27200001291930676, 0.9760000463575125, 0.0, 0.0, 0.0, 0.0, 0.0, 1.763226414003718E9, 0.0, 2025-11-15 12:06:54.003
64.0, 1019.636974169407, 585.6346739614382, 25.53416694747284, 27.276960326824337, -0.03200000151991844, 0.27200001291930676, 0.9760000463575125, 0.0, 0.0, 0.0, 0.0, 0.0, 1.763226414003718E9, 0.0, 2025-11-15 12:06:54.003
65.0, 1247.1070392243564, 373.6309651732445, -131.66504789004102, -92.15674475813285, -0.03200000151991844, 0.27200001291930676, 0.9760000463575125, 0.0, 0.0, 0.0, 0.0, 0.0, 1.7632264140194027E9, 0.0, 2025-11-15 12:06:54.019
65.0, 1247.2416756227612, 356.74905677326024, -175.64627136895433, -132.91043457528576, -0.03200000151991844, 0.27200001291930676, 0.9760000463575125, 0.0, 0.0, 0.0, 0.0, 0.0, 1.7632264140194027E9, 0.0, 2025-11-15 12:06:54.019
66.0, 1005.9900792310946, 572.5973827159032, -2.1897114240564406, 5.738876482006162, -0.03200000151991844, 0.27200001291930676, 0.9760000463575125, 0.0, 0.0, 0.0, 0.0, 0.0, 1.7632264140200715E9, 0.0, 2025-11-15 12:06:54.020
66.0, 814.5184211996384, 432.4184525767341, -85.55208143638447, -62.89202760485932, -0.03200000151991844, 0.27200001291930676, 0.9760000463575125, 0.0, 0.0, 0.0, 0.0, 0.0, 1.7632264140200715E9, 0.0, 2025-11-15 12:06:54.020
67.0, 734.0395140531473, 335.9701726194471, -184.61829136265442, -143.85712174559012, -0.03200000151991844, 0.27200001291930676, 0.9760000463575125, 0.0, 0.0, 0.0, 0.0, 0.0, 1.7632264140338013E9, 0.0, 2025-11-15 12:06:54.033
67.0, 911.7371205477975, 479.4065556200221, -85.45484403753653, -71.66957280086353, -0.03200000151991844, 0.27200001291930676, 0.9760000463575125, 0.0, 0.0, 0.0, 0.0, 0.0, 1.7632264140338013E9, 0.0, 2025-11-15 12:06:54.033
68.0, 930.8854083209299, 528.6348587367684, -5.869772980455309, 8.454043849837035, -0.03200000151991844, 0.27200001291930676, 0.9760000463575125, 0.0, 0.0, 0.0, 0.0, 0.0, 1.7632264140493689E9, 0.0, 2025-11-15 12:06:54.049
68.0, 721.6193063003011, 335.7831776216626, -177.23198895016685, -133.80053076473996, -0.03200000151991844, 0.27200001291930676, 0.9760000463575125, 0.0, 0.0, 0.0, 0.0, 0.0, 1.7632264140493689E9, 0.0, 2025-11-15 12:06:54.049
69.0, 807.8240002789535, 395.28124601673335, -152.45141184376553, -117.83863775385544, -0.03200000151991844, 0.27200001291930676, 0.9760000463575125, 0.0, 0.0, 0.0, 0.0, 0.0, 1.763226414050063E9, 0.0, 2025-11-15 12:06:54.050
69.0, 1020.8449618550949, 590.5451626032591, 29.19552900409326, 33.9227625480853, -0.03200000151991844, 0.27200001291930676, 0.9760000463575125, 0.0, 0.0, 0.0, 0.0, 0.0, 1.763226414050063E9, 0.0, 2025-11-15 12:06:54.050
70.0, 1239.5449615139514, 364.0979601861909, -149.02192358439788, -109.07605215767398, -0.03200000151991844, 0.27200001291930676, 0.9920000471174717, 0.0, 0.0, 0.0, 0.0, 0.0, 1.7632264140637271E9, 0.0, 2025-11-15 12:06:54.063
70.0, 1238.7969815228134, 336.3479025149718, -193.91568265249953, -150.80585586326197, -0.03200000151991844, 0.27200001291930676, 0.9920000471174717, 0.0, 0.0, 0.0, 0.0, 0.0, 1.7632264140637271E9, 0.0, 2025-11-15 12:06:54.063
71.0, 997.9717337260954, 559.0215458767489, -10.739122722763568, -5.192851088475436, -0.03200000151991844, 0.288000013679266, 0.9920000471174717, 0.0, 0.0, 0.0, 0.0, 0.0, 1.7632264140794556E9, 0.0, 2025-11-15 12:06:54.079
71.0, 833.3338578767143, 442.0299954628572, -74.07806837232783, -49.27879176614806, -0.03200000151991844, 0.288000013679266, 0.9920000471174717, 0.0, 0.0, 0.0, 0.0, 0.0, 1.7632264140794556E9, 0.0, 2025-11-15 12:06:54.079
72.0, 729.6189523055218, 339.0443703830242, -184.75666766101494, -143.02312405547127, -0.03200000151991844, 0.288000013679266, 0.9920000471174717, 0.0, 0.0, 0.0, 0.0, 0.0, 1.7632264140801284E9, 0.0, 2025-11-15 12:06:54.080
72.0, 905.9253160166554, 478.8567903265357, -86.27762202778831, -71.6807925007306, -0.03200000151991844, 0.288000013679266, 0.9920000471174717, 0.0, 0.0, 0.0, 0.0, 0.0, 1.7632264140801284E9, 0.0, 2025-11-15 12:06:54.080
73.0, 934.6627072761767, 529.6184524251148, -3.7642093054018915, -2.1074336250312626, -0.03200000151991844, 0.288000013679266, 0.9920000471174717, 0.0, 0.0, 0.0, 0.0, 0.0, 1.7632264140937164E9, 0.0, 2025-11-15 12:06:54.093
73.0, 726.0623074476607, 336.6732738111168, -173.31257379660383, -121.08861081534997, -0.03200000151991844, 0.288000013679266, 0.9920000471174717, 0.0, 0.0, 0.0, 0.0, 0.0, 1.7632264140937164E9, 0.0, 2025-11-15 12:06:54.093
74.0, 806.0138887003995, 387.90990320406854, -158.2071178755723, -129.40614831680432, -0.03200000151991844, 0.288000013679266, 0.9920000471174717, 0.0, 0.0, 0.0, 0.0, 0.0, 1.7632264141094072E9, 0.0, 2025-11-15 12:06:54.109
74.0, 1020.9945578533225, 588.1591064315289, 25.94555594259873, 22.882577878888696, -0.03200000151991844, 0.288000013679266, 0.9920000471174717, 0.0, 0.0, 0.0, 0.0, 0.0, 1.7632264141094072E9, 0.0, 2025-11-15 12:06:54.109
75.0, 1230.7748961178586, 365.64253886789083, -140.9325199802406, -99.38223147252575, -0.03200000151991844, 0.288000013679266, 0.9920000471174717, 0.0, 0.0, 0.0, 0.0, 0.0, 1.7632264141101303E9, 0.0, 2025-11-15 12:06:54.110
75.0, 1234.6307329721749, 346.3895338959992, -182.8455787836574, -145.77195052290335, -0.03200000151991844, 0.288000013679266, 0.9920000471174717, 0.0, 0.0, 0.0, 0.0, 0.0, 1.7632264141101303E9, 0.0, 2025-11-15 12:06:54.110
76.0, 999.7444463050924, 560.068717864342, -16.416290855500847, -19.688703316729516, -0.03200000151991844, 0.288000013679266, 0.9920000471174717, 0.0, 0.0, 0.0, 0.0, 0.0, 1.763226414123725E9, 0.0, 2025-11-15 12:06:54.123
76.0, 851.9884788556956, 453.8555591227487, -64.81807608203962, -32.70355516253039, -0.03200000151991844, 0.288000013679266, 0.9920000471174717, 0.0, 0.0, 0.0, 0.0, 0.0, 1.763226414123725E9, 0.0, 2025-11-15 12:06:54.123
77.0, 697.3810146874748, 303.87435119971633, -212.84331632824615, -160.3538204501383, -0.03200000151991844, 0.288000013679266, 0.9920000471174717, 0.0, 0.0, 0.0, 0.0, 0.0, 1.763226414139414E9, 0.0, 2025-11-15 12:06:54.139
77.0, 896.9869551225565, 463.19408931210637, -101.37185824895278, -89.13864549389109, -0.03200000151991844, 0.288000013679266, 0.9920000471174717, 0.0, 0.0, 0.0, 0.0, 0.0, 1.763226414139414E9, 0.0, 2025-11-15 12:06:54.139
78.0, 946.151679940056, 527.6849241480231, -11.07945361873135, -0.7274105413816869, -0.03200000151991844, 0.288000013679266, 0.9920000471174717, 0.0, 0.0, 0.0, 0.0, 0.0, 1.7632264141401155E9, 0.0, 2025-11-15 12:06:54.140
78.0, 717.3894794504158, 330.47625958453864, -182.7670408845879, -140.457552685868, -0.03200000151991844, 0.288000013679266, 0.9920000471174717, 0.0, 0.0, 0.0, 0.0, 0.0, 1.7632264141401155E9, 0.0, 2025-11-15 12:06:54.140
79.0, 796.0919341179542, 390.0453860787675, -152.02880314877257, -112.85709101287648, -0.03200000151991844, 0.288000013679266, 0.9920000471174717, 0.0, 0.0, 0.0, 0.0, 0.0, 1.7632264141537395E9, 0.0, 2025-11-15 12:06:54.153
79.0, 1028.1190672689117, 591.8055088883266, 29.677976098377258, 27.026387029793113, -0.03200000151991844, 0.288000013679266, 0.9920000471174717, 0.0, 0.0, 0.0, 0.0, 0.0, 1.7632264141537395E9, 0.0, 2025-11-15 12:06:54.153
80.0, 1233.7518564825878, 361.56604791618884, -142.40604056278244, -94.64003832871094, -0.03200000151991844, 0.288000013679266, 0.9920000471174717, 0.0, 0.0, 0.0, 0.0, 0.0, 1.7632264141694133E9, 0.0, 2025-11-15 12:06:54.169
80.0, 1231.8594671050087, 343.51729073002934, -185.81879924843088, -145.94772582082078, -0.03200000151991844, 0.288000013679266, 0.9920000471174717, 0.0, 0.0, 0.0, 0.0, 0.0, 1.7632264141694133E9, 0.0, 2025-11-15 12:06:54.169
81.0, 992.9415682856925, 552.1139506585896, -20.533920706715435, -19.307233521249145, -0.03200000151991844, 0.288000013679266, 0.9920000471174717, 0.0, 0.0, 0.0, 0.0, 0.0, 1.763226414170116E9, 0.0, 2025-11-15 12:06:54.170
81.0, 823.9878478874452, 427.55658263433725, -87.22007681662217, -62.001931415405124, -0.03200000151991844, 0.288000013679266, 0.9920000471174717, 0.0, 0.0, 0.0, 0.0, 0.0, 1.763226414170116E9, 0.0, 2025-11-15 12:06:54.170
82.0, 718.6760050351731, 315.65503606013954, -195.05261223902926, -150.77593666361645, -0.03200000151991844, 0.288000013679266, 0.9920000471174717, 0.0, 0.0, 0.0, 0.0, 0.0, 1.7632264141837058E9, 0.0, 2025-11-15 12:06:54.183
82.0, 895.8051467365585, 466.1486102771014, -92.30260085640475, -81.00436309026554, -0.03200000151991844, 0.288000013679266, 0.9920000471174717, 0.0, 0.0, 0.0, 0.0, 0.0, 1.7632264141837058E9, 0.0, 2025-11-15 12:06:54.183
83.0, 927.6354352594353, 515.1375597966835, -14.69593687588349, 1.6960446299053729, -0.03200000151991844, 0.288000013679266, 0.9920000471174717, 0.0, 0.0, 0.0, 0.0, 0.0, 1.7632264141994824E9, 0.0, 2025-11-15 12:06:54.199
83.0, 715.2839157753624, 331.76278516929597, -175.70610976824537, -131.54537109145895, -0.03200000151991844, 0.288000013679266, 0.9920000471174717, 0.0, 0.0, 0.0, 0.0, 0.0, 1.7632264141994824E9, 0.0, 2025-11-15 12:06:54.199
84.0, 801.7130037513562, 388.5120270969346, -160.04714865377173, -131.122762396466, -0.03200000151991844, 0.288000013679266, 0.9920000471174717, 0.0, 0.0, 0.0, 0.0, 0.0, 1.7632264142001123E9, 0.0, 2025-11-15 12:06:54.200
84.0, 1027.318728678394, 589.0342430211604, 25.852058443706483, 26.7720738328062, -0.03200000151991844, 0.288000013679266, 0.9920000471174717, 0.0, 0.0, 0.0, 0.0, 0.0, 1.7632264142001123E9, 0.0, 2025-11-15 12:06:54.200
85.0, 1239.3916256157681, 366.56255425699055, -133.40784126939252, -92.48585595423356, -0.03200000151991844, 0.288000013679266, 0.9920000471174717, 0.0, 0.0, 0.0, 0.0, 0.0, 1.7632264142137103E9, 0.0, 2025-11-15 12:06:54.213
85.0, 1227.887693352066, 331.6019694712013, -188.65364341484383, -140.94373968010768, -0.03200000151991844, 0.288000013679266, 0.9920000471174717, 0.0, 0.0, 0.0, 0.0, 0.0, 1.7632264142137103E9, 0.0, 2025-11-15 12:06:54.213
86.0, 987.8253851463087, 549.8438313854858, -23.652997269760817, -5.03951519029215, -0.03200000151991844, 0.288000013679266, 0.9920000471174717, 0.0, 0.0, 0.0, 0.0, 0.0, 1.7632264142294269E9, 0.0, 2025-11-15 12:06:54.229
86.0, 834.8111183592118, 437.2055245200172, -80.79492869274691, -56.60899567930028, -0.03200000151991844, 0.288000013679266, 0.9920000471174717, 0.0, 0.0, 0.0, 0.0, 0.0, 1.7632264142294269E9, 0.0, 2025-11-15 12:06:54.229
87.0, 720.6656318116002, 320.232673605904, -196.37653682334349, -152.40279314434156, -0.03200000151991844, 0.288000013679266, 0.9920000471174717, 0.0, 0.0, 0.0, 0.0, 0.0, 1.763226414230136E9, 0.0, 2025-11-15 12:06:54.230
87.0, 886.7620686437003, 461.67942983005196, -98.88856467837468, -87.06300101848319, -0.03200000151991844, 0.288000013679266, 0.9920000471174717, 0.0, 0.0, 0.0, 0.0, 0.0, 1.763226414230136E9, 0.0, 2025-11-15 12:06:54.230
88.0, 937.2095791460015, 524.8725193813443, -9.273081940133125, 0.5665948432870209, -0.03200000151991844, 0.288000013679266, 0.9920000471174717, 0.0, 0.0, 0.0, 0.0, 0.0, 1.763226414243674E9, 0.0, 2025-11-15 12:06:54.243
88.0, 707.6657395656221, 328.6474485062063, -181.98540179384872, -142.61921486025676, -0.03200000151991844, 0.288000013679266, 0.9920000471174717, 0.0, 0.0, 0.0, 0.0, 0.0, 1.763226414243674E9, 0.0, 2025-11-15 12:06:54.243
89.0, 783.9073400623165, 373.9825157690793, -163.686071310658, -131.8632625876926, -0.03200000151991844, 0.288000013679266, 0.9920000471174717, 0.0, 0.0, 0.0, 0.0, 0.0, 1.7632264142594233E9, 0.0, 2025-11-15 12:06:54.259
89.0, 1020.433572859969, 589.4568517161533, 25.373351249378175, 27.366717925760895, -0.03200000151991844, 0.288000013679266, 0.9920000471174717, 0.0, 0.0, 0.0, 0.0, 0.0, 1.7632264142594233E9, 0.0, 2025-11-15 12:06:54.259
90.0, 1244.0141419610009, 368.26794863678515, -132.55514407949522, -100.30224686162546, -0.03200000151991844, 0.288000013679266, 1.008000047877431, 0.0, 0.0, 0.0, 0.0, 0.0, 1.763226414260112E9, 0.0, 2025-11-15 12:06:54.260
90.0, 1247.4099711207673, 351.457098335959, -182.68476308556274, -139.0812695021741, -0.03200000151991844, 0.288000013679266, 1.008000047877431, 0.0, 0.0, 0.0, 0.0, 0.0, 1.763226414260112E9, 0.0, 2025-11-15 12:06:54.260
91.0, 1481.4566502477974, 557.2450933977962, -13.577706789132208, -14.194790281821042, -0.03200000151991844, 0.288000013679266, 1.008000047877431, 0.0, 0.0, 0.0, 0.0, 0.0, 1.763226414273713E9, 0.0, 2025-11-15 12:06:54.273
91.0, 1332.0214677182958, 444.11311973817647, -70.16987291863188, -46.35045010084286, -0.03200000151991844, 0.288000013679266, 1.008000047877431, 0.0, 0.0, 0.0, 0.0, 0.0, 1.763226414273713E9, 0.0, 2025-11-15 12:06:54.273
92.0, 1208.9750192761421, 326.80741772800684, -189.5512194042094, -155.06934181274846, -0.01600000075995922, 0.288000013679266, 1.008000047877431, 0.0, 0.0, 0.0, 0.0, 0.0, 1.7632264142894084E9, 0.0, 2025-11-15 12:06:54.289
92.0, 1379.9333260506392, 464.9331427915022, -89.24336269265041, -73.88733347458765, -0.01600000075995922, 0.288000013679266, 1.008000047877431, 0.0, 0.0, 0.0, 0.0, 0.0, 1.7632264142894084E9, 0.0, 2025-11-15 12:06:54.289
93.0, 1449.7796976231039, 534.6860168650746, -1.8007618286646903, 11.374905715230852, -0.01600000075995922, 0.288000013679266, 1.008000047877431, 0.0, 0.0, 0.0, 0.0, 0.0, 1.7632264142901297E9, 0.0, 2025-11-15 12:06:54.290
93.0, 1690.9976349151693, 331.8675023680553, -178.42127713607624, -128.5646708267741, -0.01600000075995922, 0.288000013679266, 1.008000047877431, 0.0, 0.0, 0.0, 0.0, 0.0, 1.7632264142901297E9, 0.0, 2025-11-15 12:06:54.290
94.0, 1776.861997997854, 392.113550754264, -154.5008770194836, -136.9757058271207, -0.01600000075995922, 0.288000013679266, 1.008000047877431, 0.0, 0.0, 0.0, 0.0, 0.0, 1.7632264143037183E9, 0.0, 2025-11-15 12:06:54.303
94.0, 2004.565806800034, 598.9000991042703, 31.839638272766024, 30.246440891642123, -0.01600000075995922, 0.288000013679266, 1.008000047877431, 0.0, 0.0, 0.0, 0.0, 0.0, 1.7632264143037183E9, 0.0, 2025-11-15 12:06:54.303
95.0, 2217.5213201269507, 362.22801020834595, -145.33438222808763, -127.94010753417388, -0.01600000075995922, 0.288000013679266, 1.008000047877431, 0.0, 0.0, 0.0, 0.0, 0.0, 1.7632264143194025E9, 0.0, 2025-11-15 12:06:54.319
95.0, 2211.200889201835, 342.1896262457594, -192.10183117398992, -156.9467715905048, -0.01600000075995922, 0.288000013679266, 1.008000047877431, 0.0, 0.0, 0.0, 0.0, 0.0, 1.7632264143194025E9, 0.0, 2025-11-15 12:06:54.319
96.0, 1969.5678230146877, 559.9415612658486, -5.82863408094272, -6.827187369111925, -0.01600000075995922, 0.288000013679266, 1.008000047877431, 0.0, 0.0, 0.0, 0.0, 0.0, 1.7632264143201072E9, 0.0, 2025-11-15 12:06:54.320
96.0, 1809.7170191085897, 443.6905110431835, -69.17131963046268, -44.52911882242188, -0.01600000075995922, 0.288000013679266, 1.008000047877431, 0.0, 0.0, 0.0, 0.0, 0.0, 1.7632264143201072E9, 0.0, 2025-11-15 12:06:54.320
97.0, 1701.6002512895502, 336.10480901785195, -176.53636755840853, -141.27659077616408, -0.01600000075995922, 0.288000013679266, 1.008000047877431, 0.0, 0.0, 0.0, 0.0, 0.0, 1.7632264143337898E9, 0.0, 2025-11-15 12:06:54.333
97.0, 1880.3712090714835, 480.3789296085015, -81.26989598711953, -70.39800681592897, -0.01600000075995922, 0.288000013679266, 1.008000047877431, 0.0, 0.0, 0.0, 0.0, 0.0, 1.7632264143337898E9, 0.0, 2025-11-15 12:06:54.333
98.0, 1940.7369342562743, 540.4604223966599, 9.362839539069682, 18.577953029889613, -0.01600000075995922, 0.288000013679266, 1.008000047877431, 0.0, 0.0, 0.0, 0.0, 0.0, 1.7632264143494196E9, 0.0, 2025-11-15 12:06:54.349
98.0, 1702.325791880954, 327.1926274234429, -179.38617132464424, -137.66384741896763, -0.01600000075995922, 0.288000013679266, 1.008000047877431, 0.0, 0.0, 0.0, 0.0, 0.0, 1.7632264143494196E9, 0.0, 2025-11-15 12:06:54.349
99.0, 1773.5596663369797, 390.5203533731401, -154.54575581895187, -126.67602134915069, -0.01600000075995922, 0.288000013679266, 1.008000047877431, 0.0, 0.0, 0.0, 0.0, 0.0, 1.7632264143501306E9, 0.0, 2025-11-15 12:06:54.350
99.0, 1996.4913627956994, 583.1401606909931, 20.466602507513016, 10.353913027327508, -0.01600000075995922, 0.288000013679266, 1.008000047877431, 0.0, 0.0, 0.0, 0.0, 0.0, 1.7632264143501306E9, 0.0, 2025-11-15 12:06:54.350
100.0, 2232.701574047096, 373.42527067568153, -128.3028778298758, -84.55352814821526, -0.01600000075995922, 0.288000013679266, 1.008000047877431, 0.0, 0.0, 0.0, 0.0, 0.0, 1.7632264143643925E9, 0.0, 2025-11-15 12:06:54.364
100.0, 2208.0930323386565, 345.4321195073426, -178.48859533527866, -146.70692551182583, -0.01600000075995922, 0.288000013679266, 1.008000047877431, 0.0, 0.0, 0.0, 0.0, 0.0, 1.7632264143643925E9, 0.0, 2025-11-15 12:06:54.364
0.0, 25.6239245464094, 79.06522496324033, -4.603816845454276, -5.475213535130024, -0.01600000075995922, 0.288000013679266, 1.008000047877431, 0.0, 0.0, 0.0, 0.0, 0.0, 1.7632264143650887E9, 0.0, 2025-11-15 12:06:54.365
1.0, -143.943139444571, -46.63655244745314, -67.94650239497423, -52.27632158063352, -0.01600000075995922, 0.288000013679266, 1.008000047877431, 0.0, 0.0, 0.0, 0.0, 0.0, 1.7632264143788452E9, 0.0, 2025-11-15 12:06:54.378
1.0, -238.55886842356995, -149.41274312976748, -178.07533639017493, -146.78359346091747, -0.01600000075995922, 0.288000013679266, 1.008000047877431, 0.0, 0.0, 0.0, 0.0, 0.0, 1.7632264143788452E9, 0.0, 2025-11-15 12:06:54.378
2.0, -80.02450930187479, -12.962493246421218, -76.58567129261792, -67.54633309971541, -0.03200000151991844, 0.288000013679266, 1.008000047877431, 0.0, 0.0, 0.0, 0.0, 0.0, 1.7632264143943915E9, 0.0, 2025-11-15 12:06:54.394
2.0, -46.51126579893753, 38.22925734706223, 1.1967679858207703, 5.164801838807762, -0.03200000151991844, 0.288000013679266, 1.008000047877431, 0.0, 0.0, 0.0, 0.0, 0.0, 1.7632264143943915E9, 0.0, 2025-11-15 12:06:54.394
3.0, -262.0005613458343, -164.6378758493811, -182.62679463624954, -151.94465539976954, -0.03200000151991844, 0.288000013679266, 1.008000047877431, 0.0, 0.0, 0.0, 0.0, 0.0, 1.7632264143950975E9, 0.0, 2025-11-15 12:06:54.395
3.0, -177.83411284303293, -97.79464394133538, -147.5540128517896, -117.26830301061273, -0.03200000151991844, 0.288000013679266, 1.008000047877431, 0.0, 0.0, 0.0, 0.0, 0.0, 1.7632264143950975E9, 0.0, 2025-11-15 12:06:54.395
4.0, 39.71960747940466, 107.74277782347053, 34.69879178889096, 36.62110036611557, -0.03200000151991844, 0.288000013679266, 1.008000047877431, 0.0, 0.0, 0.0, 0.0, 0.0, 1.7632264144087684E9, 0.0, 2025-11-15 12:06:54.408
4.0, 273.03887606505305, -109.55288940202445, -127.14537879358977, -92.40918800514191, -0.03200000151991844, 0.288000013679266, 1.008000047877431, 0.0, 0.0, 0.0, 0.0, 0.0, 1.7632264144087684E9, 0.0, 2025-11-15 12:06:54.408
5.0, 256.239245464094, -141.1400844277814, -177.21889930032194, -142.17229681555182, -0.03200000151991844, 0.288000013679266, 1.008000047877431, 0.0, 0.0, 0.0, 0.0, 0.0, 1.7632264144244463E9, 0.0, 2025-11-15 12:06:54.424
5.0, 495.798537125811, 60.64247778151184, -15.887095011770725, -16.006771810352802, -0.03200000151991844, 0.288000013679266, 1.008000047877431, 0.0, 0.0, 0.0, 0.0, 0.0, 1.7632264144244463E9, 0.0, 2025-11-15 12:06:54.424
6.0, 356.8649936718866, -39.239030335098505, -59.57286639418453, -38.449911444447935, -0.03200000151991844, 0.288000013679266, 1.008000047877431, 0.0, 0.0, 0.0, 0.0, 0.0, 1.763226414425145E9, 0.0, 2025-11-15 12:06:54.425
6.0, 239.98564025666565, -152.25132719613612, -176.92344720382243, -147.8120659487322, -0.03200000151991844, 0.288000013679266, 1.008000047877431, 0.0, 0.0, 0.0, 0.0, 0.0, 1.763226414425145E9, 0.0, 2025-11-15 12:06:54.425
7.0, 412.95601320732385, -9.64894188567996, -81.9299883292988, -82.03470552805811, -0.03200000151991844, 0.288000013679266, 1.008000047877431, 0.0, 0.0, 0.0, 0.0, 0.0, 1.7632264144387443E9, 0.0, 2025-11-15 12:06:54.438
7.0, 453.41799082793295, 50.4325509024784, 5.5350519344210625, 13.063470545224845, -0.03200000151991844, 0.288000013679266, 1.008000047877431, 0.0, 0.0, 0.0, 0.0, 0.0, 1.7632264144387443E9, 0.0, 2025-11-15 12:06:54.438
8.0, 227.13160410895944, -149.59599822759628, -161.65343568474054, -128.01677548326552, -0.03200000151991844, 0.288000013679266, 1.008000047877431, 0.0, 0.0, 0.0, 0.0, 0.0, 1.7632264144544566E9, 0.0, 2025-11-15 12:06:54.454
8.0, 316.79944544658065, -93.71441308967769, -139.733882044442, -118.7979220924899, -0.03200000151991844, 0.288000013679266, 1.008000047877431, 0.0, 0.0, 0.0, 0.0, 0.0, 1.7632264144544566E9, 0.0, 2025-11-15 12:06:54.454
9.0, 535.3891180567443, 108.9021468097344, 42.17111190035939, 28.5690957615152, -0.03200000151991844, 0.288000013679266, 1.008000047877431, 0.0, 0.0, 0.0, 0.0, 0.0, 1.7632264144551024E9, 0.0, 2025-11-15 12:06:54.455
9.0, 759.0968437562697, -108.24766431748867, -120.9109655674547, -97.49545194488019, -0.03200000151991844, 0.288000013679266, 1.008000047877431, 0.0, 0.0, 0.0, 0.0, 0.0, 1.7632264144551024E9, 0.0, 2025-11-15 12:06:54.455
10.0, 757.765439372044, -132.654251428321, -171.80726406443864, -132.07456693518907, -0.03200000151991844, 0.288000013679266, 1.008000047877431, 0.0, 0.0, 0.0, 0.0, 0.0, 1.7632264144687064E9, 0.0, 2025-11-15 12:06:54.468
10.0, 984.2537806886248, 63.98594834189862, -16.175067308358848, -24.96757210418582, -0.03200000151991844, 0.288000013679266, 1.008000047877431, 0.0, 0.0, 0.0, 0.0, 0.0, 1.7632264144687064E9, 0.0, 2025-11-15 12:06:54.468
11.0, 843.9140348513611, -35.95165827404708, -59.48310879524797, -49.44147741422057, -0.03200000151991844, 0.288000013679266, 1.008000047877431, 0.0, 0.0, 0.0, 0.0, 0.0, 1.7632264144844139E9, 0.0, 2025-11-15 12:06:54.484
11.0, 721.862399797421, -157.56198513321579, -184.33592891599983, -146.19268926791847, -0.03200000151991844, 0.288000013679266, 1.008000047877431, 0.0, 0.0, 0.0, 0.0, 0.0, 1.7632264144844139E9, 0.0, 2025-11-15 12:06:54.484
12.0, 896.2015761318617, -18.10859558545053, -82.89862241782248, -73.14870323333889, -0.03200000151991844, 0.288000013679266, 1.008000047877431, 0.0, 0.0, 0.0, 0.0, 0.0, 1.7632264144850943E9, 0.0, 2025-11-15 12:06:54.485
12.0, 959.4171050828882, 64.70774903334677, 22.95176602806896, 24.477645209990442, -0.03200000151991844, 0.288000013679266, 1.008000047877431, 0.0, 0.0, 0.0, 0.0, 0.0, 1.7632264144850943E9, 0.0, 2025-11-15 12:06:54.485
13.0, 722.3972054910846, -154.82811826560646, -162.55101167410612, -124.59476702380925, -0.03200000151991844, 0.288000013679266, 1.008000047877431, 0.0, 0.0, 0.0, 0.0, 0.0, 1.763226414498711E9, 0.0, 2025-11-15 12:06:54.498
13.0, 804.6413454166614, -91.71730651333928, -137.08603287581354, -111.26202368177474, -0.03200000151991844, 0.288000013679266, 1.008000047877431, 0.0, 0.0, 0.0, 0.0, 0.0, 1.763226414498711E9, 0.0, 2025-11-15 12:06:54.498
14.0, 1021.8173358435743, 108.10554811917245, 42.3917659977451, 38.70048474147916, -0.03200000151991844, 0.288000013679266, 1.008000047877431, 0.0, 0.0, 0.0, 0.0, 0.0, 1.7632264145144196E9, 0.0, 2025-11-15 12:06:54.514
14.0, 1235.4048922630027, -116.9803307140246, -126.06454770639539, -91.1189225204289, -0.03200000151991844, 0.288000013679266, 1.008000047877431, 0.0, 0.0, 0.0, 0.0, 0.0, 1.7632264145144196E9, 0.0, 2025-11-15 12:06:54.514
15.0, 1232.6972046950832, -136.74944187980145, -171.26123867090791, -142.27701401431113, -0.03200000151991844, 0.288000013679266, 1.008000047877431, 0.0, 0.0, 0.0, 0.0, 0.0, 1.763226414515129E9, 0.0, 2025-11-15 12:06:54.515
15.0, 997.6052235304378, 76.09200449846685, -1.1556290863081813, 0.8676567897200584, -0.03200000151991844, 0.288000013679266, 1.008000047877431, 0.0, 0.0, 0.0, 0.0, 0.0, 1.763226414515129E9, 0.0, 2025-11-15 12:06:54.515
16.0, 842.2535192710347, -35.4991303794086, -46.26630235183984, -25.199445901438594, -0.03200000151991844, 0.288000013679266, 1.008000047877431, 0.0, 0.0, 0.0, 0.0, 0.0, 1.7632264145287988E9, 0.0, 2025-11-15 12:06:54.528
16.0, 718.111280141864, -156.54473234526813, -181.1644937535748, -150.0373064223677, -0.03200000151991844, 0.288000013679266, 1.008000047877431, 0.0, 0.0, 0.0, 0.0, 0.0, 1.7632264145287988E9, 0.0, 2025-11-15 12:06:54.528
17.0, 898.9765818989836, -11.556290863081813, -80.68460164405406, -72.05665244627744, -0.03200000151991844, 0.288000013679266, 1.008000047877431, 0.0, 0.0, 0.0, 0.0, 0.0, 1.7632264145444002E9, 0.0, 2025-11-15 12:06:54.544
17.0, 959.1889711855911, 68.02130039408803, 25.01619080360979, 28.59901496116072, -0.03200000151991844, 0.288000013679266, 1.008000047877431, 0.0, 0.0, 0.0, 0.0, 0.0, 1.7632264145444002E9, 0.0, 2025-11-15 12:06:54.544
18.0, 719.2257703286596, -147.70734874997288, -159.39827601145953, -123.27458233945072, -0.03200000151991844, 0.288000013679266, 1.008000047877431, 0.0, 0.0, 0.0, 0.0, 0.0, 1.7632264145451012E9, 0.0, 2025-11-15 12:06:54.545
18.0, 804.8881788137369, -92.1922738077119, -135.27218139730394, -116.4268255205825, -0.03200000151991844, 0.288000013679266, 1.008000047877431, 0.0, 0.0, 0.0, 0.0, 0.0, 1.7632264145451012E9, 0.0, 2025-11-15 12:06:54.545
19.0, 1029.5551888518967, 115.41705253254622, 42.54884179588407, 35.222377782687545, -0.03200000151991844, 0.288000013679266, 1.008000047877431, 0.0, 0.0, 0.0, 0.0, 0.0, 1.7632264145587316E9, 0.0, 2025-11-15 12:06:54.558
19.0, 1253.8201596448198, -111.39292018022388, -121.66268545854837, -90.55045772716403, -0.03200000151991844, 0.288000013679266, 1.008000047877431, 0.0, 0.0, 0.0, 0.0, 0.0, 1.7632264145587316E9, 0.0, 2025-11-15 12:06:54.558
20.0, 1229.6155271315947, -139.5431471467018, -167.1510886196047, -130.75064235087484, -0.03200000151991844, 0.288000013679266, 1.008000047877431, 0.0, 0.0, 0.0, 0.0, 0.0, 1.7632264145743883E9, 0.0, 2025-11-15 12:06:54.574
20.0, 996.4271550443955, 78.83335116598755, -5.63976913318038, -9.424547888338566, -0.03200000151991844, 0.288000013679266, 1.008000047877431, 0.0, 0.0, 0.0, 0.0, 0.0, 1.7632264145743883E9, 0.0, 2025-11-15 12:06:54.574
21.0, 858.4996446785517, -14.768864925019443, -43.73439008183777, -27.454605574719608, -0.03200000151991844, 0.3040000144392252, 1.008000047877431, 0.0, 0.0, 0.0, 0.0, 0.0, 1.763226414575111E9, 0.0, 2025-11-15 12:06:54.575
21.0, 722.2700488925911, -148.72460153792053, -178.69241988286376, -146.97058845870197, -0.03200000151991844, 0.3040000144392252, 1.008000047877431, 0.0, 0.0, 0.0, 0.0, 0.0, 1.763226414575111E9, 0.0, 2025-11-15 12:06:54.575
22.0, 906.1908489135094, 0.8526971898972988, -68.11105799302459, -67.33315880224109, -0.03200000151991844, 0.3040000144392252, 1.008000047877431, 0.0, 0.0, 0.0, 0.0, 0.0, 1.7632264145887728E9, 0.0, 2025-11-15 12:06:54.588
22.0, 978.6588903549127, 77.6291033802554, 32.039722920395434, 28.355921464040875, -0.03200000151991844, 0.3040000144392252, 1.008000047877431, 0.0, 0.0, 0.0, 0.0, 0.0, 1.7632264145887728E9, 0.0, 2025-11-15 12:06:54.588
23.0, 1219.5851154504344, -145.13055768050253, -165.99545953329653, -134.07915331143886, -0.03200000151991844, 0.3040000144392252, 1.008000047877431, 0.0, 0.0, 0.0, 0.0, 0.0, 1.7632264146044173E9, 0.0, 2025-11-15 12:06:54.604
23.0, 1289.4389668228105, -96.76617145352066, -147.50165425240993, -119.242970187217, -0.03200000151991844, 0.3040000144392252, 1.008000047877431, 0.0, 0.0, 0.0, 0.0, 0.0, 1.7632264146044173E9, 0.0, 2025-11-15 12:06:54.604
24.0, 1523.7997975461185, 115.89201982691884, 38.23673714697361, 25.39766059909016, -0.03200000151991844, 0.3040000144392252, 1.008000047877431, 0.0, 0.0, 0.0, 0.0, 0.0, 1.763226414605134E9, 0.0, 2025-11-15 12:06:54.605
24.0, 1759.2246298068203, -96.09672936145216, -112.93001906201243, -86.75071937218308, -0.03200000151991844, 0.3040000144392252, 1.008000047877431, 0.0, 0.0, 0.0, 0.0, 0.0, 1.763226414605134E9, 0.0, 2025-11-15 12:06:54.605
25.0, 1739.967884934973, -128.9480105722323, -167.30816441774368, -139.12427835166454, -0.03200000151991844, 0.3040000144392252, 1.008000047877431, 0.0, 0.0, 0.0, 0.0, 0.0, 1.7632264146187236E9, 0.0, 2025-11-15 12:06:54.618
25.0, 1968.9432597220875, 69.21432847995311, -10.976606369949877, -23.482831821776927, -0.03200000151991844, 0.3040000144392252, 1.008000047877431, 0.0, 0.0, 0.0, 0.0, 0.0, 1.7632264146187236E9, 0.0, 2025-11-15 12:06:54.618
26.0, 1838.5292083672248, -26.60938818473369, -55.61605224106461, -34.758630188181996, -0.03200000151991844, 0.3040000144392252, 1.008000047877431, 0.0, 0.0, 0.0, 0.0, 0.0, 1.7632264146344006E9, 0.0, 2025-11-15 12:06:54.634
26.0, 1702.9727945732884, -155.97626755200326, -187.04361648391932, -155.38910325895995, -0.03200000151991844, 0.3040000144392252, 1.008000047877431, 0.0, 0.0, 0.0, 0.0, 0.0, 1.7632264146344006E9, 0.0, 2025-11-15 12:06:54.634
27.0, 1871.6235830751248, -24.56366290897131, -94.2305192835629, -77.91707567684352, -0.03200000151991844, 0.3040000144392252, 1.008000047877431, 0.0, 0.0, 0.0, 0.0, 0.0, 1.763226414635087E9, 0.0, 2025-11-15 12:06:54.635
27.0, 1937.3560646963306, 51.97338968422264, -0.5983839929103851, -5.823024231009185, -0.03200000151991844, 0.3040000144392252, 1.008000047877431, 0.0, 0.0, 0.0, 0.0, 0.0, 1.763226414635087E9, 0.0, 2025-11-15 12:06:54.635
28.0, 2172.833255556412, -166.713520324789, -186.09742179512978, -147.52783355209976, -0.03200000151991844, 0.3040000144392252, 1.008000047877431, 0.0, 0.0, 0.0, 0.0, 0.0, 1.7632264146487312E9, 0.0, 2025-11-15 12:06:54.648
28.0, 2238.674194276333, -123.19604444038123, -177.10670230165124, -148.41418984159827, -0.03200000151991844, 0.3040000144392252, 1.008000047877431, 0.0, 0.0, 0.0, 0.0, 0.0, 1.7632264146487312E9, 0.0, 2025-11-15 12:06:54.648
29.0, 1998.2715551746078, 96.42584055755287, 22.050450138747692, 16.268564807251096, -0.03200000151991844, 0.3040000144392252, 1.008000047877431, 0.0, 0.0, 0.0, 0.0, 0.0, 1.7632264146644325E9, 0.0, 2025-11-15 12:06:54.664
29.0, 2223.041412461549, -126.52455540094525, -139.9171371422708, -110.89551348611712, -0.03200000151991844, 0.3040000144392252, 1.008000047877431, 0.0, 0.0, 0.0, 0.0, 0.0, 1.7632264146644325E9, 0.0, 2025-11-15 12:06:54.664
30.0, 2187.2879688851535, -163.4822467630729, -200.6905114222318, -151.52578660473228, -0.03200000151991844, 0.3040000144392252, 1.008000047877431, 0.0, 0.0, 0.0, 0.0, 0.0, 1.7632264146650915E9, 0.0, 2025-11-15 12:06:54.665
30.0, 1967.2266456424259, 67.2920199027285, -9.125355891883373, -8.407295100390911, -0.03200000151991844, 0.3040000144392252, 1.008000047877431, 0.0, 0.0, 0.0, 0.0, 0.0, 1.7632264146650915E9, 0.0, 2025-11-15 12:06:54.665
31.0, 1822.0212899628095, -47.22745664045215, -67.77820689696819, -42.64233929477632, -0.03200000151991844, 0.3040000144392252, 1.008000047877431, 0.0, 0.0, 0.0, 0.0, 0.0, 1.7632264146787517E9, 0.0, 2025-11-15 12:06:54.678
31.0, 1688.2076695482247, -170.150488384068, -193.07981501240283, -153.32093858346343, -0.03200000151991844, 0.3040000144392252, 1.008000047877431, 0.0, 0.0, 0.0, 0.0, 0.0, 1.7632264146787517E9, 0.0, 2025-11-15 12:06:54.678
32.0, 1858.4366958313622, -28.54665636178106, -97.05414375010878, -71.92949584778398, -0.03200000151991844, 0.3040000144392252, 1.008000047877431, 0.0, 0.0, 0.0, 0.0, 0.0, 1.7632264146943889E9, 0.0, 2025-11-15 12:06:54.694
32.0, 1953.0337253105827, 71.34607145469636, 26.003524391911924, 37.73933045286685, -0.03200000151991844, 0.3040000144392252, 1.008000047877431, 0.0, 0.0, 0.0, 0.0, 0.0, 1.7632264146943889E9, 0.0, 2025-11-15 12:06:54.694
33.0, 1709.8579503917135, -154.39802977070212, -171.13034217245877, -132.48969583027065, -0.03200000151991844, 0.3040000144392252, 1.008000047877431, 0.0, 0.0, 0.0, 0.0, 0.0, 1.763226414695086E9, 0.0, 2025-11-15 12:06:54.695
33.0, 1768.7464150940068, -106.14958044234663, -155.42276235856116, -113.92109255027026, -0.03200000151991844, 0.3040000144392252, 1.008000047877431, 0.0, 0.0, 0.0, 0.0, 0.0, 1.763226414695086E9, 0.0, 2025-11-15 12:06:54.695
34.0, 2008.4777421536855, 107.57822222542018, 32.813882211223245, 37.16338585969061, -0.03200000151991844, 0.3040000144392252, 1.008000047877431, 0.0, 0.0, 0.0, 0.0, 0.0, 1.763226414708749E9, 0.0, 2025-11-15 12:06:54.708
34.0, 2218.92752251029, -115.0916812364012, -133.9557366129011, -97.75724494177848, -0.03200000151991844, 0.3040000144392252, 1.008000047877431, 0.0, 0.0, 0.0, 0.0, 0.0, 1.763226414708749E9, 0.0, 2025-11-15 12:06:54.708
35.0, 2205.205829572864, -147.15758345648646, -182.69411283545196, -139.63290474563837, -0.03200000151991844, 0.3040000144392252, 1.008000047877431, 0.0, 0.0, 0.0, 0.0, 0.0, 1.763226414724393E9, 0.0, 2025-11-15 12:06:54.724
35.0, 1975.1215744488873, 74.71946121472865, -5.501392834819853, 6.365309724584222, -0.03200000151991844, 0.3040000144392252, 1.008000047877431, 0.0, 0.0, 0.0, 0.0, 0.0, 1.763226414724393E9, 0.0, 2025-11-15 12:06:54.724
36.0, 1826.6138871083967, -27.151673678308725, -54.475382754579186, -26.800123082473874, -0.03200000151991844, 0.3040000144392252, 1.008000047877431, 0.0, 0.0, 0.0, 0.0, 0.0, 1.7632264147250931E9, 0.0, 2025-11-15 12:06:54.725
36.0, 1700.0893317074515, -152.73003439046443, -177.1179220015183, -135.81446689087898, -0.03200000151991844, 0.3040000144392252, 1.008000047877431, 0.0, 0.0, 0.0, 0.0, 0.0, 1.7632264147250931E9, 0.0, 2025-11-15 12:06:54.725
37.0, 1850.4520094259642, -28.741131159476936, -98.83807602897286, -87.68569436110556, -0.03200000151991844, 0.3040000144392252, 1.008000047877431, 0.0, 0.0, 0.0, 0.0, 0.0, 1.763226414738721E9, 0.0, 2025-11-15 12:06:54.738
37.0, 1939.5513859703206, 56.573466629721224, 11.870442459359765, 18.12355518527329, -0.03200000151991844, 0.3040000144392252, 1.008000047877431, 0.0, 0.0, 0.0, 0.0, 0.0, 1.763226414738721E9, 0.0, 2025-11-15 12:06:54.738
38.0, 2173.7083921460435, -165.10162344388664, -186.7182451877743, -141.89180431887507, -0.03200000151991844, 0.3040000144392252, 1.008000047877431, 0.0, 0.0, 0.0, 0.0, 0.0, 1.763226414754406E9, 0.0, 2025-11-15 12:06:54.754
38.0, 2242.1410815352574, -121.26625606324524, -169.6343821901828, -130.75438225083053, -0.03200000151991844, 0.3040000144392252, 1.008000047877431, 0.0, 0.0, 0.0, 0.0, 0.0, 1.763226414754406E9, 0.0, 2025-11-15 12:06:54.754
39.0, 2008.941489748191, 113.92109255027026, 37.170865659601986, 35.34579448122531, -0.03200000151991844, 0.3040000144392252, 1.008000047877431, 0.0, 0.0, 0.0, 0.0, 0.0, 1.7632264147551184E9, 0.0, 2025-11-15 12:06:54.755
39.0, 2216.552686038427, -115.98551732581109, -129.7296496629715, -84.75361279584467, -0.03200000151991844, 0.3040000144392252, 1.008000047877431, 0.0, 0.0, 0.0, 0.0, 0.0, 1.7632264147551184E9, 0.0, 2025-11-15 12:06:54.755
40.0, 2199.236949243583, -153.0329662868753, -188.6405537649989, -144.89868388324976, -0.03200000151991844, 0.3040000144392252, 1.008000047877431, 0.0, 0.0, 0.0, 0.0, 0.0, 1.763226414768789E9, 0.0, 2025-11-15 12:06:54.768
40.0, 1959.7505856310017, 59.44570979569107, -18.774297777563334, -13.067210445180535, -0.03200000151991844, 0.3040000144392252, 1.008000047877431, 0.0, 0.0, 0.0, 0.0, 0.0, 1.763226414768789E9, 0.0, 2025-11-15 12:06:54.768
41.0, 1827.2833292004652, -32.29029621742666, -58.503255006857216, -24.91147360485047, -0.03200000151991844, 0.3040000144392252, 1.008000047877431, 0.0, 0.0, 0.0, 0.0, 0.0, 1.763226414784392E9, 0.0, 2025-11-15 12:06:54.784
41.0, 1685.5336410799064, -167.31938411761075, -195.1704190876335, -150.30657921917737, -0.03200000151991844, 0.3040000144392252, 1.008000047877431, 0.0, 0.0, 0.0, 0.0, 0.0, 1.763226414784392E9, 0.0, 2025-11-15 12:06:54.784
42.0, 1871.6946411742829, -23.879261217080057, -96.99056545086205, -84.82467089500278, -0.03200000151991844, 0.3040000144392252, 1.008000047877431, 0.0, 0.0, 0.0, 0.0, 0.0, 1.763226414785088E9, 0.0, 2025-11-15 12:06:54.785
42.0, 1934.491301330272, 59.04554050043225, 4.667395144701004, 10.527818375267088, -0.03200000151991844, 0.3040000144392252, 1.008000047877431, 0.0, 0.0, 0.0, 0.0, 0.0, 1.763226414785088E9, 0.0, 2025-11-15 12:06:54.785
43.0, 2165.9892386374995, -169.0397380972281, -186.93141948524863, -147.79710634890944, -0.03200000151991844, 0.3040000144392252, 1.008000047877431, 0.0, 0.0, 0.0, 0.0, 0.0, 1.7632264147987185E9, 0.0, 2025-11-15 12:06:54.798
43.0, 2248.3380957618356, -111.59861467778683, -159.19258151389658, -133.34987282007933, -0.03200000151991844, 0.3040000144392252, 1.008000047877431, 0.0, 0.0, 0.0, 0.0, 0.0, 1.7632264147987185E9, 0.0, 2025-11-15 12:06:54.798
44.0, 2011.884791013319, 117.23464391101152, 44.112119977362454, 45.97085025534034, -0.03200000151991844, 0.3040000144392252, 1.008000047877431, 0.0, 0.0, 0.0, 0.0, 0.0, 1.7632264148144262E9, 0.0, 2025-11-15 12:06:54.814
44.0, 2202.9768491992727, 352.337844775524, -146.0318735698238, -109.88574049808085, -0.03200000151991844, 0.3040000144392252, 1.008000047877431, 0.0, 0.0, 0.0, 0.0, 0.0, 1.7632264148144262E9, 0.0, 2025-11-15 12:06:54.814
45.0, 2216.687322436832, 348.98315451527014, -180.84286235738546, -141.4766754237935, -0.03200000151991844, 0.3040000144392252, 1.008000047877431, 0.0, 0.0, 0.0, 0.0, 0.0, 1.7632264148151324E9, 0.0, 2025-11-15 12:06:54.815
45.0, 2432.801181276329, 538.4614458703436, -34.773589788004756, -21.75499804224819, -0.03200000151991844, 0.3040000144392252, 1.008000047877431, 0.0, 0.0, 0.0, 0.0, 0.0, 1.7632264148151324E9, 0.0, 2025-11-15 12:06:54.815
46.0, 2319.729046016, 458.1358746220358, -57.85999221447855, -30.5699422378093, -0.03200000151991844, 0.3040000144392252, 1.008000047877431, 0.0, 0.0, 0.0, 0.0, 0.0, 1.7632264148287091E9, 0.0, 2025-11-15 12:06:54.828
46.0, 2187.9536710772663, 329.70771014364436, -188.91356646176428, -146.26374736707658, -0.03200000151991844, 0.3040000144392252, 1.008000047877431, 0.0, 0.0, 0.0, 0.0, 0.0, 1.7632264148287091E9, 0.0, 2025-11-15 12:06:54.828
47.0, 2347.1649520909414, 464.1982524502091, -91.50039231590927, -80.50508644618094, -0.03200000151991844, 0.3040000144392252, 1.008000047877431, 0.0, 0.0, 0.0, 0.0, 0.0, 1.763226414844457E9, 0.0, 2025-11-15 12:06:54.844
47.0, 2423.7992420829833, 547.7363977604546, 12.595983050763607, 9.727479784749448, -0.03200000151991844, 0.3040000144392252, 1.008000047877431, 0.0, 0.0, 0.0, 0.0, 0.0, 1.763226414844457E9, 0.0, 2025-11-15 12:06:54.844
48.0, 2194.722889997065, 337.0266943569295, -168.46005360409617, -128.58524027653039, -0.03200000151991844, 0.3040000144392252, 1.008000047877431, 0.0, 0.0, 0.0, 0.0, 0.0, 1.7632264148451307E9, 0.0, 2025-11-15 12:06:54.845
48.0, 2259.8569876253605, 389.44513213587925, -149.59973812755197, -116.82325491588563, -0.03200000151991844, 0.3040000144392252, 1.008000047877431, 0.0, 0.0, 0.0, 0.0, 0.0, 1.7632264148451307E9, 0.0, 2025-11-15 12:06:54.845
49.0, 2488.989438210614, 592.7909725266509, 28.60275486111641, 27.865994569845498, -0.03200000151991844, 0.3040000144392252, 1.008000047877431, 0.0, 0.0, 0.0, 0.0, 0.0, 1.7632264148587737E9, 0.0, 2025-11-15 12:06:54.858
49.0, 2718.8605190371163, 376.8603687849827, -128.42068467848003, -96.0817697616294, -0.03200000151991844, 0.3040000144392252, 1.008000047877431, 0.0, 0.0, 0.0, 0.0, 0.0, 1.7632264148587737E9, 0.0, 2025-11-15 12:06:54.858
50.0, 2700.5163097544573, 342.86467818776146, -177.712566094473, -142.0713195167482, -0.03200000151991844, 0.3040000144392252, 0.9920000471174717, 0.0, 0.0, 0.0, 0.0, 0.0, 1.7632264148744438E9, 0.0, 2025-11-15 12:06:54.874
50.0, 2456.49718739558, 561.3571133990772, -9.757398984394968, -14.357475929893553, -0.03200000151991844, 0.3040000144392252, 0.9920000471174717, 0.0, 0.0, 0.0, 0.0, 0.0, 1.7632264148744438E9, 0.0, 2025-11-15 12:06:54.874
51.0, 2329.8454753961414, 471.6930119614117, -40.60783371888101, -26.61312808468938, -0.03200000151991844, 0.3040000144392252, 0.9920000471174717, 0.0, 0.0, 0.0, 0.0, 0.0, 1.763226414875126E9, 0.0, 2025-11-15 12:06:54.875
51.0, 2180.3167953677475, 324.284855207894, -191.8269485272467, -146.813512660563, -0.03200000151991844, 0.3040000144392252, 0.9920000471174717, 0.0, 0.0, 0.0, 0.0, 0.0, 1.763226414875126E9, 0.0, 2025-11-15 12:06:54.875
52.0, 2338.873593889177, 443.0154591011815, -113.47230455558747, -93.1908270958811, -0.03200000151991844, 0.3040000144392252, 0.9920000471174717, 0.0, 0.0, 0.0, 0.0, 0.0, 1.76322641488877E9, 0.0, 2025-11-15 12:06:54.888
52.0, 2432.42719128076, 545.9861245811917, 10.804570971988142, 23.35567522328347, -0.03200000151991844, 0.3040000144392252, 0.9920000471174717, 0.0, 0.0, 0.0, 0.0, 0.0, 1.76322641488877E9, 0.0, 2025-11-15 12:06:54.888
53.0, 2672.0781104913913, 321.82774093700573, -184.37332791555673, -141.46171582397074, -0.03200000151991844, 0.3040000144392252, 0.9920000471174717, 0.0, 0.0, 0.0, 0.0, 0.0, 1.7632264149044669E9, 0.0, 2025-11-15 12:06:54.904
53.0, 2759.1392415598966, 388.2109651505016, -154.79445916600525, -120.01338957808912, -0.03200000151991844, 0.3040000144392252, 0.9920000471174717, 0.0, 0.0, 0.0, 0.0, 0.0, 1.7632264149044669E9, 0.0, 2025-11-15 12:06:54.904
54.0, 2999.599849110935, 610.7649317136966, 43.11730658914894, 39.280169234611094, -0.03200000151991844, 0.3040000144392252, 0.9920000471174717, 0.0, 0.0, 0.0, 0.0, 0.0, 1.7632264149051588E9, 0.0, 2025-11-15 12:06:54.905
54.0, 3198.5905760033056, 855.5058547640219, -146.1029316689819, -120.56315487157553, -0.03200000151991844, 0.3040000144392252, 0.9920000471174717, 0.0, 0.0, 0.0, 0.0, 0.0, 1.7632264149051588E9, 0.0, 2025-11-15 12:06:54.905
55.0, 3175.044165882282, 826.4543119082227, -193.33412820938975, -157.28897243645042, -0.03200000151991844, 0.3040000144392252, 0.9920000471174717, 0.0, 0.0, 0.0, 0.0, 0.0, 1.7632264149187407E9, 0.0, 2025-11-15 12:06:54.918
55.0, 2940.898379406426, 1039.8305639801547, -15.70010001398623, -15.513105016201735, -0.03200000151991844, 0.3040000144392252, 0.9920000471174717, 0.0, 0.0, 0.0, 0.0, 0.0, 1.7632264149187407E9, 0.0, 2025-11-15 12:06:54.918
56.0, 2806.4078370998614, 949.4783209506422, -57.60193911753595, -44.69928427040577, -0.03200000151991844, 0.3040000144392252, 0.9920000471174717, 0.0, 0.0, 0.0, 0.0, 0.0, 1.7632264149344316E9, 0.0, 2025-11-15 12:06:54.934
56.0, 2666.8908692528494, 808.5401911204681, -194.88618669100106, -157.64426293224096, -0.03200000151991844, 0.3040000144392252, 0.9920000471174717, 0.0, 0.0, 0.0, 0.0, 0.0, 1.7632264149344316E9, 0.0, 2025-11-15 12:06:54.934
57.0, 2817.496640468482, 923.3027611607686, -126.47219680156559, -103.09408217854798, -0.03200000151991844, 0.3040000144392252, 0.9920000471174717, 0.0, 0.0, 0.0, 0.0, 0.0, 1.7632264149351296E9, 0.0, 2025-11-15 12:06:54.935
57.0, 2915.425920808222, 1026.946608632803, -6.772958819754422, -9.828457083553076, -0.03200000151991844, 0.3040000144392252, 0.9920000471174717, 0.0, 0.0, 0.0, 0.0, 0.0, 1.7632264149351296E9, 0.0, 2025-11-15 12:06:54.935
58.0, 3157.7807876868173, 811.217959488742, -187.18573268223554, -153.37703708279878, -0.03200000151991844, 0.3040000144392252, 0.9920000471174717, 0.0, 0.0, 0.0, 0.0, 0.0, 1.7632264149487393E9, 0.0, 2025-11-15 12:06:54.948
58.0, 3224.624019594863, 861.3400986948982, -167.36800281703472, -152.93572888802737, -0.03200000151991844, 0.3040000144392252, 0.9920000471174717, 0.0, 0.0, 0.0, 0.0, 0.0, 1.7632264149487393E9, 0.0, 2025-11-15 12:06:54.948
59.0, 3464.7106371503323, 1081.7810217831284, 31.549796026200056, 14.615529026836157, -0.03200000151991844, 0.3040000144392252, 0.9920000471174717, 0.0, 0.0, 0.0, 0.0, 0.0, 1.763226414964184E9, 0.0, 2025-11-15 12:06:54.964
59.0, 3676.992968485225, 853.5237077875063, -138.83630605507642, -113.73409755248576, -0.03200000151991844, 0.3040000144392252, 0.9920000471174717, 0.0, 0.0, 0.0, 0.0, 0.0, 1.763226414964184E9, 0.0, 2025-11-15 12:06:54.964
60.0, 3683.5116141079925, 834.0799679178745, -179.50023827329278, -140.41828373633325, -0.03200000151991844, 0.3040000144392252, 0.9920000471174717, 0.0, 0.0, 0.0, 0.0, 0.0, 1.7632264149795053E9, 0.0, 2025-11-15 12:06:54.979
60.0, 3916.7542147445492, 1035.4212219323963, -21.68020004313439, -25.655713696032763, -0.03200000151991844, 0.3040000144392252, 0.9920000471174717, 0.0, 0.0, 0.0, 0.0, 0.0, 1.7632264149795053E9, 0.0, 2025-11-15 12:06:54.979
61.0, 3783.718493520748, 944.9867011038586, -58.6565909050405, -47.03672174271196, -0.03200000151991844, 0.3040000144392252, 0.9920000471174717, 0.0, 0.0, 0.0, 0.0, 0.0, 1.763226414980143E9, 0.0, 2025-11-15 12:06:54.980
61.0, 3659.879186287988, 814.112642054446, -194.89366649091244, -159.80218520667404, -0.03200000151991844, 0.3040000144392252, 0.9920000471174717, 0.0, 0.0, 0.0, 0.0, 0.0, 1.763226414980143E9, 0.0, 2025-11-15 12:06:54.980
62.0, 3809.830475011375, 942.6567434314638, -102.09178899042308, -89.86979593522847, -0.03200000151991844, 0.3040000144392252, 0.9920000471174717, 0.0, 0.0, 0.0, 0.0, 0.0, 1.763226414994472E9, 0.0, 2025-11-15 12:06:54.994
62.0, 3912.6029257937334, 1046.8054773975164, 13.048510945402086, 16.86320890020579, -0.03200000151991844, 0.3040000144392252, 0.9920000471174717, 0.0, 0.0, 0.0, 0.0, 0.0, 1.763226414994472E9, 0.0, 2025-11-15 12:06:54.994
63.0, 3667.646958495956, 832.0305027421564, -162.45377427525818, -127.29497479181737, -0.03200000151991844, 0.3040000144392252, 0.9920000471174717, 0.0, 0.0, 0.0, 0.0, 0.0, 1.7632264149951427E9, 0.0, 2025-11-15 12:06:54.995
63.0, 3733.5888745146804, 880.6903410656378, -147.50913405232131, -115.34599443338811, -0.03200000151991844, 0.3040000144392252, 0.9920000471174717, 0.0, 0.0, 0.0, 0.0, 0.0, 1.7632264149951427E9, 0.0, 2025-11-15 12:06:54.995
64.0, 3958.992644844111, 1087.9144577104598, 31.867687522433698, 23.632427820004523, -0.03200000151991844, 0.3040000144392252, 0.9920000471174717, 0.0, 0.0, 0.0, 0.0, 0.0, 1.7632264150087297E9, 0.0, 2025-11-15 12:06:55.008
64.0, 4196.466942280531, 875.0243926327676, -116.0939744245261, -84.80597139522433, -0.03200000151991844, 0.3040000144392252, 0.9920000471174717, 0.0, 0.0, 0.0, 0.0, 0.0, 1.7632264150087297E9, 0.0, 2025-11-15 12:06:55.008
65.0, 4173.42167875357, 835.931218395941, -172.76093855313957, -142.12741801608354, -0.03200000151991844, 0.3040000144392252, 0.9920000471174717, 0.0, 0.0, 0.0, 0.0, 0.0, 1.763226415024446E9, 0.0, 2025-11-15 12:06:55.024
65.0, 3929.611990792211, 1052.430286930874, -7.764032308012247, -10.385702176950872, -0.03200000151991844, 0.3040000144392252, 0.9920000471174717, 0.0, 0.0, 0.0, 0.0, 0.0, 1.763226415024446E9, 0.0, 2025-11-15 12:06:55.024
66.0, 3794.7362387902103, 955.8174513755366, -51.14687179401517, -36.73329736478627, -0.03200000151991844, 0.3040000144392252, 0.9920000471174717, 0.0, 0.0, 0.0, 0.0, 0.0, 1.7632264150251365E9, 0.0, 2025-11-15 12:06:55.025
66.0, 3676.1215717955492, 830.5083634601906, -171.24253917112947, -138.38377816043794, -0.03200000151991844, 0.3040000144392252, 0.9920000471174717, 0.0, 0.0, 0.0, 0.0, 0.0, 1.7632264150251365E9, 0.0, 2025-11-15 12:06:55.025
67.0, 3818.2527297115885, 943.3748042229563, -100.81274320557714, -84.70125419646502, -0.03200000151991844, 0.3040000144392252, 0.9920000471174717, 0.0, 0.0, 0.0, 0.0, 0.0, 1.7632264150388358E9, 0.0, 2025-11-15 12:06:55.038
67.0, 3911.1555845108815, 1048.4061545785517, 16.765971501357853, 18.759338177740574, -0.03200000151991844, 0.3040000144392252, 0.9920000471174717, 0.0, 0.0, 0.0, 0.0, 0.0, 1.7632264150388358E9, 0.0, 2025-11-15 12:06:55.038
68.0, 4141.348296733573, 823.7503642402589, -175.92863381560892, -139.5506269466132, -0.03200000151991844, 0.3040000144392252, 0.9920000471174717, 0.0, 0.0, 0.0, 0.0, 0.0, 1.763226415054441E9, 0.0, 2025-11-15 12:06:55.054
68.0, 4206.751667158678, 864.201122161001, -165.77480543591082, -142.61360501032323, -0.03200000151991844, 0.3040000144392252, 0.9920000471174717, 0.0, 0.0, 0.0, 0.0, 0.0, 1.763226415054441E9, 0.0, 2025-11-15 12:06:55.054
69.0, 3967.100747948047, 1083.9539036573842, 28.071689067408442, 25.966125392355025, -0.03200000151991844, 0.3040000144392252, 0.9920000471174717, 0.0, 0.0, 0.0, 0.0, 0.0, 1.763226415055127E9, 0.0, 2025-11-15 12:06:55.055
69.0, 4196.0742527851835, 868.4833076102659, -126.1730048051104, -92.10625610873103, -0.03200000151991844, 0.3040000144392252, 0.9920000471174717, 0.0, 0.0, 0.0, 0.0, 0.0, 1.763226415055127E9, 0.0, 2025-11-15 12:06:55.055
70.0, 4150.974799219519, 825.9269860144705, -187.09597508329898, -152.29994589556009, -0.03200000151991844, 0.3040000144392252, 0.9920000471174717, 0.0, 0.0, 0.0, 0.0, 0.0, 1.7632264150687857E9, 0.0, 2025-11-15 12:06:55.068
70.0, 3913.3770850845613, 1038.5776974949986, -23.176160025410354, -14.424794129095972, -0.03200000151991844, 0.3040000144392252, 0.9920000471174717, 0.0, 0.0, 0.0, 0.0, 0.0, 1.7632264150687857E9, 0.0, 2025-11-15 12:06:55.068
71.0, 3809.9052730104886, 968.0618838304654, -44.2056174762547, -34.68757208902389, -0.03200000151991844, 0.3040000144392252, 0.9920000471174717, 0.0, 0.0, 0.0, 0.0, 0.0, 1.7632264150844905E9, 0.0, 2025-11-15 12:06:55.084
71.0, 3644.463318670634, 808.2335193241015, -202.48192350100726, -175.46488622110337, -0.03200000151991844, 0.3040000144392252, 0.9920000471174717, 0.0, 0.0, 0.0, 0.0, 0.0, 1.7632264150844905E9, 0.0, 2025-11-15 12:06:55.084
72.0, 3811.274076394271, 947.8851235695183, -95.07947657350451, -82.84252391848713, -0.03200000151991844, 0.3040000144392252, 0.9920000471174717, 0.0, 0.0, 0.0, 0.0, 0.0, 1.763226415085152E9, 0.0, 2025-11-15 12:06:55.085
72.0, 3910.4936222187243, 1048.4472934780642, 17.532650992274284, 23.101362026296556, -0.03200000151991844, 0.3040000144392252, 0.9920000471174717, 0.0, 0.0, 0.0, 0.0, 0.0, 1.763226415085152E9, 0.0, 2025-11-15 12:06:55.085
73.0, 4137.350343680941, 815.0962357427925, -179.7882105698809, -140.0667331404984, -0.03200000151991844, 0.3040000144392252, 0.9920000471174717, 0.0, 0.0, 0.0, 0.0, 0.0, 1.7632264150987558E9, 0.0, 2025-11-15 12:06:55.098
73.0, 4208.617877236567, 865.1959355492145, -160.5202459981665, -128.12149268202484, -0.03200000151991844, 0.3040000144392252, 0.9920000471174717, 0.0, 0.0, 0.0, 0.0, 0.0, 1.7632264150987558E9, 0.0, 2025-11-15 12:06:55.098
74.0, 3966.1059345598333, 1089.8143268879503, 34.13406689558178, 32.07338201999664, -0.03200000151991844, 0.3040000144392252, 0.9920000471174717, 0.0, 0.0, 0.0, 0.0, 0.0, 1.763226415114422E9, 0.0, 2025-11-15 12:06:55.114
74.0, 4179.248442884535, 859.3803911181167, -135.38437839597464, -95.3038705708459, -0.03200000151991844, 0.3040000144392252, 0.9920000471174717, 0.0, 0.0, 0.0, 0.0, 0.0, 1.763226415114422E9, 0.0, 2025-11-15 12:06:55.114
75.0, 4172.359547166154, 844.7499024914578, -174.44763343315572, -139.34119254909456, -0.03200000151991844, 0.3040000144392252, 0.9920000471174717, 0.0, 0.0, 0.0, 0.0, 0.0, 1.763226415115134E9, 0.0, 2025-11-15 12:06:55.115
75.0, 4404.59611471463, 1032.8893096623942, -22.746071530506015, -28.11656786687672, -0.03200000151991844, 0.3040000144392252, 0.9920000471174717, 0.0, 0.0, 0.0, 0.0, 0.0, 1.763226415115134E9, 0.0, 2025-11-15 12:06:55.115
76.0, 4288.629296888597, 958.8579900395125, -49.79302801005542, -31.935005721636117, -0.03200000151991844, 0.3040000144392252, 0.9920000471174717, 0.0, 0.0, 0.0, 0.0, 0.0, 1.7632264151451538E9, 0.0, 2025-11-15 12:06:55.145
76.0, 4133.191574930213, 806.8684558402747, -199.81163493264467, -161.9339281814173, -0.03200000151991844, 0.3040000144392252, 0.9920000471174717, 0.0, 0.0, 0.0, 0.0, 0.0, 1.7632264151451538E9, 0.0, 2025-11-15 12:06:55.145
77.0, 4309.221186044626, 953.2967588054016, -96.94568665139377, -87.57723726239055, -0.03200000151991844, 0.3040000144392252, 0.9920000471174717, 0.0, 0.0, 0.0, 0.0, 0.0, 1.7632264151458912E9, 0.0, 2025-11-15 12:06:55.145
77.0, 4410.157345948741, 1058.616081457585, 25.281723700463772, 18.93137357570231, -0.03200000151991844, 0.3040000144392252, 0.9920000471174717, 0.0, 0.0, 0.0, 0.0, 0.0, 1.7632264151458912E9, 0.0, 2025-11-15 12:06:55.145
78.0, 4636.890650712419, 828.862807479687, -163.5944437617436, -124.74062312208116, -0.03200000151991844, 0.3040000144392252, 0.9920000471174717, 0.0, 0.0, 0.0, 0.0, 0.0, 1.7632264151465836E9, 0.0, 2025-11-15 12:06:55.146
78.0, 4693.157445545774, 862.4807681813836, -160.7483798954636, -126.92098479624838, -0.03200000151991844, 0.3040000144392252, 0.9920000471174717, 0.0, 0.0, 0.0, 0.0, 0.0, 1.7632264151465836E9, 0.0, 2025-11-15 12:06:55.146
79.0, 4464.318577107042, 1089.9452233863994, 32.6081877136603, 19.593335867859423, -0.03200000151991844, 0.3040000144392252, 0.9920000471174717, 0.0, 0.0, 0.0, 0.0, 0.0, 1.7632264151587625E9, 0.0, 2025-11-15 12:06:55.158
79.0, 4687.618653711397, 881.0531113613397, -112.73554426431656, -85.03036539256573, -0.03200000151991844, 0.3040000144392252, 0.9920000471174717, 0.0, 0.0, 0.0, 0.0, 0.0, 1.7632264151587625E9, 0.0, 2025-11-15 12:06:55.158
80.0, 4645.484940810595, 823.279136845842, -192.33557492122054, -152.72255459055305, -0.03200000151991844, 0.3040000144392252, 0.9920000471174717, 0.0, 0.0, 0.0, 0.0, 0.0, 1.7632264151744075E9, 0.0, 2025-11-15 12:06:55.174
80.0, 4878.282493352424, 1028.5211065141484, -32.88868021033704, -39.39236623328179, -0.03200000151991844, 0.3040000144392252, 0.9920000471174717, 0.0, 0.0, 0.0, 0.0, 0.0, 1.7632264151744075E9, 0.0, 2025-11-15 12:06:55.174
81.0, 4772.3049483080395, 961.0607911134139, -44.519769072532654, -23.868041517212987, -0.03200000151991844, 0.3200000151991844, 0.9920000471174717, 0.0, 0.0, 0.0, 0.0, 0.0, 1.7632264151751292E9, 0.0, 2025-11-15 12:06:55.175
81.0, 4635.375991230365, 815.1598140420392, -195.51074998360127, -158.78493241872638, -0.03200000151991844, 0.3200000151991844, 0.9920000471174717, 0.0, 0.0, 0.0, 0.0, 0.0, 1.7632264151751292E9, 0.0, 2025-11-15 12:06:55.175
82.0, 4793.8692114525475, 946.4490019865334, -104.8256558580324, -85.9653403814882, -0.03200000151991844, 0.3200000151991844, 0.9920000471174717, 0.0, 0.0, 0.0, 0.0, 0.0, 1.7632264151887197E9, 0.0, 2025-11-15 12:06:55.188
82.0, 4902.857375961263, 1065.1272472804412, 33.37860710453242, 36.9427317623049, -0.03200000151991844, 0.3200000151991844, 0.9920000471174717, 0.0, 0.0, 0.0, 0.0, 0.0, 1.7632264151887197E9, 0.0, 2025-11-15 12:06:55.188
83.0, 5108.703339472413, 1302.8408983140253, -189.39975345600396, -159.7386069074273, -0.03200000151991844, 0.3200000151991844, 0.9920000471174717, 0.0, 0.0, 0.0, 0.0, 0.0, 1.7632264152044342E9, 0.0, 2025-11-15 12:06:55.204
83.0, 5191.968472085893, 1349.5859078601934, -174.55235063191503, -147.97288164682686, -0.03200000151991844, 0.3200000151991844, 0.9920000471174717, 0.0, 0.0, 0.0, 0.0, 0.0, 1.7632264152044342E9, 0.0, 2025-11-15 12:06:55.204
84.0, 5434.063415917568, 1578.4677851484157, 29.00666405633092, 28.438199263066053, -0.03200000151991844, 0.3200000151991844, 0.9920000471174717, 0.0, 0.0, 0.0, 0.0, 0.0, 1.7632264152051024E9, 0.0, 2025-11-15 12:06:55.205
84.0, 5653.724569865037, 1362.8550729029812, -129.0564676709473, -88.87872244697064, -0.03200000151991844, 0.3200000151991844, 0.9920000471174717, 0.0, 0.0, 0.0, 0.0, 0.0, 1.7632264152051024E9, 0.0, 2025-11-15 12:06:55.205
85.0, 5624.160660715308, 1319.6255693151616, -190.26367034576833, -157.67418213188648, -0.03200000151991844, 0.3200000151991844, 0.9920000471174717, 0.0, 0.0, 0.0, 0.0, 0.0, 1.763226415218763E9, 0.0, 2025-11-15 12:06:55.218
85.0, 5393.736074695364, 1538.5106940218247, -14.379915329627693, -19.933666763827205, -0.03200000151991844, 0.3200000151991844, 0.9920000471174717, 0.0, 0.0, 0.0, 0.0, 0.0, 1.763226415218763E9, 0.0, 2025-11-15 12:06:55.218
86.0, 5274.6277409065515, 1450.9558961591683, -48.465363525785506, -36.28824927005917, -0.03200000151991844, 0.3200000151991844, 0.9920000471174717, 0.0, 0.0, 0.0, 0.0, 0.0, 1.763226415234409E9, 0.0, 2025-11-15 12:06:55.234
86.0, 5125.6525660716, 1306.2853461732157, -195.7987222801894, -157.69662153162062, -0.03200000151991844, 0.3200000151991844, 0.9920000471174717, 0.0, 0.0, 0.0, 0.0, 0.0, 1.763226415234409E9, 0.0, 2025-11-15 12:06:55.234
87.0, 5264.414074127562, 1422.2259846995585, -111.58739497791976, -98.3406693348661, -0.03200000151991844, 0.3200000151991844, 0.9920000471174717, 0.0, 0.0, 0.0, 0.0, 0.0, 1.7632264152351167E9, 0.0, 2025-11-15 12:06:55.235
87.0, 5392.165316713974, 1554.0200591380708, 27.40224697533995, 34.20512499473989, -0.03200000151991844, 0.3200000151991844, 0.9920000471174717, 0.0, 0.0, 0.0, 0.0, 0.0, 1.7632264152351167E9, 0.0, 2025-11-15 12:06:55.235
88.0, 5622.7918573315255, 1333.3734415522777, -156.35025754757226, -115.96681782603264, -0.03200000151991844, 0.3200000151991844, 0.9920000471174717, 0.0, 0.0, 0.0, 0.0, 0.0, 1.7632264152487724E9, 0.0, 2025-11-15 12:06:55.248
88.0, 5668.340098891873, 1347.1100940895267, -174.91886082757264, -149.0387531341985, -0.03200000151991844, 0.3200000151991844, 0.9920000471174717, 0.0, 0.0, 0.0, 0.0, 0.0, 1.7632264152487724E9, 0.0, 2025-11-15 12:06:55.248
89.0, 5913.303545989562, 1572.7195589165203, 23.879261217080057, 13.837629836052656, -0.03200000151991844, 0.3200000151991844, 0.9920000471174717, 0.0, 0.0, 0.0, 0.0, 0.0, 1.7632264152645E9, 0.0, 2025-11-15 12:06:55.264
89.0, 6150.085961934179, 1366.838066355791, -128.51792207732797, -104.97525185626, -0.03200000151991844, 0.3200000151991844, 0.9920000471174717, 0.0, 0.0, 0.0, 0.0, 0.0, 1.7632264152645E9, 0.0, 2025-11-15 12:06:55.264
90.0, 6116.385723433457, 1313.2116408911534, -199.37780653778464, -173.6772140422836, -0.03200000151991844, 0.3200000151991844, 0.9920000471174717, 0.0, 0.0, 0.0, 0.0, 0.0, 1.763226415265128E9, 0.0, 2025-11-15 12:06:55.265
90.0, 5875.395920038689, 1524.6356651862152, -28.58031546138227, -29.073982255533338, -0.03200000151991844, 0.3200000151991844, 0.9920000471174717, 0.0, 0.0, 0.0, 0.0, 0.0, 1.763226415265128E9, 0.0, 2025-11-15 12:06:55.265
91.0, 5781.86476204684, 1466.3268849770539, -38.1656790478155, -19.32780297100544, -0.03200000151991844, 0.3200000151991844, 0.9920000471174717, 0.0, 0.0, 0.0, 0.0, 0.0, 1.7632264152787373E9, 0.0, 2025-11-15 12:06:55.278
91.0, 5612.331357155461, 1303.566438905429, -199.1347130406648, -158.57923792116344, -0.03200000151991844, 0.3200000151991844, 0.9920000471174717, 0.0, 0.0, 0.0, 0.0, 0.0, 1.7632264152787373E9, 0.0, 2025-11-15 12:06:55.278
92.0, 5770.256112584379, 1433.423245166894, -103.83084246981889, -95.92469396349043, -0.03200000151991844, 0.3200000151991844, 0.9920000471174717, 0.0, 0.0, 0.0, 0.0, 0.0, 1.7632264152944093E9, 0.0, 2025-11-15 12:06:55.294
92.0, 5870.855681492481, 1543.006053768564, 19.843909164890647, 18.0824162857607, -0.03200000151991844, 0.3200000151991844, 0.9920000471174717, 0.0, 0.0, 0.0, 0.0, 0.0, 1.7632264152944093E9, 0.0, 2025-11-15 12:06:55.294
93.0, 6108.5805522259325, 1322.430494281929, -167.7494726125151, -136.1024391874671, -0.03200000151991844, 0.3200000151991844, 0.9920000471174717, 0.0, 0.0, 0.0, 0.0, 0.0, 1.763226415295104E9, 0.0, 2025-11-15 12:06:55.295
93.0, 6162.891379382461, 1355.7754422868602, -166.2983914297074, -141.4766754237935, -0.03200000151991844, 0.3200000151991844, 0.9920000471174717, 0.0, 0.0, 0.0, 0.0, 0.0, 1.763226415295104E9, 0.0, 2025-11-15 12:06:55.295
94.0, 6405.016242413782, 1572.3530487208627, 23.609988420270383, 11.866702559404075, -0.03200000151991844, 0.3200000151991844, 0.9920000471174717, 0.0, 0.0, 0.0, 0.0, 0.0, 1.7632264153087697E9, 0.0, 2025-11-15 12:06:55.308
94.0, 6636.214987724554, 1348.3442610749044, -132.14936493430287, -107.80261622276157, -0.03200000151991844, 0.3200000151991844, 0.9920000471174717, 0.0, 0.0, 0.0, 0.0, 0.0, 1.7632264153087697E9, 0.0, 2025-11-15 12:06:55.308
95.0, 6616.169123962056, 1319.1767813204788, -187.7915964750573, -152.20270849671215, -0.03200000151991844, 0.3200000151991844, 0.9920000471174717, 0.0, 0.0, 0.0, 0.0, 0.0, 1.7632264153244643E9, 0.0, 2025-11-15 12:06:55.324
95.0, 6856.899004309904, 1517.9636836652644, -29.72846474777907, -37.10354746039957, -0.03200000151991844, 0.3200000151991844, 0.9920000471174717, 0.0, 0.0, 0.0, 0.0, 0.0, 1.7632264153244643E9, 0.0, 2025-11-15 12:06:55.324
96.0, 6737.584976023529, 1437.2192436219193, -58.32747970893979, -38.33023464586586, -0.03200000151991844, 0.3200000151991844, 0.9920000471174717, 0.0, 0.0, 0.0, 0.0, 0.0, 1.7632264153251748E9, 0.0, 2025-11-15 12:06:55.325
96.0, 6608.27793505555, 1314.543045275379, -181.25425135251135, -142.96889550611377, -0.03200000151991844, 0.3200000151991844, 0.9920000471174717, 0.0, 0.0, 0.0, 0.0, 0.0, 1.7632264153251748E9, 0.0, 2025-11-15 12:06:55.325
97.0, 6725.018912172411, 1411.208239430096, -124.1347593292594, -111.62479397747666, -0.03200000151991844, 0.3200000151991844, 0.9920000471174717, 0.0, 0.0, 0.0, 0.0, 0.0, 1.7632264153387723E9, 0.0, 2025-11-15 12:06:55.338
97.0, 6853.256341753062, 1534.9690087637864, 5.980100029148161, 3.377129659987986, -0.03200000151991844, 0.3200000151991844, 0.9920000471174717, 0.0, 0.0, 0.0, 0.0, 0.0, 1.7632264153387723E9, 0.0, 2025-11-15 12:06:55.338
98.0, 7076.750893155113, 1308.2974123493768, -184.59398201294243, -149.94006902351975, -0.03200000151991844, 0.3200000151991844, 0.9920000471174717, 0.0, 0.0, 0.0, 0.0, 0.0, 1.7632264153544407E9, 0.0, 2025-11-15 12:06:55.354
98.0, 7147.865090812556, 1348.976304167416, -170.40854148101062, -140.1415311396122, -0.03200000151991844, 0.3200000151991844, 0.9920000471174717, 0.0, 0.0, 0.0, 0.0, 0.0, 1.7632264153544407E9, 0.0, 2025-11-15 12:06:55.354
99.0, 7387.252347076312, 1567.984845572617, 15.400908017531037, 18.11233548540622, -0.03200000151991844, 0.3200000151991844, 0.9920000471174717, 0.0, 0.0, 0.0, 0.0, 0.0, 1.76322641535515E9, 0.0, 2025-11-15 12:06:55.355
99.0, 7612.040903863031, 1340.2735569705255, -146.09545186907053, -120.68283167015761, -0.03200000151991844, 0.3200000151991844, 0.9920000471174717, 0.0, 0.0, 0.0, 0.0, 0.0, 1.76322641535515E9, 0.0, 2025-11-15 12:06:55.355
100.0, 7602.683674173895, 1320.9569736993872, -185.24846450518817, -149.60347802750766, -0.03200000151991844, 0.3200000151991844, 0.9920000471174717, 0.0, 0.0, 0.0, 0.0, 0.0, 1.7632264153698688E9, 0.0, 2025-11-15 12:06:55.369
100.0, 7821.2060285848565, 1505.3602208145894, -43.08738738950342, -43.3903192859143, -0.03200000151991844, 0.3200000151991844, 0.9920000471174717, 0.0, 0.0, 0.0, 0.0, 0.0, 1.7632264153698688E9, 0.0, 2025-11-15 12:06:55.369
0.0, -110.2204615441151, -16.02921121008694, -46.63281254749745, -30.40725658973679, -0.03200000151991844, 0.3200000151991844, 0.9920000471174717, 0.0, 0.0, 0.0, 0.0, 0.0, 1.7632264153844566E9, 0.0, 2025-11-15 12:06:55.384
1.0, -245.21963024465367, -149.04997283406556, -180.48757186159492, -147.45116560300812, -0.03200000151991844, 0.3200000151991844, 0.9920000471174717, 0.0, 0.0, 0.0, 0.0, 0.0, 1.763226415385176E9, 0.0, 2025-11-15 12:06:55.385
1.0, -130.62161580240354, -55.58987294137478, -123.75328953377903, -108.85913796024397, -0.03200000151991844, 0.3200000151991844, 0.9920000471174717, 0.0, 0.0, 0.0, 0.0, 0.0, 1.763226415385176E9, 0.0, 2025-11-15 12:06:55.385
2.0, 3.988603302743286, 77.86471707746387, 13.156968044117093, 21.16222389927134, -0.03200000151991844, 0.3200000151991844, 0.9920000471174717, 0.0, 0.0, 0.0, 0.0, 0.0, 1.763226415399444E9, 0.0, 2025-11-15 12:06:55.399
2.0, 238.1156902788207, -155.47138105798513, -181.59084234852344, -154.69909171713516, -0.03200000151991844, 0.3200000151991844, 0.9920000471174717, 0.0, 0.0, 0.0, 0.0, 0.0, 1.763226415399444E9, 0.0, 2025-11-15 12:06:55.399
3.0, 281.8650399604812, -122.05163505394012, -168.7891648001969, -137.77604441763833, -0.03200000151991844, 0.3200000151991844, 0.9920000471174717, 0.0, 0.0, 0.0, 0.0, 0.0, 1.7632264154001498E9, 0.0, 2025-11-15 12:06:55.400
3.0, 55.180353896226734, 107.08081553131342, 26.639307384379208, 36.88476331299171, -0.03200000151991844, 0.3200000151991844, 0.9920000471174717, 0.0, 0.0, 0.0, 0.0, 0.0, 1.7632264154001498E9, 0.0, 2025-11-15 12:06:55.400
4.0, 274.4562981482595, -109.69874550029635, -123.11002674140036, -91.73413606313989, -0.03200000151991844, 0.3200000151991844, 0.9920000471174717, 0.0, 0.0, 0.0, 0.0, 0.0, 1.76322641541374E9, 0.0, 2025-11-15 12:06:55.413
4.0, 245.21776029467583, -147.31839915458113, -188.7901497632265, -153.6481798295863, -0.03200000151991844, 0.3200000151991844, 0.9920000471174717, 0.0, 0.0, 0.0, 0.0, 0.0, 1.76322641541374E9, 0.0, 2025-11-15 12:06:55.413
5.0, 472.4391220025718, 42.036475501954556, -43.90268557984382, -48.306417777668685, -0.03200000151991844, 0.3200000151991844, 0.9920000471174717, 0.0, 0.0, 0.0, 0.0, 0.0, 1.76322641542943E9, 0.0, 2025-11-15 12:06:55.429
5.0, 379.8092799000442, -19.937406663782895, -48.439184226095676, -39.93278177687898, -0.03200000151991844, 0.3200000151991844, 0.9920000471174717, 0.0, 0.0, 0.0, 0.0, 0.0, 1.76322641542943E9, 0.0, 2025-11-15 12:06:55.429
6.0, 228.39569029398263, -159.06916481535882, -188.21420517005026, -146.21699861763045, -0.03200000151991844, 0.3200000151991844, 0.9920000471174717, 0.0, 0.0, 0.0, 0.0, 0.0, 1.763226415430142E9, 0.0, 2025-11-15 12:06:55.430
6.0, 375.08204635605216, -46.131665953435004, -119.833874380216, -106.95552888279781, -0.03200000151991844, 0.3200000151991844, 0.9920000471174717, 0.0, 0.0, 0.0, 0.0, 0.0, 1.763226415430142E9, 0.0, 2025-11-15 12:06:55.430
7.0, 489.5678637996316, 70.53825306426734, 12.304270854219794, 6.471896873321384, -0.03200000151991844, 0.3200000151991844, 0.9920000471174717, 0.0, 0.0, 0.0, 0.0, 0.0, 1.7632264154438372E9, 0.0, 2025-11-15 12:06:55.443
7.0, 716.6489792591892, -153.53785278089345, -171.49685236811638, -144.18997284164652, -0.03200000151991844, 0.3200000151991844, 0.9920000471174717, 0.0, 0.0, 0.0, 0.0, 0.0, 1.7632264154438372E9, 0.0, 2025-11-15 12:06:55.443
8.0, 793.7245774460025, -103.18009987752885, -153.16012288536876, -130.58795670280233, -0.03200000151991844, 0.3200000151991844, 0.9920000471174717, 0.0, 0.0, 0.0, 0.0, 0.0, 1.763226415459454E9, 0.0, 2025-11-15 12:06:55.459
8.0, 1016.6001754053868, 103.07912257872522, 25.69311269558966, 18.540554030332714, -0.03200000151991844, 0.3200000151991844, 0.9920000471174717, 0.0, 0.0, 0.0, 0.0, 0.0, 1.763226415459454E9, 0.0, 2025-11-15 12:06:55.459
9.0, 1243.965523261577, -114.31752194557339, -131.9848093362525, -109.1059713573195, -0.03200000151991844, 0.3200000151991844, 0.9920000471174717, 0.0, 0.0, 0.0, 0.0, 0.0, 1.763226415460152E9, 0.0, 2025-11-15 12:06:55.460
9.0, 1219.4355194522068, -159.16640221420676, -196.15775267593563, -161.539368736092, -0.03200000151991844, 0.3200000151991844, 0.9920000471174717, 0.0, 0.0, 0.0, 0.0, 0.0, 1.763226415460152E9, 0.0, 2025-11-15 12:06:55.460
10.0, 1457.1136414362118, 42.848033792339265, -35.570188478566706, -33.459014953579754, -0.03200000151991844, 0.3200000151991844, 0.9920000471174717, 0.0, 0.0, 0.0, 0.0, 0.0, 1.7632264154737873E9, 0.0, 2025-11-15 12:06:55.473
10.0, 1362.8494630530477, -17.26337819546461, -50.484909501858056, -40.1122969747521, -0.03200000151991844, 0.3200000151991844, 0.9920000471174717, 0.0, 0.0, 0.0, 0.0, 0.0, 1.7632264154737873E9, 0.0, 2025-11-15 12:06:55.473
11.0, 1206.6787207033485, -155.2956057600677, -186.69580578804016, -153.59208133025095, -0.03200000151991844, 0.3200000151991844, 0.9920000471174717, 0.0, 0.0, 0.0, 0.0, 0.0, 1.7632264154894447E9, 0.0, 2025-11-15 12:06:55.489
11.0, 1361.7910713655874, -38.2404770469293, -108.7936897110194, -93.77238153899089, -0.03200000151991844, 0.3200000151991844, 0.9920000471174717, 0.0, 0.0, 0.0, 0.0, 0.0, 1.7632264154894447E9, 0.0, 2025-11-15 12:06:55.489
12.0, 1471.5982739645988, 77.8534973775968, 21.575482844375074, 18.529334330465645, -0.03200000151991844, 0.3200000151991844, 0.9920000471174717, 0.0, 0.0, 0.0, 0.0, 0.0, 1.7632264154901552E9, 0.0, 2025-11-15 12:06:55.490
12.0, 1678.783121659886, 322.4373446297832, -187.02491698414087, -156.389526497107, -0.03200000151991844, 0.3200000151991844, 0.9920000471174717, 0.0, 0.0, 0.0, 0.0, 0.0, 1.7632264154901552E9, 0.0, 2025-11-15 12:06:55.490
13.0, 1754.1047067674808, 369.2982910745777, -168.377775805071, -143.1241013542749, -0.03200000151991844, 0.3200000151991844, 0.9920000471174717, 0.0, 0.0, 0.0, 0.0, 0.0, 1.7632264155037663E9, 0.0, 2025-11-15 12:06:55.503
13.0, 1995.5227287071757, 583.1382907410152, 12.06117735709995, 7.631265859585255, -0.03200000151991844, 0.3200000151991844, 0.9920000471174717, 0.0, 0.0, 0.0, 0.0, 0.0, 1.7632264155037663E9, 0.0, 2025-11-15 12:06:55.503
14.0, 1764.7297625415958, 397.9421848352067, -112.65326646529138, -82.63121957099065, -0.03200000151991844, 0.3200000151991844, 0.9920000471174717, 0.0, 0.0, 0.0, 0.0, 0.0, 1.7632264155194335E9, 0.0, 2025-11-15 12:06:55.519
14.0, 1717.0722174062394, 340.4075639168732, -189.29877615720034, -156.65505939396098, -0.03200000151991844, 0.3200000151991844, 0.9920000471174717, 0.0, 0.0, 0.0, 0.0, 0.0, 1.7632264155194335E9, 0.0, 2025-11-15 12:06:55.519
15.0, 1923.8699854561128, 516.687748328317, -52.579253477044404, -54.327656706329435, -0.03200000151991844, 0.3200000151991844, 0.9920000471174717, 0.0, 0.0, 0.0, 0.0, 0.0, 1.7632264155201397E9, 0.0, 2025-11-15 12:06:55.520
15.0, 1839.7035369533114, 464.4189065475948, -51.274028392508626, -27.089965329039842, -0.03200000151991844, 0.3200000151991844, 0.9920000471174717, 0.0, 0.0, 0.0, 0.0, 0.0, 1.7632264155201397E9, 0.0, 2025-11-15 12:06:55.520
16.0, 1680.3613594411872, 314.4302188246511, -201.7227238100022, -174.42706398339942, -0.03200000151991844, 0.3200000151991844, 0.9920000471174717, 0.0, 0.0, 0.0, 0.0, 0.0, 1.763226415533784E9, 0.0, 2025-11-15 12:06:55.533
16.0, 1839.7409359528683, 442.4432544079609, -115.97803752589971, -103.75417452072725, -0.03200000151991844, 0.3200000151991844, 0.9920000471174717, 0.0, 0.0, 0.0, 0.0, 0.0, 1.763226415533784E9, 0.0, 2025-11-15 12:06:55.533
17.0, 1947.012486381922, 554.6514727785252, 8.687787597067654, 12.149065006058663, -0.03200000151991844, 0.3200000151991844, 0.9920000471174717, 0.0, 0.0, 0.0, 0.0, 0.0, 1.763226415549568E9, 0.0, 2025-11-15 12:06:55.549
17.0, 2188.682951568626, 342.845978687983, -167.3754826169461, -130.12420910829678, -0.03200000151991844, 0.3200000151991844, 0.9920000471174717, 0.0, 0.0, 0.0, 0.0, 0.0, 1.763226415549568E9, 0.0, 2025-11-15 12:06:55.549
18.0, 2228.797118493356, 355.20260814158246, -184.07039601914585, -158.38289317348972, -0.03200000151991844, 0.3200000151991844, 0.9920000471174717, 0.0, 0.0, 0.0, 0.0, 0.0, 1.7632264155501533E9, 0.0, 2025-11-15 12:06:55.550
18.0, 1994.2960415217094, 579.1964361877181, 13.2654251428321, 9.108526342082769, -0.03200000151991844, 0.3200000151991844, 0.9920000471174717, 0.0, 0.0, 0.0, 0.0, 0.0, 1.7632264155501533E9, 0.0, 2025-11-15 12:06:55.550
19.0, 2209.54785342142, 363.25087284622714, -146.49562116432935, -112.22878782032058, -0.03200000151991844, 0.3200000151991844, 0.9920000471174717, 0.0, 0.0, 0.0, 0.0, 0.0, 1.7632264155637493E9, 0.0, 2025-11-15 12:06:55.563
19.0, 2183.8173417262733, 319.1985912681557, -211.1771908979863, -179.19169652694836, -0.03200000151991844, 0.3200000151991844, 0.9920000471174717, 0.0, 0.0, 0.0, 0.0, 0.0, 1.7632264155637493E9, 0.0, 2025-11-15 12:06:55.563
20.0, 2413.9296460999176, 515.4760207426734, -62.0299806650728, -68.42707953928038, -0.03200000151991844, 0.3200000151991844, 0.9920000471174717, 0.0, 0.0, 0.0, 0.0, 0.0, 1.7632264155794387E9, 0.0, 2025-11-15 12:06:55.579
20.0, 2341.5326627576724, 474.8831466236152, -48.77951512206346, -31.61150437546894, -0.03200000151991844, 0.3200000151991844, 0.9920000471174717, 0.0, 0.0, 0.0, 0.0, 0.0, 1.7632264155794387E9, 0.0, 2025-11-15 12:06:55.579
21.0, 2175.787776521407, 322.5495416284539, -194.30276229791343, -155.85846070339903, -0.03200000151991844, 0.3200000151991844, 0.9920000471174717, 0.0, 0.0, 0.0, 0.0, 0.0, 1.7632264155801387E9, 0.0, 2025-11-15 12:06:55.580
21.0, 2318.958626625128, 427.5098338848911, -127.54928798880428, -113.72100790264085, -0.03200000151991844, 0.3200000151991844, 0.9920000471174717, 0.0, 0.0, 0.0, 0.0, 0.0, 1.7632264155801387E9, 0.0, 2025-11-15 12:06:55.580
22.0, 2445.57293962501, 550.3543277294375, 1.447341282851994, 3.81656790478155, -0.03200000151991844, 0.3200000151991844, 0.9920000471174717, 0.0, 0.0, 0.0, 0.0, 0.0, 1.7632264155937972E9, 0.0, 2025-11-15 12:06:55.593
22.0, 2690.3138626753353, 346.7766135414131, -163.9272948578, -131.76976508880034, -0.03200000151991844, 0.3200000151991844, 0.9920000471174717, 0.0, 0.0, 0.0, 0.0, 0.0, 1.7632264155937972E9, 0.0, 2025-11-15 12:06:55.593
23.0, 2720.7865675142966, 359.17812179448083, -173.2994841467589, -141.03349727904424, -0.03200000151991844, 0.3200000151991844, 0.9920000471174717, 0.0, 0.0, 0.0, 0.0, 0.0, 1.7632264156094315E9, 0.0, 2025-11-15 12:06:55.609
23.0, 2965.5069211148657, 574.8544123391621, 9.69382068514824, 6.505555972922593, -0.03200000151991844, 0.3200000151991844, 0.9920000471174717, 0.0, 0.0, 0.0, 0.0, 0.0, 1.7632264156094315E9, 0.0, 2025-11-15 12:06:55.609
24.0, 2736.7708999249153, 390.6531198215671, -119.79273548070341, -89.71832998702303, -0.03200000151991844, 0.3200000151991844, 0.9920000471174717, 0.0, 0.0, 0.0, 0.0, 0.0, 1.763226415610138E9, 0.0, 2025-11-15 12:06:55.610
24.0, 2699.3457210683264, 340.9685489102267, -183.5318504255265, -147.6082414011471, -0.03200000151991844, 0.3200000151991844, 0.9920000471174717, 0.0, 0.0, 0.0, 0.0, 0.0, 1.763226415610138E9, 0.0, 2025-11-15 12:06:55.610
25.0, 2917.127575288061, 529.2687717792578, -41.0940207131207, -41.57085795747116, -0.03200000151991844, 0.3200000151991844, 0.9920000471174717, 0.0, 0.0, 0.0, 0.0, 0.0, 1.763226415623794E9, 0.0, 2025-11-15 12:06:55.623
25.0, 2837.467706231866, 479.7674559657462, -40.60783371888101, -29.434882601257414, -0.03200000151991844, 0.3200000151991844, 0.9920000471174717, 0.0, 0.0, 0.0, 0.0, 0.0, 1.763226415623794E9, 0.0, 2025-11-15 12:06:55.623
26.0, 2682.418933868874, 334.1058324915357, -175.94359341543168, -143.81972274603322, -0.03200000151991844, 0.3200000151991844, 0.9920000471174717, 0.0, 0.0, 0.0, 0.0, 0.0, 1.763226415639428E9, 0.0, 2025-11-15 12:06:55.639
26.0, 2811.912969834637, 440.042238636408, -115.83966122753918, -102.77432073233649, -0.03200000151991844, 0.3200000151991844, 0.9920000471174717, 0.0, 0.0, 0.0, 0.0, 0.0, 1.763226415639428E9, 0.0, 2025-11-15 12:06:55.639
27.0, 2929.637540639844, 558.7915420294739, 6.4588072234764695, 3.4388380092568696, -0.03200000151991844, 0.3200000151991844, 0.9920000471174717, 0.0, 0.0, 0.0, 0.0, 0.0, 1.7632264156401367E9, 0.0, 2025-11-15 12:06:55.640
27.0, 2704.51426280709, 357.87289670994505, -151.97457459941506, -118.05929185124114, -0.03200000151991844, 0.3200000151991844, 0.9920000471174717, 0.0, 0.0, 0.0, 0.0, 0.0, 1.7632264156401367E9, 0.0, 2025-11-15 12:06:55.640
28.0, 2756.6185489897616, 389.26187703805044, -150.24674081988633, -126.45536725176498, -0.03200000151991844, 0.3200000151991844, 0.9920000471174717, 0.0, 0.0, 0.0, 0.0, 0.0, 1.7632264156537857E9, 0.0, 2025-11-15 12:06:55.653
28.0, 2973.465428220574, 589.6157974642701, 28.860807958059013, 27.766887221019715, -0.03200000151991844, 0.3200000151991844, 0.9920000471174717, 0.0, 0.0, 0.0, 0.0, 0.0, 1.7632264156537857E9, 0.0, 2025-11-15 12:06:55.653
29.0, 2740.7725928775035, 399.51668271655217, -111.04884938430041, -79.39620610931888, -0.03200000151991844, 0.3200000151991844, 0.9920000471174717, 0.0, 0.0, 0.0, 0.0, 0.0, 1.7632264156858125E9, 0.0, 2025-11-15 12:06:55.685
29.0, 2697.00828359602, 346.8775908402167, -182.26402434054762, -154.56445531873032, -0.03200000151991844, 0.3200000151991844, 0.9920000471174717, 0.0, 0.0, 0.0, 0.0, 0.0, 1.7632264156858125E9, 0.0, 2025-11-15 12:06:55.685
30.0, 2913.548491030466, 529.1640545804985, -36.056375472806394, -37.28493260825053, -0.03200000151991844, 0.3200000151991844, 0.9920000471174717, 0.0, 0.0, 0.0, 0.0, 0.0, 1.763226415686515E9, 0.0, 2025-11-15 12:06:55.686
30.0, 2838.084789724555, 484.8312805057503, -32.26411691773683, -21.319299697410315, -0.03200000151991844, 0.3200000151991844, 0.9920000471174717, 0.0, 0.0, 0.0, 0.0, 0.0, 1.763226415686515E9, 0.0, 2025-11-15 12:06:55.686
31.0, 2680.694839989301, 331.79457431891933, -188.62559416517615, -156.29228909825906, -0.03200000151991844, 0.3200000151991844, 0.9920000471174717, 0.0, 0.0, 0.0, 0.0, 0.0, 1.7632264156872647E9, 0.0, 2025-11-15 12:06:55.687
31.0, 2808.487221475225, 438.31440485687926, -117.58245460689068, -106.37584438966587, -0.03200000151991844, 0.3200000151991844, 0.9920000471174717, 0.0, 0.0, 0.0, 0.0, 0.0, 1.7632264156872647E9, 0.0, 2025-11-15 12:06:55.687
32.0, 2950.2294297958724, 569.7232695999555, 18.785517477430403, 23.293966874014586, -0.03200000151991844, 0.3200000151991844, 0.9920000471174717, 0.0, 0.0, 0.0, 0.0, 0.0, 1.7632264156880136E9, 0.0, 2025-11-15 12:06:55.688
32.0, 3179.4048892306164, 355.0380525435321, -152.86093088891357, -121.44016141118482, -0.03200000151991844, 0.3200000151991844, 0.9920000471174717, 0.0, 0.0, 0.0, 0.0, 0.0, 1.7632264156880136E9, 0.0, 2025-11-15 12:06:55.688
33.0, 3227.5972400596365, 384.0260171000846, -154.2222544727847, -128.1158828320913, -0.03200000151991844, 0.3200000151991844, 0.9920000471174717, 0.0, 0.0, 0.0, 0.0, 0.0, 1.7632264156987836E9, 0.0, 2025-11-15 12:06:55.698
33.0, 3442.2899369159713, 573.0779598602094, 8.642908797599375, 9.42267793836072, -0.03200000151991844, 0.3200000151991844, 0.9920000471174717, 0.0, 0.0, 0.0, 0.0, 0.0, 1.7632264156987836E9, 0.0, 2025-11-15 12:06:55.698
34.0, 3249.1016648048535, 405.78101514233276, -100.49859160929918, -78.15455932402983, -0.03200000151991844, 0.3200000151991844, 0.9920000471174717, 0.0, 0.0, 0.0, 0.0, 0.0, 1.763226415713734E9, 0.0, 2025-11-15 12:06:55.713
34.0, 3176.1960550686345, 331.5440010218881, -189.77374345157295, -157.00660998979583, -0.03200000151991844, 0.3200000151991844, 0.9920000471174717, 0.0, 0.0, 0.0, 0.0, 0.0, 1.763226415713734E9, 0.0, 2025-11-15 12:06:55.713
35.0, 3389.2319762445986, 508.68436242314056, -56.43883023131639, -49.847256559412926, -0.03200000151991844, 0.3200000151991844, 0.9920000471174717, 0.0, 0.0, 0.0, 0.0, 0.0, 1.763226415729476E9, 0.0, 2025-11-15 12:06:55.729
35.0, 3341.8586635058746, 487.37441247561947, -34.74741048831493, -20.904170802328736, -0.03200000151991844, 0.3200000151991844, 0.9920000471174717, 0.0, 0.0, 0.0, 0.0, 0.0, 1.763226415729476E9, 0.0, 2025-11-15 12:06:55.729
36.0, 3194.461726452224, 356.31709832837805, -164.86226984672248, -134.83648305246606, -0.03200000151991844, 0.3200000151991844, 0.9920000471174717, 0.0, 0.0, 0.0, 0.0, 0.0, 1.7632264157301655E9, 0.0, 2025-11-15 12:06:55.730
36.0, 3291.571968701668, 432.9551282203756, -116.50536341965199, -94.2847478329204, -0.03200000151991844, 0.3200000151991844, 0.9920000471174717, 0.0, 0.0, 0.0, 0.0, 0.0, 1.7632264157301655E9, 0.0, 2025-11-15 12:06:55.730
37.0, 3408.1783094201237, 537.5601299810223, -10.206186979077756, -1.9653174267150462, -0.03200000151991844, 0.3200000151991844, 0.9920000471174717, 0.0, 0.0, 0.0, 0.0, 0.0, 1.7632264157437947E9, 0.0, 2025-11-15 12:06:55.743
37.0, 3213.987744120881, 373.1690875287168, -143.11849150434136, -119.5552518335171, -0.03200000151991844, 0.3200000151991844, 0.9920000471174717, 0.0, 0.0, 0.0, 0.0, 0.0, 1.7632264157437947E9, 0.0, 2025-11-15 12:06:55.743
38.0, 3239.508821418509, 391.3188220136799, -151.106917809695, -122.3339975005947, -0.03200000151991844, 0.3200000151991844, 0.9920000471174717, 0.0, 0.0, 0.0, 0.0, 0.0, 1.763226415759459E9, 0.0, 2025-11-15 12:06:55.759
38.0, 3402.108451792039, 532.2681715437211, -23.35193532332778, -2.9563909149728715, -0.03200000151991844, 0.3200000151991844, 0.9920000471174717, 0.0, 0.0, 0.0, 0.0, 0.0, 1.763226415759459E9, 0.0, 2025-11-15 12:06:55.759
39.0, 3276.230899083428, 423.94570922711864, -91.91552121099085, -66.60200836090371, -0.03200000151991844, 0.3200000151991844, 0.9920000471174717, 0.0, 0.0, 0.0, 0.0, 0.0, 1.7632264157601595E9, 0.0, 2025-11-15 12:06:55.760
39.0, 3236.5916994530708, 387.0254168645479, -149.12851073313504, -120.04143882775679, -0.03200000151991844, 0.3200000151991844, 0.9920000471174717, 0.0, 0.0, 0.0, 0.0, 0.0, 1.7632264157601595E9, 0.0, 2025-11-15 12:06:55.760
40.0, 3369.096354883164, 497.61051865434274, -66.12143121659756, -39.828064578119665, -0.03200000151991844, 0.3200000151991844, 0.9920000471174717, 0.0, 0.0, 0.0, 0.0, 0.0, 1.763226415773724E9, 0.0, 2025-11-15 12:06:55.773
40.0, 3336.742480366491, 482.6135198320262, -49.49383601360023, -31.117837581317872, -0.03200000151991844, 0.3200000151991844, 0.9920000471174717, 0.0, 0.0, 0.0, 0.0, 0.0, 1.763226415773724E9, 0.0, 2025-11-15 12:06:55.773
41.0, 3210.43109926302, 372.03215794218704, -160.13129640277475, -134.1221621609293, -0.03200000151991844, 0.33600001595914364, 0.9920000471174717, 0.0, 0.0, 0.0, 0.0, 0.0, 1.7632264158057852E9, 0.0, 2025-11-15 12:06:55.805
41.0, 3299.687551605515, 441.17168842302635, -112.26057696994394, -79.87865320360288, -0.03200000151991844, 0.33600001595914364, 0.9920000471174717, 0.0, 0.0, 0.0, 0.0, 0.0, 1.7632264158057852E9, 0.0, 2025-11-15 12:06:55.805
42.0, 3403.365058177151, 536.9056474887766, -10.815790671855211, 12.092966506723315, -0.01600000075995922, 0.33600001595914364, 0.9920000471174717, 0.0, 0.0, 0.0, 0.0, 0.0, 1.7632264158064892E9, 0.0, 2025-11-15 12:06:55.806
42.0, 3248.507020711899, 400.41051880596206, -124.88273932039738, -102.63594443397596, -0.01600000075995922, 0.33600001595914364, 0.9920000471174717, 0.0, 0.0, 0.0, 0.0, 0.0, 1.7632264158064892E9, 0.0, 2025-11-15 12:06:55.806
43.0, 3233.162211193703, 378.5395838650875, -163.10451686754823, -141.0147977792658, -0.01600000075995922, 0.33600001595914364, 0.9920000471174717, 0.0, 0.0, 0.0, 0.0, 0.0, 1.763226415807238E9, 0.0, 2025-11-15 12:06:55.807
43.0, 3405.6725764498115, 532.0512573462911, -26.254097688943148, -2.3841862217523158, -0.01600000075995922, 0.33600001595914364, 0.9920000471174717, 0.0, 0.0, 0.0, 0.0, 0.0, 1.763226415807238E9, 0.0, 2025-11-15 12:06:55.807
44.0, 3271.4288675403222, 425.27337371138856, -92.10251620877534, -65.6782530718483, -0.01600000075995922, 0.33600001595914364, 0.9920000471174717, 0.0, 0.0, 0.0, 0.0, 0.0, 1.7632264158079803E9, 0.0, 2025-11-15 12:06:55.807
44.0, 3239.8267129147425, 397.770149437245, -139.5468870466575, -119.43183513497934, -0.01600000075995922, 0.33600001595914364, 0.9920000471174717, 0.0, 0.0, 0.0, 0.0, 0.0, 1.7632264158079803E9, 0.0, 2025-11-15 12:06:55.807
45.0, 3348.485766227357, 483.63825241988525, -80.56492484547198, -59.48871864518151, -0.01600000075995922, 0.33600001595914364, 0.9920000471174717, 0.0, 0.0, 0.0, 0.0, 0.0, 1.76322641581888E9, 0.0, 2025-11-15 12:06:55.818
45.0, 3325.9042502949014, 473.8060554363765, -57.44860321935266, -34.08357824617997, -0.01600000075995922, 0.33600001595914364, 0.9920000471174717, 0.0, 0.0, 0.0, 0.0, 0.0, 1.76322641581888E9, 0.0, 2025-11-15 12:06:55.818
46.0, 3207.0315302032977, 364.1222695359029, -165.99171963334084, -142.36490166326985, -0.01600000075995922, 0.33600001595914364, 0.9920000471174717, 0.0, 0.0, 0.0, 0.0, 0.0, 1.7632264158337548E9, 0.0, 2025-11-15 12:06:55.833
46.0, 3302.9375246670097, 438.0413921601139, -117.78440920449793, -92.18666395777836, -0.01600000075995922, 0.33600001595914364, 0.9920000471174717, 0.0, 0.0, 0.0, 0.0, 0.0, 1.7632264158337548E9, 0.0, 2025-11-15 12:06:55.833
47.0, 3391.202903521247, 527.9672865946777, -16.85572910029441, 3.898845703806728, -0.01600000075995922, 0.33600001595914364, 0.9920000471174717, 0.0, 0.0, 0.0, 0.0, 0.0, 1.7632264158494415E9, 0.0, 2025-11-15 12:06:55.849
47.0, 3236.804873750545, 392.4333122004755, -126.69659079890698, -102.44146963628009, -0.01600000075995922, 0.33600001595914364, 0.9920000471174717, 0.0, 0.0, 0.0, 0.0, 0.0, 1.7632264158494415E9, 0.0, 2025-11-15 12:06:55.849
48.0, 3225.805827980861, 374.1900802166201, -160.8568369941786, -132.61498247878626, -0.01600000075995922, 0.33600001595914364, 0.9920000471174717, 0.0, 0.0, 0.0, 0.0, 0.0, 1.7632264158501415E9, 0.0, 2025-11-15 12:06:55.850
48.0, 3402.5871589863673, 524.3134043379687, -40.33482102211565, -24.206502463202924, -0.01600000075995922, 0.33600001595914364, 0.9920000471174717, 0.0, 0.0, 0.0, 0.0, 0.0, 1.7632264158501415E9, 0.0, 2025-11-15 12:06:55.850
49.0, 3255.7212877264246, 417.1016923082061, -104.07393596693873, -88.24106950452551, -0.01600000075995922, 0.33600001595914364, 0.9920000471174717, 0.0, 0.0, 0.0, 0.0, 0.0, 1.7632264158638308E9, 0.0, 2025-11-15 12:06:55.863
49.0, 3206.728598306887, 366.7476793047972, -164.09185045585036, -132.4504268807359, -0.01600000075995922, 0.33600001595914364, 0.9920000471174717, 0.0, 0.0, 0.0, 0.0, 0.0, 1.7632264158638308E9, 0.0, 2025-11-15 12:06:55.863
50.0, 3356.5639501316473, 494.435343591962, -63.761554344557226, -40.93507496500388, -0.01600000075995922, 0.33600001595914364, 0.9760000463575125, 0.0, 0.0, 0.0, 0.0, 0.0, 1.7632264158794808E9, 0.0, 2025-11-15 12:06:55.879
50.0, 3338.0477054510266, 489.4014382516034, -46.99558284319937, -21.364178496878594, -0.01600000075995922, 0.33600001595914364, 0.9760000463575125, 0.0, 0.0, 0.0, 0.0, 0.0, 1.7632264158794808E9, 0.0, 2025-11-15 12:06:55.879
51.0, 3211.4745313506573, 364.2307266346179, -166.68360112514347, -143.17272005369887, -0.01600000075995922, 0.33600001595914364, 0.9760000463575125, 0.0, 0.0, 0.0, 0.0, 0.0, 1.7632264158801508E9, 0.0, 2025-11-15 12:06:55.880
51.0, 3287.772230346687, 432.0014537316747, -125.03607521858066, -102.72570203291252, -0.01600000075995922, 0.33600001595914364, 0.9760000463575125, 0.0, 0.0, 0.0, 0.0, 0.0, 1.7632264158801508E9, 0.0, 2025-11-15 12:06:55.880
52.0, 3386.247536079958, 519.5674712941982, -25.81278949417174, -11.46092341421172, -0.03200000151991844, 0.33600001595914364, 0.9760000463575125, 0.0, 0.0, 0.0, 0.0, 0.0, 1.7632264158938727E9, 0.0, 2025-11-15 12:06:55.893
52.0, 3216.8525074869394, 373.9432468195446, -145.94211597088724, -121.69447460817173, -0.03200000151991844, 0.33600001595914364, 0.9760000463575125, 0.0, 0.0, 0.0, 0.0, 0.0, 1.7632264158938727E9, 0.0, 2025-11-15 12:06:55.893
53.0, 3246.1621034396812, 386.1689797746949, -151.76514020189643, -133.65093476651236, -0.03200000151991844, 0.33600001595914364, 0.9760000463575125, 0.0, 0.0, 0.0, 0.0, 0.0, 1.763226415909433E9, 0.0, 2025-11-15 12:06:55.909
53.0, 3420.740633371286, 541.6927194320597, -20.685386654920876, -0.5890342430211604, -0.03200000151991844, 0.33600001595914364, 0.9760000463575125, 0.0, 0.0, 0.0, 0.0, 0.0, 1.763226415909433E9, 0.0, 2025-11-15 12:06:55.909
54.0, 3256.6861819149926, 415.48605552734807, -109.51549040246755, -84.6133665475063, -0.03200000151991844, 0.33600001595914364, 0.9760000463575125, 0.0, 0.0, 0.0, 0.0, 0.0, 1.7632264159101443E9, 0.0, 2025-11-15 12:06:55.910
54.0, 3215.423865703866, 375.81319679738954, -159.2972987126559, -131.27983819460496, -0.03200000151991844, 0.33600001595914364, 0.9760000463575125, 0.0, 0.0, 0.0, 0.0, 0.0, 1.7632264159101443E9, 0.0, 2025-11-15 12:06:55.910
55.0, 3368.8009027866647, 503.1455705887638, -65.19767592754215, -48.51211227523163, -0.03200000151991844, 0.33600001595914364, 0.9760000463575125, 0.0, 0.0, 0.0, 0.0, 0.0, 1.7632264159238155E9, 0.0, 2025-11-15 12:06:55.923
55.0, 3326.3380786897615, 474.00053023407236, -63.510981047526, -48.88236237084493, -0.03200000151991844, 0.33600001595914364, 0.9760000463575125, 0.0, 0.0, 0.0, 0.0, 0.0, 1.7632264159238155E9, 0.0, 2025-11-15 12:06:55.923
56.0, 3231.1688445173204, 390.21555152675137, -142.48644841182977, -121.64585590874776, -0.03200000151991844, 0.33600001595914364, 0.9760000463575125, 0.0, 0.0, 0.0, 0.0, 0.0, 1.7632264159394438E9, 0.0, 2025-11-15 12:06:55.939
56.0, 3285.2103988770396, 430.333458351437, -122.44058464933187, -97.03731420030817, -0.03200000151991844, 0.33600001595914364, 0.9760000463575125, 0.0, 0.0, 0.0, 0.0, 0.0, 1.7632264159394438E9, 0.0, 2025-11-15 12:06:55.939
57.0, 3396.633238256909, 532.2532119438984, -19.36520197056234, -0.19634474767372012, -0.03200000151991844, 0.33600001595914364, 0.9760000463575125, 0.0, 0.0, 0.0, 0.0, 0.0, 1.7632264159401765E9, 0.0, 2025-11-15 12:06:55.940
57.0, 3222.4473978206515, 389.32919523725286, -137.4001844720915, -113.64994980348274, -0.03200000151991844, 0.33600001595914364, 0.9760000463575125, 0.0, 0.0, 0.0, 0.0, 0.0, 1.7632264159401765E9, 0.0, 2025-11-15 12:06:55.940
58.0, 3248.780033408664, 394.4341586767696, -149.0761521337554, -128.62076932610944, -0.03200000151991844, 0.33600001595914364, 0.9760000463575125, 0.0, 0.0, 0.0, 0.0, 0.0, 1.7632264159538083E9, 0.0, 2025-11-15 12:06:55.953
58.0, 3418.5640115970746, 537.7321653789841, -19.36894187051803, 8.188510952983052, -0.03200000151991844, 0.33600001595914364, 0.9760000463575125, 0.0, 0.0, 0.0, 0.0, 0.0, 1.7632264159538083E9, 0.0, 2025-11-15 12:06:55.953
59.0, 3258.645889491774, 416.90721751051024, -106.75170433521271, -80.66777209425345, -0.03200000151991844, 0.33600001595914364, 0.9760000463575125, 0.0, 0.0, 0.0, 0.0, 0.0, 1.7632264159694488E9, 0.0, 2025-11-15 12:06:55.969
59.0, 3212.84333473444, 368.8233237802051, -161.73571348376572, -145.46901862649247, -0.03200000151991844, 0.33600001595914364, 0.9760000463575125, 0.0, 0.0, 0.0, 0.0, 0.0, 1.7632264159694488E9, 0.0, 2025-11-15 12:06:55.969
60.0, 3349.259925518185, 480.698691054713, -74.25197372026742, -55.46084639290348, -0.03200000151991844, 0.33600001595914364, 0.9760000463575125, 0.0, 0.0, 0.0, 0.0, 0.0, 1.7632264159701357E9, 0.0, 2025-11-15 12:06:55.970
60.0, 3325.208628903143, 480.8445471529849, -46.902085344307125, -26.37938433745876, -0.03200000151991844, 0.33600001595914364, 0.9760000463575125, 0.0, 0.0, 0.0, 0.0, 0.0, 1.7632264159701357E9, 0.0, 2025-11-15 12:06:55.970
61.0, 3223.214077311568, 389.677005933132, -138.66427065711468, -126.59000365016982, -0.03200000151991844, 0.33600001595914364, 0.9760000463575125, 0.0, 0.0, 0.0, 0.0, 0.0, 1.7632264159837573E9, 0.0, 2025-11-15 12:06:55.983
61.0, 3274.1028960086405, 420.60223866673186, -128.1364522818476, -105.0294804056175, -0.03200000151991844, 0.33600001595914364, 0.9760000463575125, 0.0, 0.0, 0.0, 0.0, 0.0, 1.7632264159837573E9, 0.0, 2025-11-15 12:06:55.983
62.0, 3396.550960457884, 539.3515420597978, -11.223439767025411, 1.3594536338932812, -0.03200000151991844, 0.33600001595914364, 0.9760000463575125, 0.0, 0.0, 0.0, 0.0, 0.0, 1.7632264159994993E9, 0.0, 2025-11-15 12:06:55.999
62.0, 3230.536801424809, 388.6821925449185, -136.25577508565038, -121.99740650458261, -0.03200000151991844, 0.33600001595914364, 0.9760000463575125, 0.0, 0.0, 0.0, 0.0, 0.0, 1.7632264159994993E9, 0.0, 2025-11-15 12:06:55.999
63.0, 3241.532107294537, 388.8355284431018, -147.90182354766876, -115.57973818061873, -0.03200000151991844, 0.33600001595914364, 0.9760000463575125, 0.0, 0.0, 0.0, 0.0, 0.0, 1.7632264160001507E9, 0.0, 2025-11-15 12:06:56.000
63.0, 3382.5375553239137, 515.1506494465284, -38.36389374546707, -14.594959577079862, -0.03200000151991844, 0.33600001595914364, 0.9760000463575125, 0.0, 0.0, 0.0, 0.0, 0.0, 1.7632264160001507E9, 0.0, 2025-11-15 12:06:56.000
64.0, 3272.214246531017, 433.2917192163877, -88.51595215126872, -60.3077567354776, -0.03200000151991844, 0.33600001595914364, 0.9760000463575125, 0.0, 0.0, 0.0, 0.0, 0.0, 1.7632264160137703E9, 0.0, 2025-11-15 12:06:56.013
64.0, 3213.4005798278376, 373.14664812898263, -161.15976889058948, -138.153774313163, -0.03200000151991844, 0.33600001595914364, 0.9760000463575125, 0.0, 0.0, 0.0, 0.0, 0.0, 1.7632264160137703E9, 0.0, 2025-11-15 12:06:56.013
65.0, 3342.2588328011334, 469.84924128325656, -93.25066549517214, -78.58838771888986, -0.03200000151991844, 0.33600001595914364, 0.9760000463575125, 0.0, 0.0, 0.0, 0.0, 0.0, 1.7632264160294747E9, 0.0, 2025-11-15 12:06:56.029
65.0, 3324.681303009391, 477.11212699720636, -57.02225462440401, -39.016506287734956, -0.03200000151991844, 0.33600001595914364, 0.9760000463575125, 0.0, 0.0, 0.0, 0.0, 0.0, 1.7632264160294747E9, 0.0, 2025-11-15 12:06:56.029
