%OpenBCI Raw EXG Data
%Number of channels = 4
%Sample Rate = 200 Hz
%Board = OpenBCI_GUI$BoardGanglionBLE
Sample Index, EXG Channel 0, EXG Channel 1, EXG Channel 2, EXG Channel 3, Accel Channel 0, Accel Channel 1, Accel Channel 2, Other, Other, Other, Other, Other, Timestamp, Marker Channel, Timestamp (Formatted)
98.0, 42.806894892826676, 34.64269328955561, 37.03622926119715, 49.10862631816417, 0.0, 0.0, 0.0, 0.0, 0.0, 0.0, 0.0, 0.0, 1.763228679338122E9, 0.0, 2025-11-15 12:44:39.338
98.0, -28.064209267497063, -19.967325863428414, -10.976606369949877, -37.200784859247506, 0.0, 0.0, 0.0, 0.0, 0.0, 0.0, 0.0, 0.0, 1.763228679338122E9, 0.0, 2025-11-15 12:44:39.338
0.0, -152.7375141903758, -81.69250468211249, -127.38286244077608, -84.59092714777216, 0.0, 0.0, 0.0, 0.0, 0.0, 0.0, 0.0, 0.0, 1.7632286793601308E9, 0.0, 2025-11-15 12:44:39.360
1.0, -222.33705236576498, -129.53704481525347, -169.45673694228753, -158.44647147273645, 0.0, 0.04800000227987766, 0.0, 0.0, 0.0, 0.0, 0.0, 0.0, 1.7632286793735168E9, 0.0, 2025-11-15 12:44:39.373
1.0, -217.66965722106397, -131.29479779442772, -175.63505166908726, -163.03532871836796, 0.0, 0.04800000227987766, 0.0, 0.0, 0.0, 0.0, 0.0, 0.0, 1.7632286793735168E9, 0.0, 2025-11-15 12:44:39.373
2.0, -160.82691779453307, -85.8737128325738, -135.50966504449025, -90.14467858197168, -0.03200000151991844, 0.04800000227987766, 0.0, 0.0, 0.0, 0.0, 0.0, 0.0, 1.763228679390232E9, 0.0, 2025-11-15 12:44:39.390
2.0, -196.47938407212496, -107.58383207535371, -148.28142339317128, -138.66988050704822, -0.03200000151991844, 0.04800000227987766, 0.0, 0.0, 0.0, 0.0, 0.0, 0.0, 1.763228679390232E9, 0.0, 2025-11-15 12:44:39.390
3.0, -230.35913777071983, -137.33473622286692, -177.33670614892617, -175.78464766731486, -0.03200000151991844, 0.04800000227987766, 0.0, 0.0, 0.0, 0.0, 0.0, 0.0, 1.7632286793909729E9, 0.0, 2025-11-15 12:44:39.390
3.0, -182.58939563669264, -100.22370896255597, -147.24921100540087, -116.43617527047172, -0.03200000151991844, 0.04800000227987766, 0.0, 0.0, 0.0, 0.0, 0.0, 0.0, 1.7632286793909729E9, 0.0, 2025-11-15 12:44:39.390
4.0, -166.5938435262069, -87.97553660767153, -133.10116947302595, -99.9544361657463, -0.03200000151991844, 0.04800000227987766, 0.0, 0.0, 0.0, 0.0, 0.0, 0.0, 1.7632286794033432E9, 0.0, 2025-11-15 12:44:39.403
4.0, -229.98140787519515, -143.91696014488116, -185.48968805233017, -181.19628290319815, -0.03200000151991844, 0.04800000227987766, 0.0, 0.0, 0.0, 0.0, 0.0, 0.0, 1.7632286794033432E9, 0.0, 2025-11-15 12:44:39.403
5.0, -204.6884644748643, -129.21915331901982, -176.16611746279523, -150.89561346219853, -0.03200000151991844, 0.04800000227987766, 0.0, 0.0, 0.0, 0.0, 0.0, 0.0, 1.763228679419083E9, 0.0, 2025-11-15 12:44:39.419
5.0, -153.30223908368498, -77.95260472642258, -130.71885320125148, -76.74461704073474, -0.03200000151991844, 0.04800000227987766, 0.0, 0.0, 0.0, 0.0, 0.0, 0.0, 1.763228679419083E9, 0.0, 2025-11-15 12:44:39.419
6.0, -222.72226206120104, -132.1213156846352, -168.16273155761883, -162.67255842266604, -0.03200000151991844, 0.04800000227987766, 0.0, 0.0, 0.0, 0.0, 0.0, 0.0, 1.7632286794197826E9, 0.0, 2025-11-15 12:44:39.419
6.0, -220.01831439323723, -129.06207752088085, -175.67245066864416, -162.56036142399535, -0.03200000151991844, 0.04800000227987766, 0.0, 0.0, 0.0, 0.0, 0.0, 0.0, 1.7632286794197826E9, 0.0, 2025-11-15 12:44:39.419
7.0, -159.94804130494595, -88.23732960456982, -145.18478622986004, -105.7363214972429, -0.03200000151991844, 0.04800000227987766, 0.0, 0.0, 0.0, 0.0, 0.0, 0.0, 1.7632286794333324E9, 0.0, 2025-11-15 12:44:39.433
7.0, -188.22542486991733, -106.16267009219155, -149.1266407831572, -138.55768350837752, -0.03200000151991844, 0.04800000227987766, 0.0, 0.0, 0.0, 0.0, 0.0, 0.0, 1.7632286794333324E9, 0.0, 2025-11-15 12:44:39.433
8.0, -229.90660987608135, -135.99959193868563, -181.439376400318, -181.31595970178023, -0.03200000151991844, 0.04800000227987766, 0.0, 0.0, 0.0, 0.0, 0.0, 0.0, 1.763228679449067E9, 0.0, 2025-11-15 12:44:39.449
8.0, -176.13058841321617, -103.70181592134759, -154.89356651483104, -117.8535973536782, -0.03200000151991844, 0.04800000227987766, 0.0, 0.0, 0.0, 0.0, 0.0, 0.0, 1.763228679449067E9, 0.0, 2025-11-15 12:44:39.449
9.0, -170.90220827516168, -96.34169280854985, -138.54272390855476, -106.23372819134966, -0.03200000151991844, 0.04800000227987766, 0.0, 0.0, 0.0, 0.0, 0.0, 0.0, 1.7632286794497843E9, 0.0, 2025-11-15 12:44:39.449
9.0, -217.07501312810928, -135.03469775011763, -181.40945720067248, -170.33935333183035, -0.03200000151991844, 0.04800000227987766, 0.0, 0.0, 0.0, 0.0, 0.0, 0.0, 1.7632286794497843E9, 0.0, 2025-11-15 12:44:39.449
10.0, -192.82176191546023, -119.1513426383026, -168.43948415433988, -144.09647534275427, -0.03200000151991844, 0.04800000227987766, 0.5280000250786543, 0.0, 0.0, 0.0, 0.0, 0.0, 1.7632286794633353E9, 0.0, 2025-11-15 12:44:39.463
10.0, -154.001600375399, -79.61686020670459, -127.6334357378073, -81.53168898401782, -0.03200000151991844, 0.04800000227987766, 0.5280000250786543, 0.0, 0.0, 0.0, 0.0, 0.0, 1.7632286794633353E9, 0.0, 2025-11-15 12:44:39.463
11.0, -213.11445907503366, -124.31614447711036, -167.63540566386655, -160.1668254523538, -0.03200000151991844, 0.06400000303983688, 0.5280000250786543, 0.0, 0.0, 0.0, 0.0, 0.0, 1.7632286794790812E9, 0.0, 2025-11-15 12:44:39.479
11.0, -216.2110962383449, -130.94324719859287, -180.1079720160924, -171.27806822070852, -0.03200000151991844, 0.06400000303983688, 0.5280000250786543, 0.0, 0.0, 0.0, 0.0, 0.0, 1.7632286794790812E9, 0.0, 2025-11-15 12:44:39.479
12.0, -159.17762191407382, -94.00425533624366, -149.96063847327605, -102.34797213738784, -0.04800000227987766, 0.06400000303983688, 0.5280000250786543, 0.0, 0.0, 0.0, 0.0, 0.0, 1.76322867947978E9, 0.0, 2025-11-15 12:44:39.479
12.0, -187.61582117713988, -116.30901867197827, -159.2430701632984, -140.0499035906978, -0.04800000227987766, 0.06400000303983688, 0.5280000250786543, 0.0, 0.0, 0.0, 0.0, 0.0, 1.76322867947978E9, 0.0, 2025-11-15 12:44:39.479
13.0, -228.7397610899061, -146.51993051404133, -186.08433214528486, -164.25827600387856, -0.04800000227987766, 0.06400000303983688, 0.5280000250786543, 0.0, 0.0, 0.0, 0.0, 0.0, 1.7632286794933336E9, 0.0, 2025-11-15 12:44:39.493
13.0, -181.07473615463823, -110.69168893853202, -160.73529024561867, -118.63523644441739, -0.04800000227987766, 0.06400000303983688, 0.5280000250786543, 0.0, 0.0, 0.0, 0.0, 0.0, 1.7632286794933336E9, 0.0, 2025-11-15 12:44:39.493
14.0, -165.95058073382825, -102.00390134146437, -147.0472564077936, -116.10706407437101, -0.04800000227987766, 0.06400000303983688, 0.5280000250786543, 0.0, 0.0, 0.0, 0.0, 0.0, 1.763228679509076E9, 0.0, 2025-11-15 12:44:39.509
14.0, -217.38168492447585, -139.99006519140676, -184.75292776105925, -181.1065253042616, -0.04800000227987766, 0.06400000303983688, 0.5280000250786543, 0.0, 0.0, 0.0, 0.0, 0.0, 1.763228679509076E9, 0.0, 2025-11-15 12:44:39.509
15.0, -210.82190040219575, -134.35777585813776, -183.1821697796695, -155.1329201119952, -0.04800000227987766, 0.06400000303983688, 0.5280000250786543, 0.0, 0.0, 0.0, 0.0, 0.0, 1.763228679509802E9, 0.0, 2025-11-15 12:44:39.509
15.0, -153.7024083789438, -92.36617915565148, -144.0889955428429, -96.12103871116415, -0.04800000227987766, 0.06400000303983688, 0.5280000250786543, 0.0, 0.0, 0.0, 0.0, 0.0, 1.763228679509802E9, 0.0, 2025-11-15 12:44:39.509
16.0, -209.45309701841325, -130.09428990865126, -173.27517479704693, -160.4697573487647, -0.04800000227987766, 0.06400000303983688, 0.5280000250786543, 0.0, 0.0, 0.0, 0.0, 0.0, 1.7632286795233753E9, 0.0, 2025-11-15 12:44:39.523
16.0, -220.11929169204086, -138.3407693109475, -186.4732817406766, -170.2084568333812, -0.04800000227987766, 0.06400000303983688, 0.5280000250786543, 0.0, 0.0, 0.0, 0.0, 0.0, 1.7632286795233753E9, 0.0, 2025-11-15 12:44:39.523
17.0, -149.2893264312297, -89.77068858640268, -141.9348131683655, -85.33890713891014, -0.04800000227987766, 0.06400000303983688, 0.5280000250786543, 0.0, 0.0, 0.0, 0.0, 0.0, 1.76322867953908E9, 0.0, 2025-11-15 12:44:39.539
17.0, -171.80352416448295, -114.15109639754519, -156.06789510091767, -133.7444322654046, -0.04800000227987766, 0.06400000303983688, 0.5280000250786543, 0.0, 0.0, 0.0, 0.0, 0.0, 1.76322867953908E9, 0.0, 2025-11-15 12:44:39.539
18.0, -235.79321240633726, -147.8251555985771, -187.98046142281964, -174.27746798517182, -0.04800000227987766, 0.06400000303983688, 0.5280000250786543, 0.0, 0.0, 0.0, 0.0, 0.0, 1.763228679539821E9, 0.0, 2025-11-15 12:44:39.539
18.0, -186.52003049012274, -115.10103098629043, -163.12508631730452, -124.5218389746733, -0.04800000227987766, 0.06400000303983688, 0.5280000250786543, 0.0, 0.0, 0.0, 0.0, 0.0, 1.763228679539821E9, 0.0, 2025-11-15 12:44:39.539
19.0, -168.27305860631168, -105.73258159728721, -152.15969964722171, -109.775413449388, -0.04800000227987766, 0.06400000303983688, 0.5280000250786543, 0.0, 0.0, 0.0, 0.0, 0.0, 1.7632286795535293E9, 0.0, 2025-11-15 12:44:39.553
19.0, -232.80129244178534, -151.348141356837, -190.8863636883907, -186.20026904391125, -0.04800000227987766, 0.06400000303983688, 0.5280000250786543, 0.0, 0.0, 0.0, 0.0, 0.0, 1.7632286795535293E9, 0.0, 2025-11-15 12:44:39.553
20.0, -210.33571340795606, -130.374782405328, -174.24380888557062, -142.11058846628293, -0.04800000227987766, 0.06400000303983688, 0.7840000372380018, 0.0, 0.0, 0.0, 0.0, 0.0, 1.763228679569173E9, 0.0, 2025-11-15 12:44:39.569
20.0, -159.850803906098, -97.26918799756095, -144.53404363757, -90.15215838188305, -0.04800000227987766, 0.06400000303983688, 0.7840000372380018, 0.0, 0.0, 0.0, 0.0, 0.0, 1.763228679569173E9, 0.0, 2025-11-15 12:44:39.569
21.0, -216.89549793023616, -141.61692167213187, -181.173843503464, -173.72396279172972, -0.04800000227987766, 0.0800000037997961, 0.7840000372380018, 0.0, 0.0, 0.0, 0.0, 0.0, 1.7632286795697975E9, 0.0, 2025-11-15 12:44:39.569
21.0, -232.1094109499827, -149.95315867336467, -193.0704652625136, -174.85715247830376, -0.04800000227987766, 0.0800000037997961, 0.7840000372380018, 0.0, 0.0, 0.0, 0.0, 0.0, 1.7632286795697975E9, 0.0, 2025-11-15 12:44:39.569
22.0, -164.52941875066608, -103.77661392046139, -158.45395127264783, -102.76684093242511, -0.06400000303983688, 0.0800000037997961, 0.7840000372380018, 0.0, 0.0, 0.0, 0.0, 0.0, 1.7632286795834007E9, 0.0, 2025-11-15 12:44:39.583
22.0, -191.9054864263162, -117.20659466134384, -157.56011518323794, -133.57239686744288, -0.06400000303983688, 0.0800000037997961, 0.7840000372380018, 0.0, 0.0, 0.0, 0.0, 0.0, 1.7632286795834007E9, 0.0, 2025-11-15 12:44:39.583
23.0, -230.7032085666433, -142.69401285937056, -192.34866457106546, -175.50415517063811, -0.06400000303983688, 0.0800000037997961, 0.7840000372380018, 0.0, 0.0, 0.0, 0.0, 0.0, 1.7632286795991492E9, 0.0, 2025-11-15 12:44:39.599
23.0, -190.61522094160318, -116.2566600725986, -171.62587891658768, -129.90729491086677, -0.06400000303983688, 0.0800000037997961, 0.7840000372380018, 0.0, 0.0, 0.0, 0.0, 0.0, 1.7632286795991492E9, 0.0, 2025-11-15 12:44:39.599
24.0, -169.69048068951815, -101.78698714403436, -151.74457075214013, -109.87639074819162, -0.06400000303983688, 0.0800000037997961, 0.7840000372380018, 0.0, 0.0, 0.0, 0.0, 0.0, 1.7632286795998144E9, 0.0, 2025-11-15 12:44:39.599
24.0, -224.71562873758376, -144.4592456384562, -190.09350489778444, -172.69923020387068, -0.06400000303983688, 0.0800000037997961, 0.7840000372380018, 0.0, 0.0, 0.0, 0.0, 0.0, 1.7632286795998144E9, 0.0, 2025-11-15 12:44:39.599
25.0, -218.60837210994214, -146.37033451581374, -188.11509782122448, -166.53213517693803, -0.06400000303983688, 0.0800000037997961, 0.7840000372380018, 0.0, 0.0, 0.0, 0.0, 0.0, 1.7632286796134381E9, 0.0, 2025-11-15 12:44:39.613
25.0, -151.88107710052282, -91.8762522614561, -140.7156057828106, -88.8394534974359, -0.06400000303983688, 0.0800000037997961, 0.7840000372380018, 0.0, 0.0, 0.0, 0.0, 0.0, 1.7632286796134381E9, 0.0, 2025-11-15 12:44:39.613
26.0, -222.83445905987173, -142.58929566061124, -182.78948028432205, -170.27203513262793, -0.06400000303983688, 0.0800000037997961, 0.7840000372380018, 0.0, 0.0, 0.0, 0.0, 0.0, 1.7632286796290774E9, 0.0, 2025-11-15 12:44:39.629
26.0, -226.20036901999265, -144.37322793947533, -189.58487850381061, -172.23548260936514, -0.06400000303983688, 0.0800000037997961, 0.7840000372380018, 0.0, 0.0, 0.0, 0.0, 0.0, 1.7632286796290774E9, 0.0, 2025-11-15 12:44:39.629
27.0, -147.07904555741698, -94.38198523176834, -153.77907632803544, -99.60288556991145, -0.06400000303983688, 0.0800000037997961, 0.7840000372380018, 0.0, 0.0, 0.0, 0.0, 0.0, 1.7632286796297848E9, 0.0, 2025-11-15 12:44:39.629
27.0, -209.68123091571033, -122.04976510396227, -161.19155804021284, -138.01539801480249, -0.06400000303983688, 0.0800000037997961, 0.7840000372380018, 0.0, 0.0, 0.0, 0.0, 0.0, 1.7632286796297848E9, 0.0, 2025-11-15 12:44:39.629
28.0, -233.7774063302204, -150.5702421660535, -194.259753448423, -184.57715246314183, -0.06400000303983688, 0.0800000037997961, 0.7840000372380018, 0.0, 0.0, 0.0, 0.0, 0.0, 1.7632286796434207E9, 0.0, 2025-11-15 12:44:39.643
28.0, -195.3910731850192, -122.4125353996642, -174.00071538845077, -130.8534895996563, -0.06400000303983688, 0.0800000037997961, 0.7840000372380018, 0.0, 0.0, 0.0, 0.0, 0.0, 1.7632286796434207E9, 0.0, 2025-11-15 12:44:39.643
29.0, -172.53280465584248, -107.86058467207476, -155.0169832133688, -114.50638689333573, -0.06400000303983688, 0.0800000037997961, 0.7840000372380018, 0.0, 0.0, 0.0, 0.0, 0.0, 1.7632286796590858E9, 0.0, 2025-11-15 12:44:39.659
29.0, -233.53057293314487, -149.34355498058721, -194.61878384416923, -184.86886465968564, -0.06400000303983688, 0.0800000037997961, 0.7840000372380018, 0.0, 0.0, 0.0, 0.0, 0.0, 1.7632286796590858E9, 0.0, 2025-11-15 12:44:39.659
30.0, -213.12193887494504, -132.84685627603903, -184.45373576460406, -160.32390125049278, -0.06400000303983688, 0.0800000037997961, 0.9120000433176756, 0.0, 0.0, 0.0, 0.0, 0.0, 1.7632286796597936E9, 0.0, 2025-11-15 12:44:39.659
30.0, -161.01017289236188, -98.69782978063449, -151.15740645909682, -100.9529894539155, -0.06400000303983688, 0.0800000037997961, 0.9120000433176756, 0.0, 0.0, 0.0, 0.0, 0.0, 1.7632286796597936E9, 0.0, 2025-11-15 12:44:39.659
31.0, -214.5057018585503, -132.70100017776713, -179.30389352561906, -167.33247376745567, -0.06400000303983688, 0.0800000037997961, 0.9120000433176756, 0.0, 0.0, 0.0, 0.0, 0.0, 1.7632286796734304E9, 0.0, 2025-11-15 12:44:39.673
31.0, -221.63769107405096, -145.28202362870798, -197.46858761040494, -179.2477950262837, -0.06400000303983688, 0.0800000037997961, 0.9120000433176756, 0.0, 0.0, 0.0, 0.0, 0.0, 1.7632286796734304E9, 0.0, 2025-11-15 12:44:39.673
32.0, -166.51156572718173, -100.31346656149253, -160.69415134610608, -106.77975358488038, -0.06400000303983688, 0.0800000037997961, 0.9120000433176756, 0.0, 0.0, 0.0, 0.0, 0.0, 1.7632286796890855E9, 0.0, 2025-11-15 12:44:39.689
32.0, -200.84758722037077, -126.77699864795431, -168.82095394982025, -147.7166984998621, -0.06400000303983688, 0.0800000037997961, 0.9120000433176756, 0.0, 0.0, 0.0, 0.0, 0.0, 1.7632286796890855E9, 0.0, 2025-11-15 12:44:39.689
33.0, -234.0391993271187, -154.25404362240806, -197.39752951124683, -181.49173499969766, -0.06400000303983688, 0.0800000037997961, 0.9120000433176756, 0.0, 0.0, 0.0, 0.0, 0.0, 1.7632286796898117E9, 0.0, 2025-11-15 12:44:39.689
33.0, -192.41411282029003, -120.59120412124321, -172.6169524048455, -134.35403595818207, -0.06400000303983688, 0.0800000037997961, 0.9120000433176756, 0.0, 0.0, 0.0, 0.0, 0.0, 1.7632286796898117E9, 0.0, 2025-11-15 12:44:39.689
34.0, -176.0857096137479, -111.95203522359952, -159.68063845811412, -117.7040013554506, -0.06400000303983688, 0.0800000037997961, 0.9120000433176756, 0.0, 0.0, 0.0, 0.0, 0.0, 1.7632286797034185E9, 0.0, 2025-11-15 12:44:39.703
34.0, -230.61719086766243, -147.18937260610983, -194.08397815050557, -180.05935331666842, -0.06400000303983688, 0.0800000037997961, 0.9120000433176756, 0.0, 0.0, 0.0, 0.0, 0.0, 1.7632286797034185E9, 0.0, 2025-11-15 12:44:39.703
35.0, -220.08563259243965, -144.0141975437291, -198.64291619649157, -174.79731407901272, -0.06400000303983688, 0.0800000037997961, 0.9120000433176756, 0.0, 0.0, 0.0, 0.0, 0.0, 1.763228679719086E9, 0.0, 2025-11-15 12:44:39.719
35.0, -164.78747184760869, -98.6604307810776, -156.44188509648666, -101.97772204177454, -0.06400000303983688, 0.0800000037997961, 0.9120000433176756, 0.0, 0.0, 0.0, 0.0, 0.0, 1.763228679719086E9, 0.0, 2025-11-15 12:44:39.719
36.0, -229.6261173794046, -141.31772967567667, -189.37544410629198, -175.90806436585262, -0.06400000303983688, 0.0800000037997961, 0.9120000433176756, 0.0, 0.0, 0.0, 0.0, 0.0, 1.763228679719796E9, 0.0, 2025-11-15 12:44:39.719
36.0, -232.43478224612772, -152.99743723729625, -201.28702546516433, -173.96331638889387, -0.06400000303983688, 0.0800000037997961, 0.9120000433176756, 0.0, 0.0, 0.0, 0.0, 0.0, 1.763228679719796E9, 0.0, 2025-11-15 12:44:39.719
37.0, -175.83513631671667, -111.18535573268309, -163.18492471659556, -108.09245846932754, -0.06400000303983688, 0.0800000037997961, 0.9120000433176756, 0.0, 0.0, 0.0, 0.0, 0.0, 1.7632286797334552E9, 0.0, 2025-11-15 12:44:39.733
37.0, -199.74805663339794, -129.10695632034913, -173.3649323959835, -148.78630988718942, -0.06400000303983688, 0.0800000037997961, 0.9120000433176756, 0.0, 0.0, 0.0, 0.0, 0.0, 1.7632286797334552E9, 0.0, 2025-11-15 12:44:39.733
38.0, -234.13269682601094, -159.71055765775964, -207.69721398921683, -186.27506704302505, -0.06400000303983688, 0.0800000037997961, 0.9120000433176756, 0.0, 0.0, 0.0, 0.0, 0.0, 1.7632286797490866E9, 0.0, 2025-11-15 12:44:39.749
38.0, -183.40843372698873, -124.26004597777501, -178.61201203381643, -130.38974200515077, -0.06400000303983688, 0.0800000037997961, 0.9120000433176756, 0.0, 0.0, 0.0, 0.0, 0.0, 1.7632286797490866E9, 0.0, 2025-11-15 12:44:39.749
39.0, -182.8324891338125, -116.16690247366205, -159.18697166396305, -115.70689477911219, -0.06400000303983688, 0.0800000037997961, 0.9120000433176756, 0.0, 0.0, 0.0, 0.0, 0.0, 1.76322867974987E9, 0.0, 2025-11-15 12:44:39.749
39.0, -238.86741016991436, -152.58978814212605, -199.37967648776248, -183.6272178743966, -0.06400000303983688, 0.0800000037997961, 0.9120000433176756, 0.0, 0.0, 0.0, 0.0, 0.0, 1.76322867974987E9, 0.0, 2025-11-15 12:44:39.749
40.0, -221.4357364764437, -141.35138877527788, -189.75317400181666, -162.99044991889969, -0.06400000303983688, 0.0800000037997961, 0.9760000463575125, 0.0, 0.0, 0.0, 0.0, 0.0, 1.7632286797962716E9, 0.0, 2025-11-15 12:44:39.796
40.0, -162.93622136954218, -102.0300806411542, -157.03278928948566, -96.96999600110576, -0.06400000303983688, 0.0800000037997961, 0.9760000463575125, 0.0, 0.0, 0.0, 0.0, 0.0, 1.7632286797962716E9, 0.0, 2025-11-15 12:44:39.796
41.0, -220.63913778588176, -142.3499420634471, -189.16600970877334, -175.03666767617688, -0.06400000303983688, 0.0800000037997961, 0.9760000463575125, 0.0, 0.0, 0.0, 0.0, 0.0, 1.763228679796824E9, 0.0, 2025-11-15 12:44:39.796
41.0, -231.17443596106023, -150.35706786857918, -204.55195812648162, -182.9914348819293, -0.06400000303983688, 0.0800000037997961, 0.9760000463575125, 0.0, 0.0, 0.0, 0.0, 0.0, 1.763228679796824E9, 0.0, 2025-11-15 12:44:39.796
42.0, -175.7865176172927, -110.30273934314027, -171.2444091211073, -112.7411541142501, -0.06400000303983688, 0.0800000037997961, 0.9760000463575125, 0.0, 0.0, 0.0, 0.0, 0.0, 1.7632286797975705E9, 0.0, 2025-11-15 12:44:39.797
42.0, -198.34185425005853, -118.6314965444617, -167.9532971601002, -141.5271640731953, -0.06400000303983688, 0.0800000037997961, 0.9760000463575125, 0.0, 0.0, 0.0, 0.0, 0.0, 1.7632286797975705E9, 0.0, 2025-11-15 12:44:39.797
43.0, -230.8528045648709, -150.0915349717252, -190.4824544931762, -182.09011899260804, -0.06400000303983688, 0.0800000037997961, 0.9760000463575125, 0.0, 0.0, 0.0, 0.0, 0.0, 1.7632286797983067E9, 0.0, 2025-11-15 12:44:39.798
43.0, -184.8707346096635, -117.14301636209711, -166.59571347618476, -126.298291453626, -0.06400000303983688, 0.0800000037997961, 0.9760000463575125, 0.0, 0.0, 0.0, 0.0, 0.0, 1.7632286797983067E9, 0.0, 2025-11-15 12:44:39.798
44.0, -174.80292392894626, -108.17099636839703, -155.55178890703246, -112.64391671540216, -0.06400000303983688, 0.0800000037997961, 0.9760000463575125, 0.0, 0.0, 0.0, 0.0, 0.0, 1.7632286798090994E9, 0.0, 2025-11-15 12:44:39.809
44.0, -230.82662526518106, -150.3084491691552, -189.61853760341182, -174.59535948140547, -0.06400000303983688, 0.0800000037997961, 0.9760000463575125, 0.0, 0.0, 0.0, 0.0, 0.0, 1.7632286798090994E9, 0.0, 2025-11-15 12:44:39.809
45.0, -212.26550178509206, -143.03060385538265, -190.9948207871057, -159.90129255549982, -0.06400000303983688, 0.0800000037997961, 0.9760000463575125, 0.0, 0.0, 0.0, 0.0, 0.0, 1.7632286798098009E9, 0.0, 2025-11-15 12:44:39.809
45.0, -157.79385893046856, -99.06060007633641, -151.613674253691, -94.31840693252161, -0.06400000303983688, 0.0800000037997961, 0.9760000463575125, 0.0, 0.0, 0.0, 0.0, 0.0, 1.7632286798098009E9, 0.0, 2025-11-15 12:44:39.809
46.0, -206.2143436567858, -130.66649460187182, -174.8047938789241, -159.78535565687343, -0.06400000303983688, 0.0800000037997961, 0.9760000463575125, 0.0, 0.0, 0.0, 0.0, 0.0, 1.7632286798235116E9, 0.0, 2025-11-15 12:44:39.823
46.0, -224.2518811430782, -140.192019789014, -190.09350489778444, -173.27143489709124, -0.06400000303983688, 0.0800000037997961, 0.9760000463575125, 0.0, 0.0, 0.0, 0.0, 0.0, 1.7632286798235116E9, 0.0, 2025-11-15 12:44:39.823
47.0, -163.02223906852305, -92.92342424904928, -150.7198381642811, -98.46969588333741, -0.06400000303983688, 0.0800000037997961, 0.9760000463575125, 0.0, 0.0, 0.0, 0.0, 0.0, 1.7632286798391178E9, 0.0, 2025-11-15 12:44:39.839
47.0, -187.7915964750573, -107.85684477211908, -155.06560191279277, -130.2289263070561, -0.06400000303983688, 0.0800000037997961, 0.9760000463575125, 0.0, 0.0, 0.0, 0.0, 0.0, 1.7632286798391178E9, 0.0, 2025-11-15 12:44:39.839
48.0, -217.15729092713445, -134.99355885060504, -180.78863380802795, -169.08274694671854, -0.06400000303983688, 0.0800000037997961, 0.9760000463575125, 0.0, 0.0, 0.0, 0.0, 0.0, 1.763228679839839E9, 0.0, 2025-11-15 12:44:39.839
48.0, -163.79265845939517, -100.37330496078357, -154.13436682382599, -119.30467853648588, -0.06400000303983688, 0.0800000037997961, 0.9760000463575125, 0.0, 0.0, 0.0, 0.0, 0.0, 1.763228679839839E9, 0.0, 2025-11-15 12:44:39.839
49.0, -159.37957651168108, -87.31357431551442, -131.09284319682047, -91.12827227031812, -0.06400000303983688, 0.0800000037997961, 0.9760000463575125, 0.0, 0.0, 0.0, 0.0, 0.0, 1.7632286798534184E9, 0.0, 2025-11-15 12:44:39.853
49.0, -208.7612155266106, -119.86940342979506, -161.17659844039008, -155.11422061221674, -0.06400000303983688, 0.0800000037997961, 0.9760000463575125, 0.0, 0.0, 0.0, 0.0, 0.0, 1.7632286798534184E9, 0.0, 2025-11-15 12:44:39.853
50.0, -194.60569419432431, -117.70026145549491, -167.7326430627145, -143.3484953516163, -0.06400000303983688, 0.0800000037997961, 1.008000047877431, 0.0, 0.0, 0.0, 0.0, 0.0, 1.7632286798690915E9, 0.0, 2025-11-15 12:44:39.869
50.0, -146.40960346534848, -85.37256623851135, -133.751912065316, -83.04260856611654, -0.06400000303983688, 0.0800000037997961, 1.008000047877431, 0.0, 0.0, 0.0, 0.0, 0.0, 1.7632286798690915E9, 0.0, 2025-11-15 12:44:39.869
51.0, -193.24811051040888, -110.3289186428301, -152.32425524527207, -141.7104191710241, -0.06400000303983688, 0.0800000037997961, 1.008000047877431, 0.0, 0.0, 0.0, 0.0, 0.0, 1.763228679869789E9, 0.0, 2025-11-15 12:44:39.869
51.0, -200.60823362320662, -118.13408985035494, -161.7226238339208, -150.9778912612237, -0.06400000303983688, 0.0800000037997961, 1.008000047877431, 0.0, 0.0, 0.0, 0.0, 0.0, 1.763228679869789E9, 0.0, 2025-11-15 12:44:39.869
52.0, -122.2797689512372, -72.69056548876688, -129.72777971299365, -85.8363138330169, -0.06400000303983688, 0.0800000037997961, 1.008000047877431, 0.0, 0.0, 0.0, 0.0, 0.0, 1.7632286798834088E9, 0.0, 2025-11-15 12:44:39.883
52.0, -180.57732946053147, -92.23154275724664, -136.44090013345703, -116.96724106417969, -0.06400000303983688, 0.0800000037997961, 1.008000047877431, 0.0, 0.0, 0.0, 0.0, 0.0, 1.7632286798834088E9, 0.0, 2025-11-15 12:44:39.883
53.0, -198.685925045982, -113.0740052103065, -157.26466308673844, -149.900800073985, -0.06400000303983688, 0.0800000037997961, 1.008000047877431, 0.0, 0.0, 0.0, 0.0, 0.0, 1.763228679899096E9, 0.0, 2025-11-15 12:44:39.899
53.0, -160.2995919007808, -86.44591752579436, -139.17102710111067, -107.60627147508785, -0.06400000303983688, 0.0800000037997961, 1.008000047877431, 0.0, 0.0, 0.0, 0.0, 0.0, 1.763228679899096E9, 0.0, 2025-11-15 12:44:39.899
54.0, -147.50913405232131, -72.21185829443857, -123.72524028411135, -90.25687558064237, -0.06400000303983688, 0.0800000037997961, 1.008000047877431, 0.0, 0.0, 0.0, 0.0, 0.0, 1.7632286798997962E9, 0.0, 2025-11-15 12:44:39.899
54.0, -188.3488415684551, -106.42446308908984, -147.07343570748344, -142.30132336402312, -0.06400000303983688, 0.0800000037997961, 1.008000047877431, 0.0, 0.0, 0.0, 0.0, 0.0, 1.7632286798997962E9, 0.0, 2025-11-15 12:44:39.899
55.0, -181.02985735516995, -101.56633304664865, -151.55757575435564, -136.68399363057688, -0.06400000303983688, 0.0800000037997961, 1.008000047877431, 0.0, 0.0, 0.0, 0.0, 0.0, 1.7632286799134293E9, 0.0, 2025-11-15 12:44:39.913
55.0, -138.5109347589314, -71.95380519749597, -125.1501421672292, -79.71783750550821, -0.06400000303983688, 0.0800000037997961, 1.008000047877431, 0.0, 0.0, 0.0, 0.0, 0.0, 1.7632286799134293E9, 0.0, 2025-11-15 12:44:39.913
56.0, -187.72427827585489, -104.87240460747853, -147.9373525972478, -140.73430528258905, -0.06400000303983688, 0.0800000037997961, 1.008000047877431, 0.0, 0.0, 0.0, 0.0, 0.0, 1.7632286799290645E9, 0.0, 2025-11-15 12:44:39.929
56.0, -195.74636368080974, -116.64186976803467, -162.62019982328638, -153.14329333556816, -0.06400000303983688, 0.0800000037997961, 1.008000047877431, 0.0, 0.0, 0.0, 0.0, 0.0, 1.7632286799290645E9, 0.0, 2025-11-15 12:44:39.929
57.0, -144.1469639921561, -74.6839321651496, -129.8586762114428, -88.64497869974002, -0.06400000303983688, 0.0800000037997961, 1.008000047877431, 0.0, 0.0, 0.0, 0.0, 0.0, 1.7632286799297838E9, 0.0, 2025-11-15 12:44:39.929
57.0, -159.75730640720576, -74.75125036435202, -129.14061541995034, -121.33918411238119, -0.06400000303983688, 0.0800000037997961, 1.008000047877431, 0.0, 0.0, 0.0, 0.0, 0.0, 1.7632286799297838E9, 0.0, 2025-11-15 12:44:39.929
58.0, -198.14737945236266, -111.93707562377676, -161.37481313804165, -164.33681390294805, -0.06400000303983688, 0.0800000037997961, 1.008000047877431, 0.0, 0.0, 0.0, 0.0, 0.0, 1.7632286799434607E9, 0.0, 2025-11-15 12:44:39.943
58.0, -150.61325101554394, -82.2796689751558, -141.9796919678338, -113.06652541039512, -0.06400000303983688, 0.0800000037997961, 1.008000047877431, 0.0, 0.0, 0.0, 0.0, 0.0, 1.7632286799434607E9, 0.0, 2025-11-15 12:44:39.943
59.0, -152.74499399028718, -75.59646775433794, -129.76143881259486, -94.29596753278747, -0.06400000303983688, 0.0800000037997961, 1.008000047877431, 0.0, 0.0, 0.0, 0.0, 0.0, 1.7632286799590948E9, 0.0, 2025-11-15 12:44:39.959
59.0, -199.30300853867084, -114.4054095945321, -162.66507862275466, -161.00456304242834, -0.06400000303983688, 0.0800000037997961, 1.008000047877431, 0.0, 0.0, 0.0, 0.0, 0.0, 1.7632286799590948E9, 0.0, 2025-11-15 12:44:39.959
60.0, -184.9717119084671, -106.5142206880264, -159.9798304545693, -143.9805384441279, -0.06400000303983688, 0.0800000037997961, 1.0240000486373901, 0.0, 0.0, 0.0, 0.0, 0.0, 1.763228679959798E9, 0.0, 2025-11-15 12:44:39.959
60.0, -132.3625392317772, -73.27024998189881, -127.28562504192814, -86.62543272366747, -0.06400000303983688, 0.0800000037997961, 1.0240000486373901, 0.0, 0.0, 0.0, 0.0, 0.0, 1.763228679959798E9, 0.0, 2025-11-15 12:44:39.959
61.0, -189.2351978579536, -104.3637782135047, -150.26357036968693, -142.94832605635747, -0.06400000303983688, 0.09600000455975533, 1.0240000486373901, 0.0, 0.0, 0.0, 0.0, 0.0, 1.7632286799734292E9, 0.0, 2025-11-15 12:44:39.973
61.0, -195.43969188444316, -114.8878566888161, -158.5773679711856, -152.8740205387585, -0.06400000303983688, 0.09600000455975533, 1.0240000486373901, 0.0, 0.0, 0.0, 0.0, 0.0, 1.7632286799734292E9, 0.0, 2025-11-15 12:44:39.973
62.0, -145.35495167784393, -80.03198910178617, -136.36610213434324, -94.5091418302618, -0.06400000303983688, 0.09600000455975533, 1.0240000486373901, 0.0, 0.0, 0.0, 0.0, 0.0, 1.7632286799890745E9, 0.0, 2025-11-15 12:44:39.989
62.0, -163.8898958582431, -89.91654468467459, -141.43740647425875, -121.58975740941241, -0.06400000303983688, 0.09600000455975533, 1.0240000486373901, 0.0, 0.0, 0.0, 0.0, 0.0, 1.7632286799890745E9, 0.0, 2025-11-15 12:44:39.989
63.0, -196.80475536826998, -111.41348962998018, -158.82420136826113, -158.78680236870423, -0.06400000303983688, 0.09600000455975533, 1.0240000486373901, 0.0, 0.0, 0.0, 0.0, 0.0, 1.7632286799897754E9, 0.0, 2025-11-15 12:44:39.989
63.0, -162.154582278803, -87.19015761697665, -144.20493244146928, -115.39648308278993, -0.06400000303983688, 0.09600000455975533, 1.0240000486373901, 0.0, 0.0, 0.0, 0.0, 0.0, 1.7632286799897754E9, 0.0, 2025-11-15 12:44:39.989
64.0, -144.30403979029506, -78.37895332137123, -132.68230067798868, -97.59829919366166, -0.06400000303983688, 0.09600000455975533, 1.0240000486373901, 0.0, 0.0, 0.0, 0.0, 0.0, 1.763228680019831E9, 0.0, 2025-11-15 12:44:40.019
64.0, -188.43111936748028, -112.89075011247769, -162.85581352049485, -165.11471309373155, -0.06400000303983688, 0.09600000455975533, 1.0240000486373901, 0.0, 0.0, 0.0, 0.0, 0.0, 1.763228680019831E9, 0.0, 2025-11-15 12:44:40.019
65.0, -177.28247759956867, -94.30344733269885, -153.30784893361852, -140.77544418210164, -0.06400000303983688, 0.09600000455975533, 1.0240000486373901, 0.0, 0.0, 0.0, 0.0, 0.0, 1.76322868002051E9, 0.0, 2025-11-15 12:44:40.020
65.0, -144.44989588856697, -70.4241861156188, -126.57878395030275, -83.6484723589383, -0.06400000303983688, 0.09600000455975533, 1.0240000486373901, 0.0, 0.0, 0.0, 0.0, 0.0, 1.76322868002051E9, 0.0, 2025-11-15 12:44:40.020
66.0, -177.81728329323232, -97.05601370008662, -143.95435914443806, -144.6798997358419, -0.06400000303983688, 0.09600000455975533, 1.0240000486373901, 0.0, 0.0, 0.0, 0.0, 0.0, 1.763228680021262E9, 0.0, 2025-11-15 12:44:40.021
66.0, -192.15231982339174, -107.55765277566388, -157.99768347805366, -154.14558652369305, -0.06400000303983688, 0.09600000455975533, 1.0240000486373901, 0.0, 0.0, 0.0, 0.0, 0.0, 1.763228680021262E9, 0.0, 2025-11-15 12:44:40.021
67.0, -140.16397053934634, -73.65545967733487, -126.02527875686064, -83.82798755681142, -0.06400000303983688, 0.09600000455975533, 1.0240000486373901, 0.0, 0.0, 0.0, 0.0, 0.0, 1.7632286800334077E9, 0.0, 2025-11-15 12:44:40.033
67.0, -168.69192740134895, -94.23612913349643, -137.49929182091728, -121.53365891007707, -0.06400000303983688, 0.09600000455975533, 1.0240000486373901, 0.0, 0.0, 0.0, 0.0, 0.0, 1.7632286800334077E9, 0.0, 2025-11-15 12:44:40.033
68.0, -199.00381654221565, -122.01236610440537, -168.11037295823917, -166.57327407645062, -0.06400000303983688, 0.09600000455975533, 1.0240000486373901, 0.0, 0.0, 0.0, 0.0, 0.0, 1.763228680049142E9, 0.0, 2025-11-15 12:44:40.049
68.0, -168.79664460010827, -99.28499407367781, -149.18647918244824, -127.46140033984557, -0.06400000303983688, 0.09600000455975533, 1.0240000486373901, 0.0, 0.0, 0.0, 0.0, 0.0, 1.763228680049142E9, 0.0, 2025-11-15 12:44:40.049
69.0, -138.877444954589, -73.34130808105692, -124.99680626904592, -98.07700638798997, -0.06400000303983688, 0.09600000455975533, 1.0240000486373901, 0.0, 0.0, 0.0, 0.0, 0.0, 1.763228680049782E9, 0.0, 2025-11-15 12:44:40.049
69.0, -206.8015079498291, -111.23397443210706, -154.8000690159388, -154.97210441390052, -0.06400000303983688, 0.09600000455975533, 1.0240000486373901, 0.0, 0.0, 0.0, 0.0, 0.0, 1.763228680049782E9, 0.0, 2025-11-15 12:44:40.049
70.0, -188.603154765442, -108.16725646844134, -158.00890317792073, -136.7139128302224, -0.06400000303983688, 0.09600000455975533, 1.0400000493973494, 0.0, 0.0, 0.0, 0.0, 0.0, 1.763228680063416E9, 0.0, 2025-11-15 12:44:40.063
70.0, -141.1737435273826, -73.56570207839832, -121.10357041517273, -77.85536732757464, -0.06400000303983688, 0.09600000455975533, 1.0400000493973494, 0.0, 0.0, 0.0, 0.0, 0.0, 1.763228680063416E9, 0.0, 2025-11-15 12:44:40.063
71.0, -182.3874410390854, -98.37619838444516, -144.2722506406717, -139.87412829278037, -0.06400000303983688, 0.09600000455975533, 1.0400000493973494, 0.0, 0.0, 0.0, 0.0, 0.0, 1.7632286800790892E9, 0.0, 2025-11-15 12:44:40.079
71.0, -193.319168609567, -105.20899560349062, -151.50521715497598, -137.6040090196766, -0.06400000303983688, 0.09600000455975533, 1.0400000493973494, 0.0, 0.0, 0.0, 0.0, 0.0, 1.7632286800790892E9, 0.0, 2025-11-15 12:44:40.079
72.0, -142.04514021705836, -71.69949200050905, -123.1156365913339, -84.75174284586683, -0.06400000303983688, 0.09600000455975533, 1.0400000493973494, 0.0, 0.0, 0.0, 0.0, 0.0, 1.7632286800797863E9, 0.0, 2025-11-15 12:44:40.079
72.0, -162.67816827259958, -87.43325111409649, -134.81404365273193, -115.30672548385337, -0.06400000303983688, 0.09600000455975533, 1.0400000493973494, 0.0, 0.0, 0.0, 0.0, 0.0, 1.7632286800797863E9, 0.0, 2025-11-15 12:44:40.079
73.0, -207.23159644473344, -121.35040381224826, -167.8037011618726, -170.1336588342674, -0.06400000303983688, 0.09600000455975533, 1.0400000493973494, 0.0, 0.0, 0.0, 0.0, 0.0, 1.7632286800933816E9, 0.0, 2025-11-15 12:44:40.093
73.0, -175.7079797182232, -101.79820684390143, -151.7894495516084, -123.74767968384549, -0.06400000303983688, 0.09600000455975533, 1.0400000493973494, 0.0, 0.0, 0.0, 0.0, 0.0, 1.7632286800933816E9, 0.0, 2025-11-15 12:44:40.093
74.0, -153.57899168040603, -84.85646004462615, -130.98812599806115, -94.55028072977439, -0.06400000303983688, 0.09600000455975533, 1.0400000493973494, 0.0, 0.0, 0.0, 0.0, 0.0, 1.7632286801091373E9, 0.0, 2025-11-15 12:44:40.109
74.0, -208.85471302550286, -125.30347806541249, -166.29652147972956, -168.42078465456143, -0.06400000303983688, 0.09600000455975533, 1.0400000493973494, 0.0, 0.0, 0.0, 0.0, 0.0, 1.7632286801091373E9, 0.0, 2025-11-15 12:44:40.109
75.0, -183.4159135269001, -101.85056544328108, -151.44163885572925, -138.40434761019424, -0.06400000303983688, 0.09600000455975533, 1.0400000493973494, 0.0, 0.0, 0.0, 0.0, 0.0, 1.763228680109874E9, 0.0, 2025-11-15 12:44:40.109
75.0, -135.67235069256276, -65.47255857428536, -112.65887631522492, -70.78321651136503, -0.06400000303983688, 0.09600000455975533, 1.0400000493973494, 0.0, 0.0, 0.0, 0.0, 0.0, 1.763228680109874E9, 0.0, 2025-11-15 12:44:40.109
76.0, -186.22083849366754, -97.53098099445924, -139.3094033994712, -134.14460156066343, -0.06400000303983688, 0.09600000455975533, 1.0400000493973494, 0.0, 0.0, 0.0, 0.0, 0.0, 1.763228680123372E9, 0.0, 2025-11-15 12:44:40.123
76.0, -190.2748900456354, -107.33325877832249, -151.18732565874234, -142.81742955790833, -0.06400000303983688, 0.09600000455975533, 1.0400000493973494, 0.0, 0.0, 0.0, 0.0, 0.0, 1.763228680123372E9, 0.0, 2025-11-15 12:44:40.123
77.0, -152.7375141903758, -84.00002295477316, -133.68459386611357, -94.51288173021749, -0.06400000303983688, 0.09600000455975533, 1.0400000493973494, 0.0, 0.0, 0.0, 0.0, 0.0, 1.763228680155603E9, 0.0, 2025-11-15 12:44:40.155
77.0, -160.49032679852098, -93.5816466412507, -133.65093476651236, -121.78797210706398, -0.06400000303983688, 0.09600000455975533, 1.0400000493973494, 0.0, 0.0, 0.0, 0.0, 0.0, 1.763228680155603E9, 0.0, 2025-11-15 12:44:40.155
78.0, -209.10902622248977, -121.3354442124255, -162.7623160216026, -154.04460922488943, -0.06400000303983688, 0.09600000455975533, 1.0400000493973494, 0.0, 0.0, 0.0, 0.0, 0.0, 1.7632286801561472E9, 0.0, 2025-11-15 12:44:40.156
78.0, -171.08920327294618, -103.52604062343016, -153.0909347361885, -123.21287399018183, -0.06400000303983688, 0.09600000455975533, 1.0400000493973494, 0.0, 0.0, 0.0, 0.0, 0.0, 1.7632286801561472E9, 0.0, 2025-11-15 12:44:40.156
79.0, -131.5435011414811, -83.36797986226156, -130.2999844062142, -94.50166203035042, -0.06400000303983688, 0.09600000455975533, 1.0400000493973494, 0.0, 0.0, 0.0, 0.0, 0.0, 1.76322868015701E9, 0.0, 2025-11-15 12:44:40.157
79.0, -211.07621359918267, -118.75865314295515, -160.51089624827728, -158.06500167725608, -0.06400000303983688, 0.09600000455975533, 1.0400000493973494, 0.0, 0.0, 0.0, 0.0, 0.0, 1.76322868015701E9, 0.0, 2025-11-15 12:44:40.157
80.0, -190.0130970487371, -108.38791056582704, -153.21435143472627, -141.65058077173308, -0.06400000303983688, 0.09600000455975533, 1.0400000493973494, 0.0, 0.0, 0.0, 0.0, 0.0, 1.7632286801575842E9, 0.0, 2025-11-15 12:44:40.157
80.0, -138.7652479559183, -68.7524508354254, -121.01007291628048, -77.26446313457564, -0.06400000303983688, 0.09600000455975533, 1.0400000493973494, 0.0, 0.0, 0.0, 0.0, 0.0, 1.7632286801575842E9, 0.0, 2025-11-15 12:44:40.157
81.0, -185.2372448053211, -103.17075012763962, -143.3410155517049, -140.8614618810825, -0.06400000303983688, 0.09600000455975533, 1.0400000493973494, 0.0, 0.0, 0.0, 0.0, 0.0, 1.7632286801684349E9, 0.0, 2025-11-15 12:44:40.168
81.0, -204.55382807645947, -128.0074257333763, -170.12617903435603, -163.75712940981612, -0.06400000303983688, 0.09600000455975533, 1.0400000493973494, 0.0, 0.0, 0.0, 0.0, 0.0, 1.7632286801684349E9, 0.0, 2025-11-15 12:44:40.168
82.0, -145.81869927234948, -80.09930730098858, -134.1184222609736, -93.73872243938968, -0.06400000303983688, 0.09600000455975533, 1.0400000493973494, 0.0, 0.0, 0.0, 0.0, 0.0, 1.7632286801834335E9, 0.0, 2025-11-15 12:44:40.183
82.0, -165.31853764131665, -97.7703345916234, -143.55044994922355, -122.18440150236711, -0.06400000303983688, 0.09600000455975533, 1.0400000493973494, 0.0, 0.0, 0.0, 0.0, 0.0, 1.7632286801834335E9, 0.0, 2025-11-15 12:44:40.183
83.0, -209.89814511314034, -132.43920718086883, -171.82783351419494, -161.56554803578183, -0.06400000303983688, 0.09600000455975533, 1.0400000493973494, 0.0, 0.0, 0.0, 0.0, 0.0, 1.7632286801990755E9, 0.0, 2025-11-15 12:44:40.199
83.0, -174.91512092761695, -104.47223531221971, -150.60016136569902, -117.50952655775473, -0.06400000303983688, 0.09600000455975533, 1.0400000493973494, 0.0, 0.0, 0.0, 0.0, 0.0, 1.7632286801990755E9, 0.0, 2025-11-15 12:44:40.199
84.0, -148.87419753614813, -80.77996909292415, -123.73272008402273, -87.11535961786285, -0.06400000303983688, 0.09600000455975533, 1.0400000493973494, 0.0, 0.0, 0.0, 0.0, 0.0, 1.7632286801997976E9, 0.0, 2025-11-15 12:44:40.199
84.0, -201.77882230933756, -118.56417834525928, -157.48905708407983, -155.5031702076085, -0.06400000303983688, 0.09600000455975533, 1.0400000493973494, 0.0, 0.0, 0.0, 0.0, 0.0, 1.7632286801997976E9, 0.0, 2025-11-15 12:44:40.199
85.0, -191.280923133716, -117.071958262939, -160.09202745324, -148.21036529401317, -0.06400000303983688, 0.09600000455975533, 1.0400000493973494, 0.0, 0.0, 0.0, 0.0, 0.0, 1.7632286802134652E9, 0.0, 2025-11-15 12:44:40.213
85.0, -146.78359346091747, -86.56933422433212, -137.39083472220227, -92.41853775503114, -0.06400000303983688, 0.09600000455975533, 1.0400000493973494, 0.0, 0.0, 0.0, 0.0, 0.0, 1.7632286802134652E9, 0.0, 2025-11-15 12:44:40.213
86.0, -189.0482028601691, -114.61110409209505, -156.04171580122784, -148.02337029622868, -0.06400000303983688, 0.09600000455975533, 1.0400000493973494, 0.0, 0.0, 0.0, 0.0, 0.0, 1.7632286802290795E9, 0.0, 2025-11-15 12:44:40.229
86.0, -200.6531124226749, -129.83249691175297, -173.503308694344, -167.69898396311328, -0.06400000303983688, 0.09600000455975533, 1.0400000493973494, 0.0, 0.0, 0.0, 0.0, 0.0, 1.7632286802290795E9, 0.0, 2025-11-15 12:44:40.229
87.0, -169.02477849740535, -105.28005370264873, -156.6812386936508, -112.23252772027627, -0.06400000303983688, 0.09600000455975533, 1.0400000493973494, 0.0, 0.0, 0.0, 0.0, 0.0, 1.7632286802297974E9, 0.0, 2025-11-15 12:44:40.229
87.0, -185.10634830687195, -109.292966355104, -154.3924199207686, -137.3048170232214, -0.06400000303983688, 0.09600000455975533, 1.0400000493973494, 0.0, 0.0, 0.0, 0.0, 0.0, 1.7632286802297974E9, 0.0, 2025-11-15 12:44:40.229
88.0, -210.72092310339212, -124.57045767409727, -168.5853402526118, -162.62767962319776, -0.06400000303983688, 0.09600000455975533, 1.0400000493973494, 0.0, 0.0, 0.0, 0.0, 0.0, 1.7632286802434742E9, 0.0, 2025-11-15 12:44:40.243
88.0, -181.35148875135928, -102.47886863583699, -154.14932642364874, -120.17981512611732, -0.06400000303983688, 0.09600000455975533, 1.0400000493973494, 0.0, 0.0, 0.0, 0.0, 0.0, 1.7632286802434742E9, 0.0, 2025-11-15 12:44:40.243
89.0, -153.5939512802288, -82.6125200712122, -134.53729105601087, -101.55511334678158, -0.06400000303983688, 0.09600000455975533, 1.0400000493973494, 0.0, 0.0, 0.0, 0.0, 0.0, 1.7632286802591307E9, 0.0, 2025-11-15 12:44:40.259
89.0, -206.99972264748067, -125.41567506408319, -167.36987276701257, -172.44117710692808, -0.06400000303983688, 0.09600000455975533, 1.0400000493973494, 0.0, 0.0, 0.0, 0.0, 0.0, 1.7632286802591307E9, 0.0, 2025-11-15 12:44:40.259
90.0, -198.28575575072318, -115.9275488764979, -163.70477081043646, -150.45056536747143, -0.06400000303983688, 0.09600000455975533, 1.0400000493973494, 0.0, 0.0, 0.0, 0.0, 0.0, 1.763228680259807E9, 0.0, 2025-11-15 12:44:40.259
90.0, -141.35699862521142, -79.6467794063501, -125.00054616900161, -83.97384365508333, -0.06400000303983688, 0.09600000455975533, 1.0400000493973494, 0.0, 0.0, 0.0, 0.0, 0.0, 1.763228680259807E9, 0.0, 2025-11-15 12:44:40.259
91.0, -203.9853632831946, -120.17607522616163, -155.8285415037535, -149.11916098324582, -0.06400000303983688, 0.0800000037997961, 1.0400000493973494, 0.0, 0.0, 0.0, 0.0, 0.0, 1.7632286802734728E9, 0.0, 2025-11-15 12:44:40.273
91.0, -206.37889925483614, -126.76203904813156, -172.6169524048455, -164.77812209771946, -0.06400000303983688, 0.0800000037997961, 1.0400000493973494, 0.0, 0.0, 0.0, 0.0, 0.0, 1.7632286802734728E9, 0.0, 2025-11-15 12:44:40.273
92.0, -155.7443937547505, -91.45364356646314, -143.44573275046423, -100.8819313547574, -0.06400000303983688, 0.0800000037997961, 1.0400000493973494, 0.0, 0.0, 0.0, 0.0, 0.0, 1.763228680289152E9, 0.0, 2025-11-15 12:44:40.289
92.0, -182.96712553221732, -107.31455927854404, -147.0098574082367, -129.88859541108832, -0.06400000303983688, 0.0800000037997961, 1.0400000493973494, 0.0, 0.0, 0.0, 0.0, 0.0, 1.763228680289152E9, 0.0, 2025-11-15 12:44:40.289
93.0, -217.0338742285967, -130.7450325009413, -170.5413079294376, -169.15006514592096, -0.06400000303983688, 0.0800000037997961, 1.0400000493973494, 0.0, 0.0, 0.0, 0.0, 0.0, 1.7632286802898207E9, 0.0, 2025-11-15 12:44:40.289
93.0, -183.68892622366548, -106.57031918736175, -159.21689086360857, -121.08861081534997, -0.06400000303983688, 0.0800000037997961, 1.0400000493973494, 0.0, 0.0, 0.0, 0.0, 0.0, 1.7632286802898207E9, 0.0, 2025-11-15 12:44:40.289
94.0, -157.43482853472233, -87.6913042110391, -131.05918409721926, -85.93729113182053, -0.06400000303983688, 0.0800000037997961, 1.0400000493973494, 0.0, 0.0, 0.0, 0.0, 0.0, 1.7632286803034532E9, 0.0, 2025-11-15 12:44:40.303
94.0, -215.8782451422885, -139.48143879743293, -173.6566445925273, -169.7634087386541, -0.06400000303983688, 0.0800000037997961, 1.0400000493973494, 0.0, 0.0, 0.0, 0.0, 0.0, 1.7632286803034532E9, 0.0, 2025-11-15 12:44:40.303
95.0, -201.11686001718044, -129.1518351198174, -173.71274309186265, -162.8371140207164, -0.06400000303983688, 0.0800000037997961, 1.0400000493973494, 0.0, 0.0, 0.0, 0.0, 0.0, 1.7632286803191164E9, 0.0, 2025-11-15 12:44:40.319
95.0, -150.01860692258924, -88.12139270594344, -134.98233915073797, -91.22550966916606, -0.06400000303983688, 0.0800000037997961, 1.0400000493973494, 0.0, 0.0, 0.0, 0.0, 0.0, 1.7632286803191164E9, 0.0, 2025-11-15 12:44:40.319
96.0, -206.70427055098116, -128.9648401220329, -164.45649070153013, -154.95714481407776, -0.06400000303983688, 0.0800000037997961, 1.0400000493973494, 0.0, 0.0, 0.0, 0.0, 0.0, 1.7632286803198082E9, 0.0, 2025-11-15 12:44:40.319
96.0, -206.4349977541715, -131.6725276899524, -174.96186967706308, -163.83192740892991, -0.06400000303983688, 0.0800000037997961, 1.0400000493973494, 0.0, 0.0, 0.0, 0.0, 0.0, 1.7632286803198082E9, 0.0, 2025-11-15 12:44:40.319
97.0, -173.47151954472065, -101.97772204177454, -151.830588451121, -110.93478243565187, -0.06400000303983688, 0.0800000037997961, 1.0400000493973494, 0.0, 0.0, 0.0, 0.0, 0.0, 1.763228680333432E9, 0.0, 2025-11-15 12:44:40.333
97.0, -180.4202536623925, -98.79132727952674, -143.58036914886907, -126.0439782566391, -0.06400000303983688, 0.0800000037997961, 1.0400000493973494, 0.0, 0.0, 0.0, 0.0, 0.0, 1.763228680333432E9, 0.0, 2025-11-15 12:44:40.333
98.0, -213.26779497321695, -124.67891477281228, -164.82674079714343, -162.72117712209, -0.06400000303983688, 0.0800000037997961, 1.0400000493973494, 0.0, 0.0, 0.0, 0.0, 0.0, 1.763228680349083E9, 0.0, 2025-11-15 12:44:40.349
98.0, -190.33846834488213, -112.6289571155794, -161.33367423852906, -128.57589052664116, -0.06400000303983688, 0.0800000037997961, 1.0400000493973494, 0.0, 0.0, 0.0, 0.0, 0.0, 1.763228680349083E9, 0.0, 2025-11-15 12:44:40.349
99.0, -161.09245069138706, -91.86129266163334, -134.5672102556564, -100.37704486073926, -0.06400000303983688, 0.0800000037997961, 1.0400000493973494, 0.0, 0.0, 0.0, 0.0, 0.0, 1.7632286803497894E9, 0.0, 2025-11-15 12:44:40.349
99.0, -214.44212355930358, -130.35234300559387, -166.5844937763177, -166.30774117959663, -0.06400000303983688, 0.0800000037997961, 1.0400000493973494, 0.0, 0.0, 0.0, 0.0, 0.0, 1.7632286803497894E9, 0.0, 2025-11-15 12:44:40.349
100.0, -211.614759192802, -132.77205827692524, -172.59077310515568, -154.5008770194836, -0.06400000303983688, 0.0800000037997961, 1.0400000493973494, 0.0, 0.0, 0.0, 0.0, 0.0, 1.7632286803641229E9, 0.0, 2025-11-15 12:44:40.364
100.0, -170.28512478247285, -105.31371280224994, -146.32919561630115, -97.39260469609872, -0.06400000303983688, 0.0800000037997961, 1.0400000493973494, 0.0, 0.0, 0.0, 0.0, 0.0, 1.7632286803641229E9, 0.0, 2025-11-15 12:44:40.364
0.0, -205.0961135700345, -129.2640321184881, -168.83778349962085, -156.71676774322987, -0.06400000303983688, 0.0800000037997961, 1.0400000493973494, 0.0, 0.0, 0.0, 0.0, 0.0, 1.763228680364818E9, 0.0, 2025-11-15 12:44:40.364
1.0, -220.14921089168638, -136.36984203429893, -179.4590993737802, -169.35388969350606, -0.06400000303983688, 0.0800000037997961, 1.0400000493973494, 0.0, 0.0, 0.0, 0.0, 0.0, 1.7632286803784015E9, 0.0, 2025-11-15 12:44:40.378
1.0, -160.31829140055925, -95.52639461820945, -144.04224679339677, -97.75350504182279, -0.06400000303983688, 0.0800000037997961, 1.0400000493973494, 0.0, 0.0, 0.0, 0.0, 0.0, 1.7632286803784015E9, 0.0, 2025-11-15 12:44:40.378
2.0, -171.54921096749604, -98.00594828883186, -142.1012387163937, -127.42587129026651, -0.06400000303983688, 0.0800000037997961, 1.0400000493973494, 0.0, 0.0, 0.0, 0.0, 0.0, 1.7632286803940823E9, 0.0, 2025-11-15 12:44:40.394
2.0, -215.8109269430861, -130.19900710741058, -165.69626753684133, -166.94539412204176, -0.06400000303983688, 0.0800000037997961, 1.0400000493973494, 0.0, 0.0, 0.0, 0.0, 0.0, 1.7632286803940823E9, 0.0, 2025-11-15 12:44:40.394
3.0, -183.07932253088802, -106.0317735937424, -150.8488647127524, -124.90517872013152, -0.06400000303983688, 0.0800000037997961, 1.0400000493973494, 0.0, 0.0, 0.0, 0.0, 0.0, 1.7632286803947804E9, 0.0, 2025-11-15 12:44:40.394
3.0, -161.4514810871333, -92.17918415786698, -138.15190436318517, -104.38808756321669, -0.06400000303983688, 0.0800000037997961, 1.0400000493973494, 0.0, 0.0, 0.0, 0.0, 0.0, 1.7632286803947804E9, 0.0, 2025-11-15 12:44:40.394
4.0, -212.27298158500344, -128.73670622473583, -172.7085799537599, -170.29260458238423, -0.06400000303983688, 0.0800000037997961, 1.0400000493973494, 0.0, 0.0, 0.0, 0.0, 0.0, 1.7632286804084404E9, 0.0, 2025-11-15 12:44:40.408
4.0, -202.89331249613315, -129.8212772118859, -178.0080181909725, -163.01475926861167, -0.06400000303983688, 0.0800000037997961, 1.0400000493973494, 0.0, 0.0, 0.0, 0.0, 0.0, 1.7632286804084404E9, 0.0, 2025-11-15 12:44:40.408
5.0, -165.92066153418273, -106.18136959197, -155.38910325895995, -102.55553658492863, -0.06400000303983688, 0.0800000037997961, 1.0400000493973494, 0.0, 0.0, 0.0, 0.0, 0.0, 1.763228680424111E9, 0.0, 2025-11-15 12:44:40.424
5.0, -214.90213125385344, -137.38709482224658, -173.9726661387831, -158.69891471974552, -0.06400000303983688, 0.0800000037997961, 1.0400000493973494, 0.0, 0.0, 0.0, 0.0, 0.0, 1.763228680424111E9, 0.0, 2025-11-15 12:44:40.424
6.0, -218.81780650746077, -142.7912502582185, -182.37248143926263, -167.13986891973764, -0.06400000303983688, 0.0800000037997961, 1.0400000493973494, 0.0, 0.0, 0.0, 0.0, 0.0, 1.7632286804247894E9, 0.0, 2025-11-15 12:44:40.424
6.0, -162.9287415696308, -99.28499407367781, -145.60552497487515, -102.09552889037877, -0.06400000303983688, 0.0800000037997961, 1.0400000493973494, 0.0, 0.0, 0.0, 0.0, 0.0, 1.7632286804247894E9, 0.0, 2025-11-15 12:44:40.424
7.0, -168.1571217076853, -94.73727572755888, -133.58922641724348, -120.29014217481017, -0.06400000303983688, 0.0800000037997961, 1.0400000493973494, 0.0, 0.0, 0.0, 0.0, 0.0, 1.7632286804384143E9, 0.0, 2025-11-15 12:44:40.438
7.0, -226.00589422229677, -137.57782971998677, -175.58456301968545, -171.59782966692, -0.06400000303983688, 0.0800000037997961, 1.0400000493973494, 0.0, 0.0, 0.0, 0.0, 0.0, 1.7632286804384143E9, 0.0, 2025-11-15 12:44:40.438
8.0, -187.09971498325467, -110.83754503680393, -155.41902245860547, -131.74919563904405, -0.06400000303983688, 0.0800000037997961, 1.0400000493973494, 0.0, 0.0, 0.0, 0.0, 0.0, 1.7632286804541419E9, 0.0, 2025-11-15 12:44:40.454
8.0, -161.1485491907224, -90.73932267492637, -130.0998997585848, -93.72563278954476, -0.06400000303983688, 0.0800000037997961, 1.0400000493973494, 0.0, 0.0, 0.0, 0.0, 0.0, 1.7632286804541419E9, 0.0, 2025-11-15 12:44:40.454
9.0, -217.4789223233238, -129.2640321184881, -169.3351901937276, -164.25640605390072, -0.06400000303983688, 0.0800000037997961, 1.0400000493973494, 0.0, 0.0, 0.0, 0.0, 0.0, 1.7632286804548297E9, 0.0, 2025-11-15 12:44:40.454
9.0, -210.0290416115895, -130.17282780772075, -167.08751032035798, -152.16904939711094, -0.06400000303983688, 0.0800000037997961, 1.0400000493973494, 0.0, 0.0, 0.0, 0.0, 0.0, 1.7632286804548297E9, 0.0, 2025-11-15 12:44:40.454
10.0, -162.962400669232, -94.81207372667268, -138.178083662875, -85.69606758467853, -0.06400000303983688, 0.0800000037997961, 1.0400000493973494, 0.0, 0.0, 0.0, 0.0, 0.0, 1.7632286804683886E9, 0.0, 2025-11-15 12:44:40.468
10.0, -210.85181960184127, -130.8908885992132, -164.02079235669225, -147.65499015059322, -0.06400000303983688, 0.0800000037997961, 1.0400000493973494, 0.0, 0.0, 0.0, 0.0, 0.0, 1.7632286804683886E9, 0.0, 2025-11-15 12:44:40.468
11.0, -225.7403613254428, -143.00068465573713, -181.66190044768155, -174.20080003608018, -0.06400000303983688, 0.0800000037997961, 1.0400000493973494, 0.0, 0.0, 0.0, 0.0, 0.0, 1.7632286804841185E9, 0.0, 2025-11-15 12:44:40.484
11.0, -170.06447068508714, -101.91040384257212, -150.65812981501222, -109.24995750561357, -0.06400000303983688, 0.0800000037997961, 1.0400000493973494, 0.0, 0.0, 0.0, 0.0, 0.0, 1.7632286804841185E9, 0.0, 2025-11-15 12:44:40.484
12.0, -179.1187684778124, -107.43049617717043, -146.04683316964656, -128.66377817559987, -0.06400000303983688, 0.0800000037997961, 1.0400000493973494, 0.0, 0.0, 0.0, 0.0, 0.0, 1.7632286804847965E9, 0.0, 2025-11-15 12:44:40.484
12.0, -222.41933016479015, -136.72513253008947, -177.7873640935868, -175.0796765256673, -0.06400000303983688, 0.0800000037997961, 1.0400000493973494, 0.0, 0.0, 0.0, 0.0, 0.0, 1.7632286804847965E9, 0.0, 2025-11-15 12:44:40.484
13.0, -183.30371652822942, -104.8088263082318, -152.15408979728818, -129.78574816230685, -0.06400000303983688, 0.0800000037997961, 1.0400000493973494, 0.0, 0.0, 0.0, 0.0, 0.0, 1.7632286804984343E9, 0.0, 2025-11-15 12:44:40.498
13.0, -160.2285338016227, -94.27726803300902, -139.0644399523735, -107.83627532236278, -0.06400000303983688, 0.0800000037997961, 1.0400000493973494, 0.0, 0.0, 0.0, 0.0, 0.0, 1.7632286804984343E9, 0.0, 2025-11-15 12:44:40.498
14.0, -219.46106929983944, -135.9360136394389, -171.81474386435002, -179.10754877794534, -0.06400000303983688, 0.0800000037997961, 1.0400000493973494, 0.0, 0.0, 0.0, 0.0, 0.0, 1.7632286805142012E9, 0.0, 2025-11-15 12:44:40.514
14.0, -206.248002756387, -125.65128876129165, -161.88156958203763, -154.94779506418854, -0.06400000303983688, 0.0800000037997961, 1.0400000493973494, 0.0, 0.0, 0.0, 0.0, 0.0, 1.7632286805142012E9, 0.0, 2025-11-15 12:44:40.514
15.0, -140.46316253580153, -84.39645235007629, -130.52250845357776, -91.24233921896666, -0.06400000303983688, 0.0800000037997961, 1.0400000493973494, 0.0, 0.0, 0.0, 0.0, 0.0, 1.763228680514852E9, 0.0, 2025-11-15 12:44:40.514
15.0, -215.48929554689676, -132.6000228789635, -169.96349338628352, -161.672135184519, -0.06400000303983688, 0.0800000037997961, 1.0400000493973494, 0.0, 0.0, 0.0, 0.0, 0.0, 1.763228680514852E9, 0.0, 2025-11-15 12:44:40.514
16.0, -225.3252324303612, -142.83612905768678, -185.48407820239663, -180.1921197650954, -0.06400000303983688, 0.0800000037997961, 1.0400000493973494, 0.0, 0.0, 0.0, 0.0, 0.0, 1.7632286805284936E9, 0.0, 2025-11-15 12:44:40.528
16.0, -166.16749493125826, -106.1439705924131, -158.19402822572738, -117.19350501149893, -0.06400000303983688, 0.0800000037997961, 1.0400000493973494, 0.0, 0.0, 0.0, 0.0, 0.0, 1.7632286805284936E9, 0.0, 2025-11-15 12:44:40.528
17.0, -193.85397430323064, -115.20574818504974, -151.57440530415624, -127.68392438720912, -0.06400000303983688, 0.0800000037997961, 1.0400000493973494, 0.0, 0.0, 0.0, 0.0, 0.0, 1.7632286805441532E9, 0.0, 2025-11-15 12:44:40.544
17.0, -231.35395115893334, -147.51848380221054, -183.65900702401996, -171.1191224725917, -0.06400000303983688, 0.0800000037997961, 1.0400000493973494, 0.0, 0.0, 0.0, 0.0, 0.0, 1.7632286805441532E9, 0.0, 2025-11-15 12:44:40.544
18.0, -196.14653297606856, -122.95108099328354, -165.7037473367527, -142.72580200899392, -0.06400000303983688, 0.0800000037997961, 1.0400000493973494, 0.0, 0.0, 0.0, 0.0, 0.0, 1.7632286805448334E9, 0.0, 2025-11-15 12:44:40.544
18.0, -171.5604306673631, -102.23577513871714, -144.76030758488923, -108.8647478101775, -0.06400000303983688, 0.0800000037997961, 1.0400000493973494, 0.0, 0.0, 0.0, 0.0, 0.0, 1.7632286805448334E9, 0.0, 2025-11-15 12:44:40.544
19.0, -218.19324321486056, -132.27465158281848, -170.72269307728857, -161.23830678965896, -0.06400000303983688, 0.0800000037997961, 1.0400000493973494, 0.0, 0.0, 0.0, 0.0, 0.0, 1.7632286805748072E9, 0.0, 2025-11-15 12:44:40.574
19.0, -213.1406383747235, -129.783878212329, -173.5612771436572, -152.27376659587026, -0.06400000303983688, 0.0800000037997961, 1.0400000493973494, 0.0, 0.0, 0.0, 0.0, 0.0, 1.7632286805748072E9, 0.0, 2025-11-15 12:44:40.574
20.0, -159.80592510662973, -89.23214299278334, -135.0253480002284, -87.73805296048522, -0.06400000303983688, 0.0800000037997961, 1.0400000493973494, 0.0, 0.0, 0.0, 0.0, 0.0, 1.7632286805755088E9, 0.0, 2025-11-15 12:44:40.575
20.0, -206.5097957532853, -128.1906808312051, -161.34676388837397, -151.42106940597296, -0.06400000303983688, 0.0800000037997961, 1.0400000493973494, 0.0, 0.0, 0.0, 0.0, 0.0, 1.7632286805755088E9, 0.0, 2025-11-15 12:44:40.575
21.0, -221.5479334751144, -139.59363579610363, -177.4208538979292, -171.21261997148395, -0.06400000303983688, 0.0800000037997961, 1.0400000493973494, 0.0, 0.0, 0.0, 0.0, 0.0, 1.7632286805762413E9, 0.0, 2025-11-15 12:44:40.576
21.0, -166.12261613178998, -97.48610219499096, -145.63170427456498, -106.09722184296697, -0.06400000303983688, 0.0800000037997961, 1.0400000493973494, 0.0, 0.0, 0.0, 0.0, 0.0, 1.7632286805762413E9, 0.0, 2025-11-15 12:44:40.576
22.0, -185.0165907079354, -108.91897635953501, -149.48380122892559, -133.55182741768658, -0.06400000303983688, 0.0800000037997961, 1.0400000493973494, 0.0, 0.0, 0.0, 0.0, 0.0, 1.7632286805884566E9, 0.0, 2025-11-15 12:44:40.588
22.0, -218.78040750790387, -135.61438224324957, -178.44932638574392, -177.69012669473886, -0.06400000303983688, 0.0800000037997961, 1.0400000493973494, 0.0, 0.0, 0.0, 0.0, 0.0, 1.7632286805884566E9, 0.0, 2025-11-15 12:44:40.588
23.0, -191.30710243340582, -112.77855311380699, -164.86974964663386, -141.33829912543297, -0.06400000303983688, 0.0800000037997961, 1.0400000493973494, 0.0, 0.0, 0.0, 0.0, 0.0, 1.7632286806041071E9, 0.0, 2025-11-15 12:44:40.604
23.0, -150.0747054219246, -78.78286251658574, -127.31367429159582, -94.32401678245515, -0.06400000303983688, 0.0800000037997961, 1.0400000493973494, 0.0, 0.0, 0.0, 0.0, 0.0, 1.7632286806041071E9, 0.0, 2025-11-15 12:44:40.604
24.0, -224.86148483585566, -136.32122333487496, -171.79230446461588, -169.18185429554433, -0.06400000303983688, 0.0800000037997961, 1.0400000493973494, 0.0, 0.0, 0.0, 0.0, 0.0, 1.7632286806048293E9, 0.0, 2025-11-15 12:44:40.604
24.0, -212.88632517773658, -133.14604827249423, -176.83368960488588, -158.8522506179288, -0.06400000303983688, 0.0800000037997961, 1.0400000493973494, 0.0, 0.0, 0.0, 0.0, 0.0, 1.7632286806048293E9, 0.0, 2025-11-15 12:44:40.604
25.0, -161.81051148287952, -95.91160431364551, -144.56209288723767, -96.3772218581289, -0.06400000303983688, 0.0800000037997961, 1.0400000493973494, 0.0, 0.0, 0.0, 0.0, 0.0, 1.7632286806184585E9, 0.0, 2025-11-15 12:44:40.618
25.0, -195.55936868302524, -123.22035379009321, -170.0046322857961, -152.60661769192666, -0.06400000303983688, 0.0800000037997961, 1.0400000493973494, 0.0, 0.0, 0.0, 0.0, 0.0, 1.7632286806184585E9, 0.0, 2025-11-15 12:44:40.618
26.0, -224.0648861452937, -148.98452458484098, -189.3847938561812, -180.0500035667792, -0.06400000303983688, 0.0800000037997961, 1.0400000493973494, 0.0, 0.0, 0.0, 0.0, 0.0, 1.763228680650489E9, 0.0, 2025-11-15 12:44:40.650
26.0, -191.70353182870895, -118.02563275163993, -167.58865691442043, -117.35806060954928, -0.06400000303983688, 0.0800000037997961, 1.0400000493973494, 0.0, 0.0, 0.0, 0.0, 0.0, 1.763228680650489E9, 0.0, 2025-11-15 12:44:40.650
27.0, -198.69714474584907, -128.02238533319905, -166.16001513134688, -135.55267389398068, -0.06400000303983688, 0.0800000037997961, 1.0400000493973494, 0.0, 0.0, 0.0, 0.0, 0.0, 1.763228680651194E9, 0.0, 2025-11-15 12:44:40.651
27.0, -232.31510544754565, -154.99454381363466, -190.85083463881165, -183.9058404210955, -0.06400000303983688, 0.0800000037997961, 1.0400000493973494, 0.0, 0.0, 0.0, 0.0, 0.0, 1.763228680651194E9, 0.0, 2025-11-15 12:44:40.651
28.0, -197.55273535940796, -125.98039995739236, -172.85443605203182, -140.74365503247827, -0.06400000303983688, 0.0800000037997961, 1.0400000493973494, 0.0, 0.0, 0.0, 0.0, 0.0, 1.7632286806520119E9, 0.0, 2025-11-15 12:44:40.652
28.0, -172.05783736146986, -103.08473242865875, -144.6219312865287, -106.67690633609891, -0.06400000303983688, 0.0800000037997961, 1.0400000493973494, 0.0, 0.0, 0.0, 0.0, 0.0, 1.7632286806520119E9, 0.0, 2025-11-15 12:44:40.652
29.0, -220.85231208335608, -141.33268927549943, -173.68843374215066, -167.47272001579404, -0.06400000303983688, 0.0800000037997961, 1.0400000493973494, 0.0, 0.0, 0.0, 0.0, 0.0, 1.7632286806527095E9, 0.0, 2025-11-15 12:44:40.652
29.0, -218.44755641184747, -145.24462462915108, -181.30287005193532, -168.4899728037417, -0.06400000303983688, 0.0800000037997961, 1.0400000493973494, 0.0, 0.0, 0.0, 0.0, 0.0, 1.7632286806527095E9, 0.0, 2025-11-15 12:44:40.652
30.0, -167.16978811938316, -103.8813311192207, -147.01920715812594, -97.55903024412692, -0.06400000303983688, 0.0800000037997961, 1.0400000493973494, 0.0, 0.0, 0.0, 0.0, 0.0, 1.763228680663442E9, 0.0, 2025-11-15 12:44:40.663
30.0, -213.67918396834284, -134.0810232614167, -170.25146568287164, -153.5528123807162, -0.06400000303983688, 0.0800000037997961, 1.0400000493973494, 0.0, 0.0, 0.0, 0.0, 0.0, 1.763228680663442E9, 0.0, 2025-11-15 12:44:40.663
31.0, -225.46360872872174, -144.58640223694965, -182.99704473186284, -173.62859534285963, -0.06400000303983688, 0.0800000037997961, 1.0400000493973494, 0.0, 0.0, 0.0, 0.0, 0.0, 1.763228680678435E9, 0.0, 2025-11-15 12:44:40.678
31.0, -172.06905706133693, -104.71158890938386, -152.50564039312303, -110.08395519573241, -0.06400000303983688, 0.0800000037997961, 1.0400000493973494, 0.0, 0.0, 0.0, 0.0, 0.0, 1.763228680678435E9, 0.0, 2025-11-15 12:44:40.678
32.0, -185.1287877066061, -110.97592133516446, -148.960215235129, -130.90397824905813, -0.06400000303983688, 0.0800000037997961, 1.0400000493973494, 0.0, 0.0, 0.0, 0.0, 0.0, 1.763228680694102E9, 0.0, 2025-11-15 12:44:40.694
32.0, -217.64347792137414, -138.20613291254267, -177.84720249287784, -173.46403974480927, -0.06400000303983688, 0.0800000037997961, 1.0400000493973494, 0.0, 0.0, 0.0, 0.0, 0.0, 1.763228680694102E9, 0.0, 2025-11-15 12:44:40.694
33.0, -192.36549412086606, -115.47128108190373, -162.21068077813834, -133.4732895186171, -0.06400000303983688, 0.0800000037997961, 1.0400000493973494, 0.0, 0.0, 0.0, 0.0, 0.0, 1.7632286806947894E9, 0.0, 2025-11-15 12:44:40.694
33.0, -164.05445145629346, -96.05746041191742, -136.2520351856947, -101.381207998842, -0.06400000303983688, 0.0800000037997961, 1.0400000493973494, 0.0, 0.0, 0.0, 0.0, 0.0, 1.7632286806947894E9, 0.0, 2025-11-15 12:44:40.694
34.0, -217.00395502895117, -125.07534416811541, -162.60337027348578, -164.14046915527433, -0.06400000303983688, 0.0800000037997961, 1.0400000493973494, 0.0, 0.0, 0.0, 0.0, 0.0, 1.7632286807084353E9, 0.0, 2025-11-15 12:44:40.708
34.0, -202.40338560193777, -120.23591362545267, -164.88096934650093, -152.56921869236976, -0.06400000303983688, 0.0800000037997961, 1.0400000493973494, 0.0, 0.0, 0.0, 0.0, 0.0, 1.7632286807084353E9, 0.0, 2025-11-15 12:44:40.708
35.0, -168.62834910210222, -95.60119261732325, -144.38257768936455, -98.62116183154285, -0.06400000303983688, 0.0800000037997961, 1.0400000493973494, 0.0, 0.0, 0.0, 0.0, 0.0, 1.7632286807240756E9, 0.0, 2025-11-15 12:44:40.724
35.0, -212.30290078464895, -124.6714349729009, -161.58985738549381, -148.95273543521762, -0.06400000303983688, 0.0800000037997961, 1.0400000493973494, 0.0, 0.0, 0.0, 0.0, 0.0, 1.7632286807240756E9, 0.0, 2025-11-15 12:44:40.724
36.0, -233.17902233731002, -147.72417829977348, -185.0839089071378, -180.00138486735523, -0.06400000303983688, 0.0800000037997961, 1.0400000493973494, 0.0, 0.0, 0.0, 0.0, 0.0, 1.763228680724784E9, 0.0, 2025-11-15 12:44:40.724
36.0, -177.03564420249313, -111.64162352727726, -154.7084414670244, -112.88888016249985, -0.06400000303983688, 0.0800000037997961, 1.0400000493973494, 0.0, 0.0, 0.0, 0.0, 0.0, 1.763228680724784E9, 0.0, 2025-11-15 12:44:40.724
37.0, -202.18647140450776, -125.84950345894322, -158.05191202741116, -131.29666774440557, -0.06400000303983688, 0.0800000037997961, 1.0400000493973494, 0.0, 0.0, 0.0, 0.0, 0.0, 1.7632286807384512E9, 0.0, 2025-11-15 12:44:40.738
37.0, -238.38122317567468, -155.2376373107545, -189.61666765343398, -179.9041474685073, -0.06400000303983688, 0.0800000037997961, 1.0400000493973494, 0.0, 0.0, 0.0, 0.0, 0.0, 1.7632286807384512E9, 0.0, 2025-11-15 12:44:40.738
38.0, -202.3173679029569, -136.61293553141877, -178.9018542803824, -148.07759884558618, -0.06400000303983688, 0.0800000037997961, 1.0400000493973494, 0.0, 0.0, 0.0, 0.0, 0.0, 1.7632286807541444E9, 0.0, 2025-11-15 12:44:40.754
38.0, -179.13372807763517, -110.06712564593181, -145.4409693768248, -108.11676781903952, -0.06400000303983688, 0.0800000037997961, 1.0400000493973494, 0.0, 0.0, 0.0, 0.0, 0.0, 1.7632286807541444E9, 0.0, 2025-11-15 12:44:40.754
39.0, -233.05560563877225, -150.5702421660535, -178.61014208383858, -173.76697164122015, -0.06400000303983688, 0.0800000037997961, 1.0400000493973494, 0.0, 0.0, 0.0, 0.0, 0.0, 1.7632286807548008E9, 0.0, 2025-11-15 12:44:40.754
39.0, -224.79790653660893, -151.3818004564382, -184.3060097163543, -168.54607130307704, -0.06400000303983688, 0.0800000037997961, 1.0400000493973494, 0.0, 0.0, 0.0, 0.0, 0.0, 1.7632286807548008E9, 0.0, 2025-11-15 12:44:40.754
40.0, -170.99944567400962, -110.09330494562164, -154.1474564736709, -104.06645616702735, -0.06400000303983688, 0.0800000037997961, 1.0400000493973494, 0.0, 0.0, 0.0, 0.0, 0.0, 1.7632286807684512E9, 0.0, 2025-11-15 12:44:40.768
40.0, -214.55806045792997, -138.91297400416806, -173.16858764830977, -160.58008439745754, -0.06400000303983688, 0.0800000037997961, 1.0400000493973494, 0.0, 0.0, 0.0, 0.0, 0.0, 1.7632286807684512E9, 0.0, 2025-11-15 12:44:40.768
41.0, -228.0366598982364, -148.5731355897151, -184.99041140824556, -180.80172345787287, -0.06400000303983688, 0.09600000455975533, 1.0400000493973494, 0.0, 0.0, 0.0, 0.0, 0.0, 1.7632286807841413E9, 0.0, 2025-11-15 12:44:40.784
41.0, -178.76347798202187, -113.16002290928736, -158.3698035236448, -119.7590763811022, -0.06400000303983688, 0.09600000455975533, 1.0400000493973494, 0.0, 0.0, 0.0, 0.0, 0.0, 1.7632286807841413E9, 0.0, 2025-11-15 12:44:40.784
42.0, -180.4576526619494, -114.56622529262677, -152.97312788758427, -134.41574430745095, -0.06400000303983688, 0.09600000455975533, 1.0400000493973494, 0.0, 0.0, 0.0, 0.0, 0.0, 1.763228680784846E9, 0.0, 2025-11-15 12:44:40.784
42.0, -226.12183112092316, -142.1629470656626, -174.88894162792712, -181.36644835118204, -0.06400000303983688, 0.09600000455975533, 1.0400000493973494, 0.0, 0.0, 0.0, 0.0, 0.0, 1.763228680784846E9, 0.0, 2025-11-15 12:44:40.784
43.0, -185.28586350474507, -104.34133881377056, -153.21248148474842, -131.3976450432092, -0.06400000303983688, 0.09600000455975533, 1.0400000493973494, 0.0, 0.0, 0.0, 0.0, 0.0, 1.76322868079842E9, 0.0, 2025-11-15 12:44:40.798
43.0, -157.20295473746955, -91.30404756823555, -132.17928413394839, -104.4554057624191, -0.06400000303983688, 0.09600000455975533, 1.0400000493973494, 0.0, 0.0, 0.0, 0.0, 0.0, 1.76322868079842E9, 0.0, 2025-11-15 12:44:40.798
44.0, -210.11131941061467, -125.37079626461491, -169.18185429554433, -171.65392816625535, -0.06400000303983688, 0.09600000455975533, 1.0400000493973494, 0.0, 0.0, 0.0, 0.0, 0.0, 1.7632286808141787E9, 0.0, 2025-11-15 12:44:40.814
44.0, -215.62767184525728, -136.65407443093136, -181.5272640492767, -168.81534409988672, -0.06400000303983688, 0.09600000455975533, 1.0400000493973494, 0.0, 0.0, 0.0, 0.0, 0.0, 1.7632286808141787E9, 0.0, 2025-11-15 12:44:40.814
45.0, -165.88700243458152, -106.53292018780485, -150.64691011514515, -106.50861083809286, -0.06400000303983688, 0.09600000455975533, 1.0400000493973494, 0.0, 0.0, 0.0, 0.0, 0.0, 1.7632286808148537E9, 0.0, 2025-11-15 12:44:40.814
45.0, -204.65854527521878, -129.55574431503192, -164.00957265682518, -159.74982660729438, -0.06400000303983688, 0.09600000455975533, 1.0400000493973494, 0.0, 0.0, 0.0, 0.0, 0.0, 1.7632286808148537E9, 0.0, 2025-11-15 12:44:40.814
46.0, -231.80273915361613, -147.55214290181175, -188.66673306468874, -184.06291621923447, -0.06400000303983688, 0.09600000455975533, 1.0400000493973494, 0.0, 0.0, 0.0, 0.0, 0.0, 1.7632286808284185E9, 0.0, 2025-11-15 12:44:40.828
46.0, -187.33906858041883, -119.98160042846575, -163.2615926656872, -126.5806539002806, -0.06400000303983688, 0.09600000455975533, 1.0400000493973494, 0.0, 0.0, 0.0, 0.0, 0.0, 1.7632286808284185E9, 0.0, 2025-11-15 12:44:40.828
47.0, -190.46936484333128, -120.22843382554129, -161.80303168296814, -134.38956500776112, -0.06400000303983688, 0.09600000455975533, 1.0400000493973494, 0.0, 0.0, 0.0, 0.0, 0.0, 1.7632286808441732E9, 0.0, 2025-11-15 12:44:40.844
47.0, -237.2218541894108, -148.65167348878458, -185.25594430509955, -174.65332793071866, -0.06400000303983688, 0.09600000455975533, 1.0400000493973494, 0.0, 0.0, 0.0, 0.0, 0.0, 1.7632286808441732E9, 0.0, 2025-11-15 12:44:40.844
48.0, -189.3137357570231, -121.77675240719691, -164.4471409516409, -129.99892245978117, -0.06400000303983688, 0.09600000455975533, 1.0400000493973494, 0.0, 0.0, 0.0, 0.0, 0.0, 1.7632286808448577E9, 0.0, 2025-11-15 12:44:40.844
48.0, -182.8698881333694, -111.70520182652399, -148.1785761443898, -100.20687941275537, -0.06400000303983688, 0.09600000455975533, 1.0400000493973494, 0.0, 0.0, 0.0, 0.0, 0.0, 1.7632286808448577E9, 0.0, 2025-11-15 12:44:40.844
49.0, -223.48894155211747, -140.4949516854249, -176.69157340656966, -163.39622906409204, -0.06400000303983688, 0.09600000455975533, 1.0400000493973494, 0.0, 0.0, 0.0, 0.0, 0.0, 1.7632286808584294E9, 0.0, 2025-11-15 12:44:40.858
49.0, -227.39339710585773, -150.31966886902228, -187.9823313727975, -167.49515941552818, -0.06400000303983688, 0.09600000455975533, 1.0400000493973494, 0.0, 0.0, 0.0, 0.0, 0.0, 1.7632286808584294E9, 0.0, 2025-11-15 12:44:40.858
50.0, -165.03056534472853, -105.88965739542618, -144.16192359197885, -94.61198907904327, -0.06400000303983688, 0.09600000455975533, 1.0400000493973494, 0.0, 0.0, 0.0, 0.0, 0.0, 1.7632286808741398E9, 0.0, 2025-11-15 12:44:40.874
50.0, -209.8794456133619, -134.2268793596886, -163.27281236555427, -152.25132719613612, -0.06400000303983688, 0.09600000455975533, 1.0400000493973494, 0.0, 0.0, 0.0, 0.0, 0.0, 1.7632286808741398E9, 0.0, 2025-11-15 12:44:40.874
51.0, -221.74240827281028, -139.35428219893947, -180.824162857607, -171.39213516935706, -0.06400000303983688, 0.09600000455975533, 1.0400000493973494, 0.0, 0.0, 0.0, 0.0, 0.0, 1.7632286808748465E9, 0.0, 2025-11-15 12:44:40.874
51.0, -178.0528969904408, -105.19403600366786, -151.60058460384607, -109.57906870171428, -0.06400000303983688, 0.09600000455975533, 1.0400000493973494, 0.0, 0.0, 0.0, 0.0, 0.0, 1.7632286808748465E9, 0.0, 2025-11-15 12:44:40.874
52.0, -185.80570959858596, -115.36656388314441, -151.5519659044221, -133.63410521671176, -0.06400000303983688, 0.09600000455975533, 1.0400000493973494, 0.0, 0.0, 0.0, 0.0, 0.0, 1.7632286808884468E9, 0.0, 2025-11-15 12:44:40.888
52.0, -218.60463220998645, -141.41122717456892, -178.09777578990906, -174.99739872664213, -0.06400000303983688, 0.09600000455975533, 1.0400000493973494, 0.0, 0.0, 0.0, 0.0, 0.0, 1.7632286808884468E9, 0.0, 2025-11-15 12:44:40.888
53.0, -191.2023852346465, -119.08028453914449, -163.4897265629843, -144.93608288280666, -0.06400000303983688, 0.09600000455975533, 1.0400000493973494, 0.0, 0.0, 0.0, 0.0, 0.0, 1.7632286809041455E9, 0.0, 2025-11-15 12:44:40.904
53.0, -166.33953032922, -103.31660622591153, -150.19064232055098, -111.48267777916044, -0.06400000303983688, 0.09600000455975533, 1.0400000493973494, 0.0, 0.0, 0.0, 0.0, 0.0, 1.7632286809041455E9, 0.0, 2025-11-15 12:44:40.904
54.0, -214.73757565580308, -136.0444707381539, -178.57648298423737, -181.21685235295445, -0.06400000303983688, 0.09600000455975533, 1.0400000493973494, 0.0, 0.0, 0.0, 0.0, 0.0, 1.7632286809048457E9, 0.0, 2025-11-15 12:44:40.904
54.0, -214.19529016222805, -136.09682933753356, -179.9378065681085, -168.8190839998424, -0.06400000303983688, 0.09600000455975533, 1.0400000493973494, 0.0, 0.0, 0.0, 0.0, 0.0, 1.7632286809048457E9, 0.0, 2025-11-15 12:44:40.904
55.0, -160.39308939967304, -98.59311258187518, -143.93378969468176, -101.11567510198802, -0.06400000303983688, 0.09600000455975533, 1.0400000493973494, 0.0, 0.0, 0.0, 0.0, 0.0, 1.7632286809184525E9, 0.0, 2025-11-15 12:44:40.918
55.0, -207.44477074220777, -130.82731029996648, -164.10681005567312, -160.68854149617255, -0.06400000303983688, 0.09600000455975533, 1.0400000493973494, 0.0, 0.0, 0.0, 0.0, 0.0, 1.7632286809184525E9, 0.0, 2025-11-15 12:44:40.918
56.0, -229.1137510854751, -146.24691781727597, -180.11732176598161, -178.9766522794962, -0.06400000303983688, 0.09600000455975533, 1.0400000493973494, 0.0, 0.0, 0.0, 0.0, 0.0, 1.7632286809342127E9, 0.0, 2025-11-15 12:44:40.934
56.0, -184.44438601471484, -123.16051539080217, -161.60107708536088, -123.0576681420207, -0.06400000303983688, 0.09600000455975533, 1.0400000493973494, 0.0, 0.0, 0.0, 0.0, 0.0, 1.7632286809342127E9, 0.0, 2025-11-15 12:44:40.934
57.0, -195.67156568169594, -126.12999595561996, -159.63762960862368, -138.79142725560814, -0.06400000303983688, 0.09600000455975533, 1.0400000493973494, 0.0, 0.0, 0.0, 0.0, 0.0, 1.763228680934862E9, 0.0, 2025-11-15 12:44:40.934
57.0, -232.78633284196258, -152.795482639689, -184.81089621037245, -182.21166574116796, -0.06400000303983688, 0.09600000455975533, 1.0400000493973494, 0.0, 0.0, 0.0, 0.0, 0.0, 1.763228680934862E9, 0.0, 2025-11-15 12:44:40.934
58.0, -202.10793350543827, -129.68290091352537, -170.80871077626944, -149.10233143344522, -0.06400000303983688, 0.09600000455975533, 1.0400000493973494, 0.0, 0.0, 0.0, 0.0, 0.0, 1.7632286809484148E9, 0.0, 2025-11-15 12:44:40.948
58.0, -171.51929176785052, -108.1784761683084, -150.2953595193103, -112.47001136746258, -0.06400000303983688, 0.09600000455975533, 1.0400000493973494, 0.0, 0.0, 0.0, 0.0, 0.0, 1.7632286809484148E9, 0.0, 2025-11-15 12:44:40.948
59.0, -225.774020425044, -143.84964194567874, -174.9712194269523, -170.16170808393508, -0.06400000303983688, 0.09600000455975533, 1.0400000493973494, 0.0, 0.0, 0.0, 0.0, 0.0, 1.763228680964178E9, 0.0, 2025-11-15 12:44:40.964
59.0, -216.86557873059064, -142.00587126752362, -177.6415079953149, -164.5630778502673, -0.06400000303983688, 0.09600000455975533, 1.0400000493973494, 0.0, 0.0, 0.0, 0.0, 0.0, 1.763228680964178E9, 0.0, 2025-11-15 12:44:40.964
60.0, -173.94648683909327, -111.93333572382107, -150.75536721386015, -103.44563277438283, -0.06400000303983688, 0.09600000455975533, 1.0400000493973494, 0.0, 0.0, 0.0, 0.0, 0.0, 1.763228680964851E9, 0.0, 2025-11-15 12:44:40.964
60.0, -215.8034471431747, -142.06196976685897, -172.14011516049504, -157.21417443733662, -0.06400000303983688, 0.09600000455975533, 1.0400000493973494, 0.0, 0.0, 0.0, 0.0, 0.0, 1.763228680964851E9, 0.0, 2025-11-15 12:44:40.964
61.0, -229.4840011810884, -154.48591741966084, -190.20757184643298, -183.47949182614684, -0.06400000303983688, 0.09600000455975533, 1.0400000493973494, 0.0, 0.0, 0.0, 0.0, 0.0, 1.7632286809784083E9, 0.0, 2025-11-15 12:44:40.978
61.0, -184.48178501427174, -122.113343403209, -166.65742182545364, -127.16407829336822, -0.06400000303983688, 0.09600000455975533, 1.0400000493973494, 0.0, 0.0, 0.0, 0.0, 0.0, 1.7632286809784083E9, 0.0, 2025-11-15 12:44:40.978
62.0, -187.02117708418518, -124.02069238061085, -158.39598282333463, -135.14876469876617, -0.06400000303983688, 0.09600000455975533, 1.0400000493973494, 0.0, 0.0, 0.0, 0.0, 0.0, 1.7632286809941757E9, 0.0, 2025-11-15 12:44:40.994
62.0, -218.0997457159683, -140.24437838839367, -178.1239550895989, -176.8598689045757, -0.06400000303983688, 0.09600000455975533, 1.0400000493973494, 0.0, 0.0, 0.0, 0.0, 0.0, 1.7632286809941757E9, 0.0, 2025-11-15 12:44:40.994
63.0, -186.6471870886162, -114.49516719346866, -157.812558430247, -140.1003922400996, -0.06400000303983688, 0.09600000455975533, 1.0400000493973494, 0.0, 0.0, 0.0, 0.0, 0.0, 1.763228680994866E9, 0.0, 2025-11-15 12:44:40.994
63.0, -143.9524891944602, -99.5467870705761, -146.19268926791847, -118.760523092933, -0.06400000303983688, 0.09600000455975533, 1.0400000493973494, 0.0, 0.0, 0.0, 0.0, 0.0, 1.763228680994866E9, 0.0, 2025-11-15 12:44:40.994
64.0, -223.23462835513055, -130.83479009987786, -165.57659073825926, -171.51929176785052, -0.06400000303983688, 0.09600000455975533, 1.0400000493973494, 0.0, 0.0, 0.0, 0.0, 0.0, 1.7632286810084577E9, 0.0, 2025-11-15 12:44:41.008
64.0, -203.3159211911261, -118.12661005044356, -160.92041529342532, -151.94465539976954, -0.06400000303983688, 0.09600000455975533, 1.0400000493973494, 0.0, 0.0, 0.0, 0.0, 0.0, 1.7632286810084577E9, 0.0, 2025-11-15 12:44:41.008
65.0, -158.71387431956828, -91.04225457133725, -138.49223525915295, -95.62924186699092, -0.06400000303983688, 0.09600000455975533, 1.0400000493973494, 0.0, 0.0, 0.0, 0.0, 0.0, 1.7632286810241191E9, 0.0, 2025-11-15 12:44:41.024
65.0, -195.26765648648143, -114.02019989909604, -150.38511711824685, -145.78504017274827, -0.06400000303983688, 0.09600000455975533, 1.0400000493973494, 0.0, 0.0, 0.0, 0.0, 0.0, 1.7632286810241191E9, 0.0, 2025-11-15 12:44:41.024
66.0, -217.8454325189814, -132.18489398388192, -167.412881616503, -166.99027292151004, -0.06400000303983688, 0.09600000455975533, 1.0400000493973494, 0.0, 0.0, 0.0, 0.0, 0.0, 1.763228681024836E9, 0.0, 2025-11-15 12:44:41.024
66.0, -169.933574186638, -93.44327034289017, -136.54000748228282, -98.56880323216319, -0.06400000303983688, 0.09600000455975533, 1.0400000493973494, 0.0, 0.0, 0.0, 0.0, 0.0, 1.763228681024836E9, 0.0, 2025-11-15 12:44:41.024
67.0, -179.10006897803396, -96.55486710602418, -129.55387436505407, -106.26925724092871, -0.06400000303983688, 0.09600000455975533, 1.0400000493973494, 0.0, 0.0, 0.0, 0.0, 0.0, 1.7632286810548205E9, 0.0, 2025-11-15 12:44:41.054
67.0, -227.83096540067345, -138.8643553047441, -167.7494726125151, -172.9741128506139, -0.06400000303983688, 0.09600000455975533, 1.0400000493973494, 0.0, 0.0, 0.0, 0.0, 0.0, 1.7632286810548205E9, 0.0, 2025-11-15 12:44:41.054
68.0, -196.07921477686614, -114.79809908987954, -152.5205999929458, -132.08204673510045, -0.06400000303983688, 0.09600000455975533, 1.0400000493973494, 0.0, 0.0, 0.0, 0.0, 0.0, 1.7632286810555007E9, 0.0, 2025-11-15 12:44:41.055
68.0, -159.02054611593485, -97.77407449157909, -123.96646383125335, -93.45635999273509, -0.06400000303983688, 0.09600000455975533, 1.0400000493973494, 0.0, 0.0, 0.0, 0.0, 0.0, 1.7632286810555007E9, 0.0, 2025-11-15 12:44:41.055
69.0, -211.4389838948846, -125.8195842592977, -156.19692164938897, -152.3710039947182, -0.06400000303983688, 0.09600000455975533, 1.0400000493973494, 0.0, 0.0, 0.0, 0.0, 0.0, 1.7632286810562344E9, 0.0, 2025-11-15 12:44:41.056
69.0, -206.7267099507153, -130.43088090466335, -167.7083337130025, -157.47222753427923, -0.06400000303983688, 0.09600000455975533, 1.0400000493973494, 0.0, 0.0, 0.0, 0.0, 0.0, 1.7632286810562344E9, 0.0, 2025-11-15 12:44:41.056
70.0, -162.03116558026522, -97.13081169920042, -138.49597515910864, -99.79549041762948, -0.06400000303983688, 0.09600000455975533, 1.0400000493973494, 0.0, 0.0, 0.0, 0.0, 0.0, 1.7632286810684557E9, 0.0, 2025-11-15 12:44:41.068
70.0, -192.57866841834038, -112.68879551487043, -147.97288164682686, -142.22839531488717, -0.06400000303983688, 0.09600000455975533, 1.0400000493973494, 0.0, 0.0, 0.0, 0.0, 0.0, 1.7632286810684557E9, 0.0, 2025-11-15 12:44:41.068
71.0, -213.52584807015955, -123.32507098885253, -161.3392840884626, -160.73342029564083, -0.06400000303983688, 0.09600000455975533, 1.0400000493973494, 0.0, 0.0, 0.0, 0.0, 0.0, 1.7632286811005168E9, 0.0, 2025-11-15 12:44:41.100
71.0, -158.94574811682105, -92.45219685463235, -132.0296881357208, -104.14873396605253, -0.06400000303983688, 0.09600000455975533, 1.0400000493973494, 0.0, 0.0, 0.0, 0.0, 0.0, 1.7632286811005168E9, 0.0, 2025-11-15 12:44:41.100
72.0, -175.5621236199513, -95.54135421803221, -132.2129432335496, -117.46651770826429, -0.06400000303983688, 0.09600000455975533, 1.0400000493973494, 0.0, 0.0, 0.0, 0.0, 0.0, 1.7632286811011965E9, 0.0, 2025-11-15 12:44:41.101
72.0, -223.2121889553964, -132.29709098255262, -163.49720636289567, -170.40106168109924, -0.06400000303983688, 0.09600000455975533, 1.0400000493973494, 0.0, 0.0, 0.0, 0.0, 0.0, 1.7632286811011965E9, 0.0, 2025-11-15 12:44:41.101
73.0, -187.686879276298, -106.82089248439297, -150.1121044214815, -130.2457558568567, -0.06400000303983688, 0.09600000455975533, 1.0400000493973494, 0.0, 0.0, 0.0, 0.0, 0.0, 1.763228681102024E9, 0.0, 2025-11-15 12:44:41.102
73.0, -169.7091801892966, -96.34169280854985, -129.70347036328167, -91.92300101090223, -0.06400000303983688, 0.09600000455975533, 1.0400000493973494, 0.0, 0.0, 0.0, 0.0, 0.0, 1.763228681102024E9, 0.0, 2025-11-15 12:44:41.102
74.0, -212.53477458190173, -131.84456308791414, -166.79579812381417, -170.22154648322612, -0.06400000303983688, 0.09600000455975533, 1.0400000493973494, 0.0, 0.0, 0.0, 0.0, 0.0, 1.7632286811026547E9, 0.0, 2025-11-15 12:44:41.102
74.0, -216.08767953980714, -135.042177550029, -175.87627521622926, -167.5998766142875, -0.06400000303983688, 0.09600000455975533, 1.0400000493973494, 0.0, 0.0, 0.0, 0.0, 0.0, 1.7632286811026547E9, 0.0, 2025-11-15 12:44:41.102
75.0, -166.13009593170136, -100.52290095901117, -141.90302401874214, -101.57568279653788, -0.06400000303983688, 0.09600000455975533, 1.0400000493973494, 0.0, 0.0, 0.0, 0.0, 0.0, 1.7632286811141431E9, 0.0, 2025-11-15 12:44:41.114
75.0, -200.2791224271059, -119.43931493489072, -151.98953419923782, -152.94320868793875, -0.06400000303983688, 0.09600000455975533, 1.0400000493973494, 0.0, 0.0, 0.0, 0.0, 0.0, 1.7632286811141431E9, 0.0, 2025-11-15 12:44:41.114
76.0, -213.26405507326126, -129.7128201131709, -167.30816441774368, -167.98134640976787, -0.06400000303983688, 0.09600000455975533, 1.0400000493973494, 0.0, 0.0, 0.0, 0.0, 0.0, 1.763228681128412E9, 0.0, 2025-11-15 12:44:41.128
76.0, -173.1985068479553, -101.23348195059225, -144.44615598861128, -114.09686784818769, -0.06400000303983688, 0.09600000455975533, 1.0400000493973494, 0.0, 0.0, 0.0, 0.0, 0.0, 1.763228681128412E9, 0.0, 2025-11-15 12:44:41.128
77.0, -184.14145411830395, -108.60108486330137, -140.41080393642187, -125.57088091224432, -0.06400000303983688, 0.09600000455975533, 1.0400000493973494, 0.0, 0.0, 0.0, 0.0, 0.0, 1.7632286811441636E9, 0.0, 2025-11-15 12:44:41.144
77.0, -223.4029238531366, -129.65672161383554, -163.59070386178792, -160.7035010959953, -0.06400000303983688, 0.09600000455975533, 1.0400000493973494, 0.0, 0.0, 0.0, 0.0, 0.0, 1.7632286811441636E9, 0.0, 2025-11-15 12:44:41.144
78.0, -202.52306240051985, -115.7405538787134, -149.30802593100816, -124.92387821990997, -0.06400000303983688, 0.09600000455975533, 1.0400000493973494, 0.0, 0.0, 0.0, 0.0, 0.0, 1.7632286811448638E9, 0.0, 2025-11-15 12:44:41.144
78.0, -165.20634064264596, -87.19015761697665, -115.67510562948883, -79.43173515889794, -0.06400000303983688, 0.09600000455975533, 1.0400000493973494, 0.0, 0.0, 0.0, 0.0, 0.0, 1.7632286811448638E9, 0.0, 2025-11-15 12:44:41.144
79.0, -215.1414848510176, -117.45342805841938, -142.2882337141782, -141.79082702007145, -0.06400000303983688, 0.09600000455975533, 1.0400000493973494, 0.0, 0.0, 0.0, 0.0, 0.0, 1.7632286811584425E9, 0.0, 2025-11-15 12:44:41.158
79.0, -208.0992532344535, -119.17004213808104, -145.6990224737674, -136.53626758232713, -0.06400000303983688, 0.09600000455975533, 1.0400000493973494, 0.0, 0.0, 0.0, 0.0, 0.0, 1.7632286811584425E9, 0.0, 2025-11-15 12:44:41.158
80.0, -149.4763214290142, -77.96008452633396, -115.50307023152709, -71.49192755296826, -0.06400000303983688, 0.09600000455975533, 1.0400000493973494, 0.0, 0.0, 0.0, 0.0, 0.0, 1.7632286811741433E9, 0.0, 2025-11-15 12:44:41.174
80.0, -194.5047168955207, -108.05879936972633, -136.96261617727578, -133.72386281564832, -0.06400000303983688, 0.09600000455975533, 1.0400000493973494, 0.0, 0.0, 0.0, 0.0, 0.0, 1.7632286811741433E9, 0.0, 2025-11-15 12:44:41.174
81.0, -211.22954949736595, -122.84636379452422, -158.01451302785426, -161.60107708536088, -0.06400000303983688, 0.09600000455975533, 1.0400000493973494, 0.0, 0.0, 0.0, 0.0, 0.0, 1.7632286811748524E9, 0.0, 2025-11-15 12:44:41.174
81.0, -168.75550570059568, -100.04419376468286, -141.24106172658503, -110.30086939316243, -0.06400000303983688, 0.09600000455975533, 1.0400000493973494, 0.0, 0.0, 0.0, 0.0, 0.0, 1.7632286811748524E9, 0.0, 2025-11-15 12:44:41.174
82.0, -172.50662535615265, -102.72944193286821, -141.27846072614193, -123.91784513182938, -0.06400000303983688, 0.09600000455975533, 1.0400000493973494, 0.0, 0.0, 0.0, 0.0, 0.0, 1.763228681188429E9, 0.0, 2025-11-15 12:44:41.188
82.0, -211.45394349470735, -131.0068254978396, -165.49431293923408, -175.40130792185664, -0.06400000303983688, 0.09600000455975533, 1.0400000493973494, 0.0, 0.0, 0.0, 0.0, 0.0, 1.763228681188429E9, 0.0, 2025-11-15 12:44:41.188
83.0, -185.73091159947217, -115.58347808057442, -156.86636374145746, -144.23672159109265, -0.06400000303983688, 0.09600000455975533, 1.0400000493973494, 0.0, 0.0, 0.0, 0.0, 0.0, 1.7632286812048774E9, 0.0, 2025-11-15 12:44:41.204
83.0, -153.95298167597502, -91.37510566739365, -134.85705250222236, -108.74133111163974, -0.06400000303983688, 0.09600000455975533, 1.0400000493973494, 0.0, 0.0, 0.0, 0.0, 0.0, 1.7632286812048774E9, 0.0, 2025-11-15 12:44:41.204
84.0, -207.17923784535378, -122.36765660019591, -164.1180297555402, -169.7091801892966, -0.06400000303983688, 0.09600000455975533, 1.0400000493973494, 0.0, 0.0, 0.0, 0.0, 0.0, 1.7632286812055213E9, 0.0, 2025-11-15 12:44:41.205
84.0, -210.49278920609504, -126.35438995296136, -170.45716018043458, -173.44534024503082, -0.06400000303983688, 0.09600000455975533, 1.0400000493973494, 0.0, 0.0, 0.0, 0.0, 0.0, 1.7632286812055213E9, 0.0, 2025-11-15 12:44:41.205
85.0, -158.54931872151792, -94.82329342653975, -144.71916868537664, -105.19216605369002, -0.06400000303983688, 0.09600000455975533, 1.0400000493973494, 0.0, 0.0, 0.0, 0.0, 0.0, 1.763228681218416E9, 0.0, 2025-11-15 12:44:41.218
85.0, -199.17959184013307, -116.8513041655533, -152.1428700974211, -154.97397436387837, -0.06400000303983688, 0.09600000455975533, 1.0400000493973494, 0.0, 0.0, 0.0, 0.0, 0.0, 1.763228681218416E9, 0.0, 2025-11-15 12:44:41.218
86.0, -217.56867992226034, -131.27609829464927, -168.66574810165912, -169.14071539603174, -0.06400000303983688, 0.09600000455975533, 1.0400000493973494, 0.0, 0.0, 0.0, 0.0, 0.0, 1.7632286812341533E9, 0.0, 2025-11-15 12:44:41.234
86.0, -179.1973063768819, -106.27112719090655, -147.8083260487765, -113.0908347601071, -0.06400000303983688, 0.09600000455975533, 1.0400000493973494, 0.0, 0.0, 0.0, 0.0, 0.0, 1.7632286812341533E9, 0.0, 2025-11-15 12:44:41.234
87.0, -185.67481310013682, -104.71532880933955, -137.23936877399683, -116.9803307140246, -0.06400000303983688, 0.09600000455975533, 1.0400000493973494, 0.0, 0.0, 0.0, 0.0, 0.0, 1.763228681234878E9, 0.0, 2025-11-15 12:44:41.234
87.0, -221.6937895733863, -132.6748208780773, -164.69397434871644, -168.46005360409617, -0.06400000303983688, 0.09600000455975533, 1.0400000493973494, 0.0, 0.0, 0.0, 0.0, 0.0, 1.763228681234878E9, 0.0, 2025-11-15 12:44:41.234
88.0, -201.0607615178451, -123.76263928366825, -161.49261998664588, -139.83859924320132, -0.06400000303983688, 0.09600000455975533, 1.0400000493973494, 0.0, 0.0, 0.0, 0.0, 0.0, 1.7632286812484584E9, 0.0, 2025-11-15 12:44:41.248
88.0, -159.28607901278883, -89.05262779491022, -121.43081166129559, -88.32521725352854, -0.06400000303983688, 0.09600000455975533, 1.0400000493973494, 0.0, 0.0, 0.0, 0.0, 0.0, 1.7632286812484584E9, 0.0, 2025-11-15 12:44:41.248
89.0, -218.2867407137528, -129.21541341906413, -158.04443222749978, -157.8200382301584, -0.06400000303983688, 0.09600000455975533, 1.0400000493973494, 0.0, 0.0, 0.0, 0.0, 0.0, 1.7632286812641451E9, 0.0, 2025-11-15 12:44:41.264
89.0, -209.82708701398224, -126.94155424600467, -159.68624830804765, -156.5933510446921, -0.06400000303983688, 0.09600000455975533, 1.0400000493973494, 0.0, 0.0, 0.0, 0.0, 0.0, 1.7632286812641451E9, 0.0, 2025-11-15 12:44:41.264
90.0, -161.0363521920517, -89.64727188786492, -130.98251614812762, -85.71850698441267, -0.06400000303983688, 0.09600000455975533, 1.0400000493973494, 0.0, 0.0, 0.0, 0.0, 0.0, 1.7632286812648487E9, 0.0, 2025-11-15 12:44:41.264
90.0, -207.33631364349276, -122.39757579984143, -154.71218136698008, -146.52928026393056, -0.06400000303983688, 0.09600000455975533, 1.0400000493973494, 0.0, 0.0, 0.0, 0.0, 0.0, 1.7632286812648487E9, 0.0, 2025-11-15 12:44:41.264
91.0, -220.39230438880622, -134.57469005556777, -168.4824930038303, -162.57719097379595, -0.06400000303983688, 0.09600000455975533, 1.0400000493973494, 0.0, 0.0, 0.0, 0.0, 0.0, 1.763228681278517E9, 0.0, 2025-11-15 12:44:41.278
91.0, -176.11188891343772, -101.9552826420404, -146.68635606206954, -111.6472333772108, -0.06400000303983688, 0.09600000455975533, 1.0400000493973494, 0.0, 0.0, 0.0, 0.0, 0.0, 1.763228681278517E9, 0.0, 2025-11-15 12:44:41.278
92.0, -182.55199663713574, -106.88073088368401, -146.4021236654371, -125.34274701494724, -0.06400000303983688, 0.09600000455975533, 1.0400000493973494, 0.0, 0.0, 0.0, 0.0, 0.0, 1.763228681294122E9, 0.0, 2025-11-15 12:44:41.294
92.0, -214.03447446413338, -125.78966505965218, -167.3343437174335, -168.7480259006843, -0.06400000303983688, 0.09600000455975533, 1.0400000493973494, 0.0, 0.0, 0.0, 0.0, 0.0, 1.763228681294122E9, 0.0, 2025-11-15 12:44:41.294
93.0, -190.18513244669884, -112.29984591947868, -156.8177450420335, -139.46834914758801, -0.06400000303983688, 0.09600000455975533, 1.0400000493973494, 0.0, 0.0, 0.0, 0.0, 0.0, 1.7632286812948384E9, 0.0, 2025-11-15 12:44:41.294
93.0, -170.37114248145372, -100.76225455617532, -146.2936665667221, -109.21255850605667, -0.06400000303983688, 0.09600000455975533, 1.0400000493973494, 0.0, 0.0, 0.0, 0.0, 0.0, 1.7632286812948384E9, 0.0, 2025-11-15 12:44:41.294
94.0, -208.31242753192782, -130.91706789890304, -167.94768731016666, -168.36655610520393, -0.06400000303983688, 0.09600000455975533, 1.0400000493973494, 0.0, 0.0, 0.0, 0.0, 0.0, 1.7632286813084867E9, 0.0, 2025-11-15 12:44:41.308
94.0, -210.14497851021588, -135.89113483997062, -174.80292392894626, -171.46693316847086, -0.06400000303983688, 0.09600000455975533, 1.0400000493973494, 0.0, 0.0, 0.0, 0.0, 0.0, 1.7632286813084867E9, 0.0, 2025-11-15 12:44:41.308
95.0, -164.3349439529702, -98.46969588333741, -142.83799900766462, -106.44877243880183, -0.06400000303983688, 0.09600000455975533, 1.0400000493973494, 0.0, 0.0, 0.0, 0.0, 0.0, 1.763228681324231E9, 0.0, 2025-11-15 12:44:41.324
95.0, -200.14448602870107, -118.82971124211326, -153.48923408146948, -150.04852612223476, -0.06400000303983688, 0.09600000455975533, 1.0400000493973494, 0.0, 0.0, 0.0, 0.0, 0.0, 1.763228681324231E9, 0.0, 2025-11-15 12:44:41.324
96.0, -223.98260834626853, -136.7139128302224, -171.73994586523622, -172.90305475145578, -0.06400000303983688, 0.09600000455975533, 1.0400000493973494, 0.0, 0.0, 0.0, 0.0, 0.0, 1.7632286813248568E9, 0.0, 2025-11-15 12:44:41.324
96.0, -175.52098472043872, -101.68974974518642, -146.7312348615378, -117.65725260600448, -0.06400000303983688, 0.09600000455975533, 1.0400000493973494, 0.0, 0.0, 0.0, 0.0, 0.0, 1.7632286813248568E9, 0.0, 2025-11-15 12:44:41.324
97.0, -178.4530662856996, -106.63763738656417, -141.68984972126782, -119.81891478039324, -0.06400000303983688, 0.09600000455975533, 1.0400000493973494, 0.0, 0.0, 0.0, 0.0, 0.0, 1.7632286813384938E9, 0.0, 2025-11-15 12:44:41.338
97.0, -216.4018311360851, -132.19985358370468, -171.02936487365514, -170.4833394801244, -0.06400000303983688, 0.09600000455975533, 1.0400000493973494, 0.0, 0.0, 0.0, 0.0, 0.0, 1.7632286813384938E9, 0.0, 2025-11-15 12:44:41.338
98.0, -200.77652912121266, -120.51640612212941, -159.69372810795903, -141.52903402317315, -0.06400000303983688, 0.09600000455975533, 1.0400000493973494, 0.0, 0.0, 0.0, 0.0, 0.0, 1.7632286813549387E9, 0.0, 2025-11-15 12:44:41.354
98.0, -167.6746746134013, -91.7266562632285, -132.59815292898566, -99.55987672042102, -0.06400000303983688, 0.09600000455975533, 1.0400000493973494, 0.0, 0.0, 0.0, 0.0, 0.0, 1.7632286813549387E9, 0.0, 2025-11-15 12:44:41.354
99.0, -203.52161568868905, -121.148449214641, -154.84307786542922, -160.38186969980597, -0.06400000303983688, 0.09600000455975533, 1.0400000493973494, 0.0, 0.0, 0.0, 0.0, 0.0, 1.763228681355514E9, 0.0, 2025-11-15 12:44:41.355
99.0, -228.91553638782352, -132.787017876748, -164.09559035580605, -156.86262384150177, -0.06400000303983688, 0.09600000455975533, 1.0400000493973494, 0.0, 0.0, 0.0, 0.0, 0.0, 1.763228681355514E9, 0.0, 2025-11-15 12:44:41.355
100.0, -166.3021313296631, -93.58912644116208, -124.93883781973273, -85.31085788924247, -0.06400000303983688, 0.09600000455975533, 1.0400000493973494, 0.0, 0.0, 0.0, 0.0, 0.0, 1.7632286813691287E9, 0.0, 2025-11-15 12:44:41.369
100.0, -197.01418976578861, -111.04697943432257, -139.3299728492275, -130.08120025880635, -0.06400000303983688, 0.09600000455975533, 1.0400000493973494, 0.0, 0.0, 0.0, 0.0, 0.0, 1.7632286813691287E9, 0.0, 2025-11-15 12:44:41.369
0.0, -218.06047676643357, -125.15949191711843, -160.598783897236, -160.8362675444223, -0.06400000303983688, 0.09600000455975533, 1.0400000493973494, 0.0, 0.0, 0.0, 0.0, 0.0, 1.7632286813698351E9, 0.0, 2025-11-15 12:44:41.369
1.0, -171.75677541503683, -93.39652159344405, -137.52734107058495, -108.81051926082, -0.06400000303983688, 0.09600000455975533, 1.0400000493973494, 0.0, 0.0, 0.0, 0.0, 0.0, 1.7632286813834977E9, 0.0, 2025-11-15 12:44:41.383
1.0, -179.23283542646095, -97.63382824324071, -139.50200824718922, -122.62196979718283, -0.06400000303983688, 0.09600000455975533, 1.0400000493973494, 0.0, 0.0, 0.0, 0.0, 0.0, 1.7632286813834977E9, 0.0, 2025-11-15 12:44:41.383
2.0, -216.64679458318278, -121.54300865996629, -161.8142513828352, -162.1676719286479, -0.06400000303983688, 0.09600000455975533, 1.0400000493973494, 0.0, 0.0, 0.0, 0.0, 0.0, 1.7632286813991494E9, 0.0, 2025-11-15 12:44:41.399
2.0, -192.38606357062235, -113.72661775257438, -160.04901860374957, -144.7172987353988, -0.06400000303983688, 0.09600000455975533, 1.0400000493973494, 0.0, 0.0, 0.0, 0.0, 0.0, 1.7632286813991494E9, 0.0, 2025-11-15 12:44:41.399
3.0, -158.92517866706476, -90.91696792282164, -136.96635607723147, -107.35943807801232, -0.06400000303983688, 0.09600000455975533, 1.0400000493973494, 0.0, 0.0, 0.0, 0.0, 0.0, 1.7632286813998516E9, 0.0, 2025-11-15 12:44:41.399
3.0, -203.47860683919862, -116.2772295223549, -155.5162598574534, -161.77498243330047, -0.06400000303983688, 0.09600000455975533, 1.0400000493973494, 0.0, 0.0, 0.0, 0.0, 0.0, 1.7632286813998516E9, 0.0, 2025-11-15 12:44:41.399
4.0, -203.14201584318653, -123.88792593218386, -165.47935333941132, -166.29278157977387, -0.06400000303983688, 0.09600000455975533, 1.0400000493973494, 0.0, 0.0, 0.0, 0.0, 0.0, 1.7632286814134865E9, 0.0, 2025-11-15 12:44:41.413
4.0, -156.56156189506873, -90.66265472583473, -133.23393592145294, -95.42167741945013, -0.06400000303983688, 0.09600000455975533, 1.0400000493973494, 0.0, 0.0, 0.0, 0.0, 0.0, 1.7632286814134865E9, 0.0, 2025-11-15 12:44:41.413
5.0, -186.82857223646715, -111.42657927982509, -148.68346263840795, -139.63477469561622, -0.06400000303983688, 0.09600000455975533, 1.0400000493973494, 0.0, 0.0, 0.0, 0.0, 0.0, 1.763228681429179E9, 0.0, 2025-11-15 12:44:41.429
5.0, -217.17412047693506, -137.57595977000892, -175.09089622553438, -175.64627136895433, -0.06400000303983688, 0.09600000455975533, 1.0400000493973494, 0.0, 0.0, 0.0, 0.0, 0.0, 1.763228681429179E9, 0.0, 2025-11-15 12:44:41.429
6.0, -168.37590585509315, -102.03943039104342, -148.1486569447443, -118.07799135101959, -0.06400000303983688, 0.09600000455975533, 1.0400000493973494, 0.0, 0.0, 0.0, 0.0, 0.0, 1.7632286814298556E9, 0.0, 2025-11-15 12:44:41.429
6.0, -176.64108475716785, -98.35562893468887, -140.63519793376327, -123.14555579097942, -0.06400000303983688, 0.09600000455975533, 1.0400000493973494, 0.0, 0.0, 0.0, 0.0, 0.0, 1.7632286814298556E9, 0.0, 2025-11-15 12:44:41.429
7.0, -223.65536710014567, -129.26590206846595, -168.06736410874873, -170.7283029272221, -0.06400000303983688, 0.09600000455975533, 1.0400000493973494, 0.0, 0.0, 0.0, 0.0, 0.0, 1.763228681459871E9, 0.0, 2025-11-15 12:44:41.459
7.0, -194.20365494908765, -112.7579836640507, -153.09280468616635, -138.1612541130744, -0.06400000303983688, 0.09600000455975533, 1.0400000493973494, 0.0, 0.0, 0.0, 0.0, 0.0, 1.763228681459871E9, 0.0, 2025-11-15 12:44:41.459
8.0, -161.68148493440822, -95.26273167133331, -131.77537493873388, -102.2881337380968, -0.06400000303983688, 0.09600000455975533, 1.0400000493973494, 0.0, 0.0, 0.0, 0.0, 0.0, 1.7632286814605565E9, 0.0, 2025-11-15 12:44:41.460
8.0, -210.2627853588201, -122.49294324871153, -151.13683700934052, -154.2390840225853, -0.06400000303983688, 0.09600000455975533, 1.0400000493973494, 0.0, 0.0, 0.0, 0.0, 0.0, 1.7632286814605565E9, 0.0, 2025-11-15 12:44:41.460
9.0, -208.17966108350083, -118.49125029612333, -152.7749131899327, -141.57578277261928, -0.06400000303983688, 0.09600000455975533, 1.0400000493973494, 0.0, 0.0, 0.0, 0.0, 0.0, 1.7632286814612901E9, 0.0, 2025-11-15 12:44:41.461
9.0, -153.3489878331311, -77.05689868703485, -120.08070777729154, -74.10050777206197, -0.06400000303983688, 0.09600000455975533, 1.0400000493973494, 0.0, 0.0, 0.0, 0.0, 0.0, 1.7632286814612901E9, 0.0, 2025-11-15 12:44:41.461
10.0, -184.2517811669968, -101.22413220070302, -134.20257000997663, -123.32507098885253, -0.06400000303983688, 0.09600000455975533, 1.0400000493973494, 0.0, 0.0, 0.0, 0.0, 0.0, 1.763228681473446E9, 0.0, 2025-11-15 12:44:41.473
10.0, -210.25530555890873, -117.72831070516258, -150.72918791417032, -150.70487856445834, -0.06400000303983688, 0.09600000455975533, 1.0400000493973494, 0.0, 0.0, 0.0, 0.0, 0.0, 1.763228681473446E9, 0.0, 2025-11-15 12:44:41.473
11.0, -150.96293166140094, -82.61065012123436, -127.56798748858273, -101.37933804886416, -0.06400000303983688, 0.09600000455975533, 1.0400000493973494, 0.0, 0.0, 0.0, 0.0, 0.0, 1.763228681489206E9, 0.0, 2025-11-15 12:44:41.489
11.0, -178.61575193377212, -98.38554813433439, -133.52938801795244, -115.01875318726525, -0.06400000303983688, 0.09600000455975533, 1.0400000493973494, 0.0, 0.0, 0.0, 0.0, 0.0, 1.763228681489206E9, 0.0, 2025-11-15 12:44:41.489
12.0, -214.76562490547076, -126.42731800209731, -160.09015750326216, -172.7628085031174, -0.06400000303983688, 0.09600000455975533, 1.0400000493973494, 0.0, 0.0, 0.0, 0.0, 0.0, 1.7632286814898212E9, 0.0, 2025-11-15 12:44:41.489
12.0, -191.739060878288, -109.09288170747459, -152.31864539533854, -139.59363579610363, -0.06400000303983688, 0.09600000455975533, 1.0400000493973494, 0.0, 0.0, 0.0, 0.0, 0.0, 1.7632286814898212E9, 0.0, 2025-11-15 12:44:41.489
13.0, -158.99623676622286, -85.55395138636231, -127.70262388698757, -95.025248024147, -0.06400000303983688, 0.09600000455975533, 1.0400000493973494, 0.0, 0.0, 0.0, 0.0, 0.0, 1.7632286815034382E9, 0.0, 2025-11-15 12:44:41.503
13.0, -217.77250446984544, -131.00121564790606, -162.06108477991074, -166.4648169777356, -0.06400000303983688, 0.09600000455975533, 1.0400000493973494, 0.0, 0.0, 0.0, 0.0, 0.0, 1.7632286815034382E9, 0.0, 2025-11-15 12:44:41.503
14.0, -213.57259681960568, -127.37725259084255, -163.04841836821288, -163.74216980999336, -0.06400000303983688, 0.09600000455975533, 1.0400000493973494, 0.0, 0.0, 0.0, 0.0, 0.0, 1.7632286815192406E9, 0.0, 2025-11-15 12:44:41.519
14.0, -165.18951109284535, -97.83578284084797, -135.9939820887521, -101.26714105019346, -0.06400000303983688, 0.09600000455975533, 1.0400000493973494, 0.0, 0.0, 0.0, 0.0, 0.0, 1.7632286815192406E9, 0.0, 2025-11-15 12:44:41.519
15.0, -199.7798457830213, -120.2789224749431, -151.54822600446641, -150.8694341625087, -0.06400000303983688, 0.09600000455975533, 1.0400000493973494, 0.0, 0.0, 0.0, 0.0, 0.0, 1.7632286815199077E9, 0.0, 2025-11-15 12:44:41.519
15.0, -220.7494648345746, -134.44566350709647, -169.87373578734696, -163.48785661300644, -0.06400000303983688, 0.09600000455975533, 1.0400000493973494, 0.0, 0.0, 0.0, 0.0, 0.0, 1.7632286815199077E9, 0.0, 2025-11-15 12:44:41.519
16.0, -183.6646168739535, -108.95076550915837, -149.8129124250263, -122.6668485966511, -0.06400000303983688, 0.09600000455975533, 1.0400000493973494, 0.0, 0.0, 0.0, 0.0, 0.0, 1.7632286815334237E9, 0.0, 2025-11-15 12:44:41.533
16.0, -183.79177347244695, -102.09926879033446, -143.38028450123966, -129.27525181835517, -0.06400000303983688, 0.09600000455975533, 1.0400000493973494, 0.0, 0.0, 0.0, 0.0, 0.0, 1.7632286815334237E9, 0.0, 2025-11-15 12:44:41.533
17.0, -220.1922197411768, -129.52395516540855, -169.13323559612036, -172.11206591082737, -0.06400000303983688, 0.09600000455975533, 1.0400000493973494, 0.0, 0.0, 0.0, 0.0, 0.0, 1.7632286815491612E9, 0.0, 2025-11-15 12:44:41.549
17.0, -205.77490541199222, -118.13969970028847, -163.98339335713536, -148.85736798634753, -0.06400000303983688, 0.09600000455975533, 1.0400000493973494, 0.0, 0.0, 0.0, 0.0, 0.0, 1.7632286815491612E9, 0.0, 2025-11-15 12:44:41.549
18.0, -167.77752186218277, -92.8579759998247, -134.25866850931197, -104.39369741315022, -0.06400000303983688, 0.09600000455975533, 1.0400000493973494, 0.0, 0.0, 0.0, 0.0, 0.0, 1.7632286815498888E9, 0.0, 2025-11-15 12:44:41.549
18.0, -216.63183498336002, -126.35999980289489, -156.7766061425209, -166.60319327609614, -0.06400000303983688, 0.09600000455975533, 1.0400000493973494, 0.0, 0.0, 0.0, 0.0, 0.0, 1.7632286815498888E9, 0.0, 2025-11-15 12:44:41.549
19.0, -216.58695618389174, -127.22017679270357, -163.1905345665291, -156.71115789329633, -0.06400000303983688, 0.09600000455975533, 1.0400000493973494, 0.0, 0.0, 0.0, 0.0, 0.0, 1.7632286815634832E9, 0.0, 2025-11-15 12:44:41.563
19.0, -168.62273925216869, -90.92070782277733, -130.2457558568567, -90.94127727253363, -0.06400000303983688, 0.09600000455975533, 1.0400000493973494, 0.0, 0.0, 0.0, 0.0, 0.0, 1.7632286815634832E9, 0.0, 2025-11-15 12:44:41.563
20.0, -200.90929556963965, -110.06525569595397, -135.82194669079036, -131.6014695907943, -0.06400000303983688, 0.09600000455975533, 1.0400000493973494, 0.0, 0.0, 0.0, 0.0, 0.0, 1.7632286815791802E9, 0.0, 2025-11-15 12:44:41.579
20.0, -217.2676179758273, -125.17819141689688, -152.6701959911734, -152.33921484509483, -0.06400000303983688, 0.09600000455975533, 1.0400000493973494, 0.0, 0.0, 0.0, 0.0, 0.0, 1.7632286815791802E9, 0.0, 2025-11-15 12:44:41.579
21.0, -171.08733332296833, -93.00383209809661, -133.96321641281247, -103.29416682617739, -0.06400000303983688, 0.09600000455975533, 1.0400000493973494, 0.0, 0.0, 0.0, 0.0, 0.0, 1.7632286815798705E9, 0.0, 2025-11-15 12:44:41.579
21.0, -173.57062689354643, -94.02108488604426, -127.50814908929169, -108.17473626835272, -0.06400000303983688, 0.09600000455975533, 1.0400000493973494, 0.0, 0.0, 0.0, 0.0, 0.0, 1.7632286815798705E9, 0.0, 2025-11-15 12:44:41.579
22.0, -211.2276795473881, -124.79672162141651, -159.0803845152259, -166.0646476824768, -0.06400000303983688, 0.09600000455975533, 1.0400000493973494, 0.0, 0.0, 0.0, 0.0, 0.0, 1.7632286815934584E9, 0.0, 2025-11-15 12:44:41.593
22.0, -203.19811434252188, -115.33851463347673, -158.32492472417653, -146.63586741266772, -0.06400000303983688, 0.09600000455975533, 1.0400000493973494, 0.0, 0.0, 0.0, 0.0, 0.0, 1.7632286815934584E9, 0.0, 2025-11-15 12:44:41.593
23.0, -157.9415849787183, -84.7797920955345, -129.5052556656301, -100.88567125471309, -0.06400000303983688, 0.09600000455975533, 1.0400000493973494, 0.0, 0.0, 0.0, 0.0, 0.0, 1.7632286816091614E9, 0.0, 2025-11-15 12:44:41.609
23.0, -213.9316272153519, -127.07058079447597, -161.5599381858483, -169.6549516399391, -0.06400000303983688, 0.09600000455975533, 1.0400000493973494, 0.0, 0.0, 0.0, 0.0, 0.0, 1.7632286816091614E9, 0.0, 2025-11-15 12:44:41.609
24.0, -217.5331508726813, -128.81337417382747, -172.345809658058, -167.34743336727843, -0.06400000303983688, 0.09600000455975533, 1.0400000493973494, 0.0, 0.0, 0.0, 0.0, 0.0, 1.7632286816098845E9, 0.0, 2025-11-15 12:44:41.609
24.0, -165.36528639076278, -93.62465549074113, -142.93523640651256, -98.79132727952674, -0.06400000303983688, 0.09600000455975533, 1.0400000493973494, 0.0, 0.0, 0.0, 0.0, 0.0, 1.7632286816098845E9, 0.0, 2025-11-15 12:44:41.609
25.0, -200.0416387799196, -119.2055711876601, -155.4078027587384, -150.33462846884504, -0.06400000303983688, 0.09600000455975533, 1.0400000493973494, 0.0, 0.0, 0.0, 0.0, 0.0, 1.7632286816234367E9, 0.0, 2025-11-15 12:44:41.623
25.0, -225.25978418113664, -136.67090398073196, -174.2307192357257, -180.49692161148414, -0.06400000303983688, 0.09600000455975533, 1.0400000493973494, 0.0, 0.0, 0.0, 0.0, 0.0, 1.7632286816234367E9, 0.0, 2025-11-15 12:44:41.623
26.0, -190.8115656892769, -110.85437458660454, -158.01451302785426, -128.21686013089493, -0.06400000303983688, 0.09600000455975533, 1.0400000493973494, 0.0, 0.0, 0.0, 0.0, 0.0, 1.7632286816391687E9, 0.0, 2025-11-15 12:44:41.639
26.0, -169.5016157417558, -102.48821838572621, -146.79107326082885, -126.0402383566834, -0.06400000303983688, 0.09600000455975533, 1.0400000493973494, 0.0, 0.0, 0.0, 0.0, 0.0, 1.7632286816391687E9, 0.0, 2025-11-15 12:44:41.639
27.0, -217.92584036802873, -138.09580586384982, -177.62654839549214, -181.08782580448315, -0.06400000303983688, 0.09600000455975533, 1.0400000493973494, 0.0, 0.0, 0.0, 0.0, 0.0, 1.7632286816398945E9, 0.0, 2025-11-15 12:44:41.639
27.0, -215.06481690192595, -123.20352424029261, -161.06253149174154, -143.98801824403927, -0.06400000303983688, 0.09600000455975533, 1.0400000493973494, 0.0, 0.0, 0.0, 0.0, 0.0, 1.7632286816398945E9, 0.0, 2025-11-15 12:44:41.639
28.0, -175.5826930697076, -96.0107116624713, -133.8024007147178, -98.01716798869893, -0.06400000303983688, 0.09600000455975533, 1.0400000493973494, 0.0, 0.0, 0.0, 0.0, 0.0, 1.763228681653462E9, 0.0, 2025-11-15 12:44:41.653
28.0, -223.8984605972655, -128.73857617471367, -157.86865692958236, -160.33512095035985, -0.06400000303983688, 0.09600000455975533, 1.0400000493973494, 0.0, 0.0, 0.0, 0.0, 0.0, 1.763228681653462E9, 0.0, 2025-11-15 12:44:41.653
29.0, -222.91112700896338, -129.8381067616865, -164.17786815483123, -160.97838374273852, -0.06400000303983688, 0.09600000455975533, 1.0400000493973494, 0.0, 0.0, 0.0, 0.0, 0.0, 1.7632286816691568E9, 0.0, 2025-11-15 12:44:41.669
29.0, -172.42247760714963, -94.79150427691638, -136.8092802790925, -102.89025763096288, -0.06400000303983688, 0.09600000455975533, 1.0400000493973494, 0.0, 0.0, 0.0, 0.0, 0.0, 1.7632286816691568E9, 0.0, 2025-11-15 12:44:41.669
30.0, -195.2545668366365, -108.48327801469713, -140.46316253580153, -137.08042302588, -0.06400000303983688, 0.09600000455975533, 1.0400000493973494, 0.0, 0.0, 0.0, 0.0, 0.0, 1.7632286816698697E9, 0.0, 2025-11-15 12:44:41.669
30.0, -219.40684075048193, -125.21933031640947, -156.56717174500227, -161.1728585404344, -0.06400000303983688, 0.09600000455975533, 1.0400000493973494, 0.0, 0.0, 0.0, 0.0, 0.0, 1.7632286816698697E9, 0.0, 2025-11-15 12:44:41.669
31.0, -173.286394496914, -93.72937268950045, -138.9185838541016, -111.72764122625813, -0.06400000303983688, 0.09600000455975533, 1.0400000493973494, 0.0, 0.0, 0.0, 0.0, 0.0, 1.7632286816834457E9, 0.0, 2025-11-15 12:44:41.683
31.0, -177.04125405242667, -96.18648696038872, -132.36627913173288, -114.73078089067712, -0.06400000303983688, 0.09600000455975533, 1.0400000493973494, 0.0, 0.0, 0.0, 0.0, 0.0, 1.7632286816834457E9, 0.0, 2025-11-15 12:44:41.683
32.0, -221.6769600235857, -127.13789899367839, -162.745486471802, -171.9138512131758, -0.06400000303983688, 0.09600000455975533, 1.0400000493973494, 0.0, 0.0, 0.0, 0.0, 0.0, 1.76322868169915E9, 0.0, 2025-11-15 12:44:41.699
32.0, -196.19702162547037, -111.2732433816418, -158.5904576210305, -143.3073564521037, -0.06400000303983688, 0.09600000455975533, 1.0400000493973494, 0.0, 0.0, 0.0, 0.0, 0.0, 1.76322868169915E9, 0.0, 2025-11-15 12:44:41.699
33.0, -153.7902960279025, -80.19093484990299, -121.28495556302369, -93.08050004718825, -0.06400000303983688, 0.09600000455975533, 1.0400000493973494, 0.0, 0.0, 0.0, 0.0, 0.0, 1.7632286816998644E9, 0.0, 2025-11-15 12:44:41.699
33.0, -209.10341637255624, -121.73748345766217, -158.38476312346756, -162.14897242886946, -0.06400000303983688, 0.09600000455975533, 1.0400000493973494, 0.0, 0.0, 0.0, 0.0, 0.0, 1.7632286816998644E9, 0.0, 2025-11-15 12:44:41.699
34.0, -220.06132324272767, -133.9893957125023, -174.58974963147193, -172.64313170453534, -0.06400000303983688, 0.09600000455975533, 1.0400000493973494, 0.0, 0.0, 0.0, 0.0, 0.0, 1.7632286817134879E9, 0.0, 2025-11-15 12:44:41.713
34.0, -158.30061537446454, -89.32003064174205, -131.96236993651837, -93.81352043850347, -0.06400000303983688, 0.09600000455975533, 1.0400000493973494, 0.0, 0.0, 0.0, 0.0, 0.0, 1.7632286817134879E9, 0.0, 2025-11-15 12:44:41.713
35.0, -195.0339127392508, -113.13571355957538, -150.8862637123093, -146.77798361098394, -0.06400000303983688, 0.09600000455975533, 1.0400000493973494, 0.0, 0.0, 0.0, 0.0, 0.0, 1.7632286817291548E9, 0.0, 2025-11-15 12:44:41.729
35.0, -228.52097694249824, -141.82448611967266, -175.07593662571162, -176.88791815424338, -0.06400000303983688, 0.09600000455975533, 1.0400000493973494, 0.0, 0.0, 0.0, 0.0, 0.0, 1.7632286817291548E9, 0.0, 2025-11-15 12:44:41.729
36.0, -182.5463867872022, -103.5690494729206, -147.0715657575056, -120.17607522616163, -0.06400000303983688, 0.09600000455975533, 1.0400000493973494, 0.0, 0.0, 0.0, 0.0, 0.0, 1.7632286817298665E9, 0.0, 2025-11-15 12:44:41.729
36.0, -182.29955339012668, -106.44877243880183, -144.26290089078248, -123.9645938812755, -0.06400000303983688, 0.09600000455975533, 1.0400000493973494, 0.0, 0.0, 0.0, 0.0, 0.0, 1.7632286817298665E9, 0.0, 2025-11-15 12:44:41.729
37.0, -229.36245443252847, -142.79686010815203, -178.40818748623133, -179.883578018751, -0.06400000303983688, 0.09600000455975533, 1.0400000493973494, 0.0, 0.0, 0.0, 0.0, 0.0, 1.7632286817434452E9, 0.0, 2025-11-15 12:44:41.743
37.0, -208.2245398829691, -129.12004597019404, -168.54233140312135, -154.03338952502236, -0.06400000303983688, 0.09600000455975533, 1.0400000493973494, 0.0, 0.0, 0.0, 0.0, 0.0, 1.7632286817434452E9, 0.0, 2025-11-15 12:44:41.743
38.0, -167.9158981605433, -93.97620608657598, -133.79492091480643, -98.1405846872367, -0.06400000303983688, 0.09600000455975533, 1.0400000493973494, 0.0, 0.0, 0.0, 0.0, 0.0, 1.763228681759166E9, 0.0, 2025-11-15 12:44:41.759
38.0, -225.09896848304197, -134.34842610824853, -164.73511324822903, -164.65844529913738, -0.06400000303983688, 0.09600000455975533, 1.0400000493973494, 0.0, 0.0, 0.0, 0.0, 0.0, 1.763228681759166E9, 0.0, 2025-11-15 12:44:41.759
39.0, -230.69011891679838, -142.8866177070886, -174.5598304318264, -168.73867615079507, -0.06400000303983688, 0.09600000455975533, 1.0400000493973494, 0.0, 0.0, 0.0, 0.0, 0.0, 1.7632286817598703E9, 0.0, 2025-11-15 12:44:41.759
39.0, -169.47543644206598, -98.8642553286627, -139.25891475006938, -91.56958046508953, -0.06400000303983688, 0.09600000455975533, 1.0400000493973494, 0.0, 0.0, 0.0, 0.0, 0.0, 1.7632286817598703E9, 0.0, 2025-11-15 12:44:41.759
40.0, -207.09509009635076, -117.85172740370035, -148.94525563530624, -137.28985742339864, -0.06400000303983688, 0.09600000455975533, 1.0400000493973494, 0.0, 0.0, 0.0, 0.0, 0.0, 1.7632286817734728E9, 0.0, 2025-11-15 12:44:41.773
40.0, -224.93441288499162, -135.33949959650636, -167.51385891530663, -167.9869562597014, -0.06400000303983688, 0.09600000455975533, 1.0400000493973494, 0.0, 0.0, 0.0, 0.0, 0.0, 1.7632286817734728E9, 0.0, 2025-11-15 12:44:41.773
41.0, -178.219322538469, -99.1933665247634, -142.01896091736853, -108.07375896954909, -0.06400000303983688, 0.09600000455975533, 1.0400000493973494, 0.0, 0.0, 0.0, 0.0, 0.0, 1.7632286817891889E9, 0.0, 2025-11-15 12:44:41.789
41.0, -172.83386660227552, -92.45780670456588, -126.41983820218593, -106.74235458532348, -0.06400000303983688, 0.09600000455975533, 1.0400000493973494, 0.0, 0.0, 0.0, 0.0, 0.0, 1.7632286817891889E9, 0.0, 2025-11-15 12:44:41.789
42.0, -222.70169261144474, -127.07058079447597, -161.7431932836771, -165.66447838721797, -0.06400000303983688, 0.09600000455975533, 1.0400000493973494, 0.0, 0.0, 0.0, 0.0, 0.0, 1.76322868178989E9, 0.0, 2025-11-15 12:44:41.789
42.0, -197.0721582151018, -109.58280860166997, -150.67308941483498, -141.35512867523357, -0.06400000303983688, 0.09600000455975533, 1.0400000493973494, 0.0, 0.0, 0.0, 0.0, 0.0, 1.76322868178989E9, 0.0, 2025-11-15 12:44:41.789
43.0, -157.8705268795602, -82.15438232664019, -118.20701789949089, -83.61855315929279, -0.06400000303983688, 0.09600000455975533, 1.0400000493973494, 0.0, 0.0, 0.0, 0.0, 0.0, 1.763228681803544E9, 0.0, 2025-11-15 12:44:41.803
43.0, -211.94200043892488, -120.28266237489879, -156.72798744309694, -163.91794510791078, -0.06400000303983688, 0.09600000455975533, 1.0400000493973494, 0.0, 0.0, 0.0, 0.0, 0.0, 1.763228681803544E9, 0.0, 2025-11-15 12:44:41.803
44.0, -216.35882228659466, -128.469303377904, -167.44280081614852, -167.36613286705688, -0.06400000303983688, 0.09600000455975533, 1.0400000493973494, 0.0, 0.0, 0.0, 0.0, 0.0, 1.7632286818191688E9, 0.0, 2025-11-15 12:44:41.819
44.0, -151.131227159407, -78.39952277112752, -127.37351269088686, -88.83571359748021, -0.06400000303983688, 0.09600000455975533, 1.0400000493973494, 0.0, 0.0, 0.0, 0.0, 0.0, 1.7632286818191688E9, 0.0, 2025-11-15 12:44:41.819
45.0, -189.05755261005834, -105.66339344810694, -142.07505941670388, -142.62295476021245, -0.06400000303983688, 0.09600000455975533, 1.0400000493973494, 0.0, 0.0, 0.0, 0.0, 0.0, 1.7632286818198867E9, 0.0, 2025-11-15 12:44:41.819
45.0, -215.86889539239928, -126.92846459615976, -167.46524021588266, -173.60802589310333, -0.06400000303983688, 0.09600000455975533, 1.0400000493973494, 0.0, 0.0, 0.0, 0.0, 0.0, 1.7632286818198867E9, 0.0, 2025-11-15 12:44:41.819
46.0, -150.93301246175542, -89.94459393434227, -140.68755653314292, -110.9609617353417, -0.06400000303983688, 0.09600000455975533, 1.0400000493973494, 0.0, 0.0, 0.0, 0.0, 0.0, 1.7632286818335042E9, 0.0, 2025-11-15 12:44:41.833
46.0, -183.23826827900484, -96.1191687611863, -131.85765273775905, -112.95806831168011, -0.06400000303983688, 0.09600000455975533, 1.0400000493973494, 0.0, 0.0, 0.0, 0.0, 0.0, 1.7632286818335042E9, 0.0, 2025-11-15 12:44:41.833
47.0, -225.07652908330783, -133.60792591702193, -172.46174655668437, -171.84653301397339, -0.06400000303983688, 0.09600000455975533, 1.0400000493973494, 0.0, 0.0, 0.0, 0.0, 0.0, 1.7632286818491588E9, 0.0, 2025-11-15 12:44:41.849
47.0, -195.86043062945828, -113.87995365075767, -154.87673696503043, -132.787017876748, -0.06400000303983688, 0.09600000455975533, 1.0400000493973494, 0.0, 0.0, 0.0, 0.0, 0.0, 1.7632286818491588E9, 0.0, 2025-11-15 12:44:41.849
48.0, -153.19191203499213, -77.15787598583847, -121.17649846430868, -81.49802988441661, -0.06400000303983688, 0.09600000455975533, 1.0400000493973494, 0.0, 0.0, 0.0, 0.0, 0.0, 1.763228681849864E9, 0.0, 2025-11-15 12:44:41.849
48.0, -214.44399350928143, -123.05018834210932, -152.4009231943637, -155.60414750641212, -0.06400000303983688, 0.09600000455975533, 1.0400000493973494, 0.0, 0.0, 0.0, 0.0, 0.0, 1.763228681849864E9, 0.0, 2025-11-15 12:44:41.849
49.0, -216.33264298690483, -127.38473239075392, -161.90400898177177, -156.92433219077066, -0.06400000303983688, 0.09600000455975533, 1.0400000493973494, 0.0, 0.0, 0.0, 0.0, 0.0, 1.7632286818634913E9, 0.0, 2025-11-15 12:44:41.863
49.0, -146.46757191466168, -71.02444005850703, -113.60320105403662, -66.80396295851097, -0.06400000303983688, 0.09600000455975533, 1.0400000493973494, 0.0, 0.0, 0.0, 0.0, 0.0, 1.7632286818634913E9, 0.0, 2025-11-15 12:44:41.863
50.0, -166.29278157977387, -85.29215838946402, -118.25563659891486, -112.60277781588957, -0.06400000303983688, 0.09600000455975533, 1.0400000493973494, 0.0, 0.0, 0.0, 0.0, 0.0, 1.7632286818791997E9, 0.0, 2025-11-15 12:44:41.879
50.0, -204.51455912692472, -103.91312026884407, -143.08109250478446, -142.43595976242796, -0.06400000303983688, 0.09600000455975533, 1.0400000493973494, 0.0, 0.0, 0.0, 0.0, 0.0, 1.7632286818791997E9, 0.0, 2025-11-15 12:44:41.879
51.0, -143.02686395542696, -59.6962830927223, -101.33258929941803, -64.66848008381203, -0.06400000303983688, 0.09600000455975533, 1.0400000493973494, 0.0, 0.0, 0.0, 0.0, 0.0, 1.7632286818798692E9, 0.0, 2025-11-15 12:44:41.879
51.0, -141.72911867080256, -51.48346279002726, -96.79609065316617, -73.92847237410024, -0.06400000303983688, 0.09600000455975533, 1.0400000493973494, 0.0, 0.0, 0.0, 0.0, 0.0, 1.7632286818798692E9, 0.0, 2025-11-15 12:44:41.879
52.0, -209.50732556777075, -110.59258158970624, -147.96914174687117, -151.2434241580777, -0.06400000303983688, 0.09600000455975533, 1.0400000493973494, 0.0, 0.0, 0.0, 0.0, 0.0, 1.7632286818935022E9, 0.0, 2025-11-15 12:44:41.893
52.0, -197.75282000703737, -107.51090402621776, -145.90471697133034, -135.4124276456423, -0.06400000303983688, 0.09600000455975533, 1.0400000493973494, 0.0, 0.0, 0.0, 0.0, 0.0, 1.7632286818935022E9, 0.0, 2025-11-15 12:44:41.893
53.0, -142.6753133595921, -66.75347430910915, -107.61562122497708, -75.607687454205, -0.06400000303983688, 0.09600000455975533, 1.0400000493973494, 0.0, 0.0, 0.0, 0.0, 0.0, 1.7632286819091456E9, 0.0, 2025-11-15 12:44:41.909
53.0, -212.51046523218974, -118.18083859980106, -153.2162213847041, -161.07936104154214, -0.06400000303983688, 0.09600000455975533, 1.0400000493973494, 0.0, 0.0, 0.0, 0.0, 0.0, 1.7632286819091456E9, 0.0, 2025-11-15 12:44:41.909
54.0, -225.21116548171267, -135.9939820887521, -170.68903397768736, -163.1699651167728, -0.06400000303983688, 0.09600000455975533, 1.0400000493973494, 0.0, 0.0, 0.0, 0.0, 0.0, 1.7632286819098492E9, 0.0, 2025-11-15 12:44:41.909
54.0, -163.360700014513, -86.76941887196153, -132.9871025243774, -89.79312798613682, -0.06400000303983688, 0.09600000455975533, 1.0400000493973494, 0.0, 0.0, 0.0, 0.0, 0.0, 1.7632286819098492E9, 0.0, 2025-11-15 12:44:41.909
55.0, -205.51311241509393, -113.03099636081606, -147.8532048482448, -141.7889570700936, -0.06400000303983688, 0.09600000455975533, 1.0400000493973494, 0.0, 0.0, 0.0, 0.0, 0.0, 1.7632286819234872E9, 0.0, 2025-11-15 12:44:41.923
55.0, -242.3548668785952, -138.68297015689313, -179.7919504698366, -177.93883004179224, -0.06400000303983688, 0.09600000455975533, 1.0400000493973494, 0.0, 0.0, 0.0, 0.0, 0.0, 1.7632286819234872E9, 0.0, 2025-11-15 12:44:41.923
56.0, -185.64676385046914, -103.5653095729649, -148.08881854545325, -113.93792210007086, -0.06400000303983688, 0.09600000455975533, 1.0400000493973494, 0.0, 0.0, 0.0, 0.0, 0.0, 1.7632286819391444E9, 0.0, 2025-11-15 12:44:41.939
56.0, -176.30823366111144, -90.92070782277733, -129.97274316009134, -106.22998829139397, -0.06400000303983688, 0.09600000455975533, 1.0400000493973494, 0.0, 0.0, 0.0, 0.0, 0.0, 1.7632286819391444E9, 0.0, 2025-11-15 12:44:41.939
57.0, -237.24990343907848, -143.15215060394257, -180.87652145698667, -181.82084619579837, -0.06400000303983688, 0.09600000455975533, 1.0400000493973494, 0.0, 0.0, 0.0, 0.0, 0.0, 1.763228681939856E9, 0.0, 2025-11-15 12:44:41.939
57.0, -222.80640981020406, -133.9557366129011, -173.85298934020102, -152.06994204828516, -0.06400000303983688, 0.09600000455975533, 1.0400000493973494, 0.0, 0.0, 0.0, 0.0, 0.0, 1.763228681939856E9, 0.0, 2025-11-15 12:44:41.939
58.0, -165.84773348504677, -91.32461701799184, -131.38642534334213, -81.67380518233404, -0.06400000303983688, 0.09600000455975533, 1.0400000493973494, 0.0, 0.0, 0.0, 0.0, 0.0, 1.7632286819534974E9, 0.0, 2025-11-15 12:44:41.953
58.0, -224.74367798725143, -146.30862616654485, -181.31408975180238, -177.88647144241259, -0.06400000303983688, 0.09600000455975533, 1.0400000493973494, 0.0, 0.0, 0.0, 0.0, 0.0, 1.7632286819534974E9, 0.0, 2025-11-15 12:44:41.953
59.0, -230.5704421182163, -147.9990609465167, -185.8318888982758, -169.60259304055944, -0.06400000303983688, 0.09600000455975533, 1.0400000493973494, 0.0, 0.0, 0.0, 0.0, 0.0, 1.7632286819691584E9, 0.0, 2025-11-15 12:44:41.969
59.0, -175.71358956815675, -97.12520184926689, -138.89988435432315, -81.99169667856768, -0.06400000303983688, 0.09600000455975533, 1.0400000493973494, 0.0, 0.0, 0.0, 0.0, 0.0, 1.7632286819691584E9, 0.0, 2025-11-15 12:44:41.969
60.0, -212.54412433179095, -128.15889168158174, -161.27570578921586, -146.44139261497185, -0.06400000303983688, 0.09600000455975533, 1.0400000493973494, 0.0, 0.0, 0.0, 0.0, 0.0, 1.7632286819698696E9, 0.0, 2025-11-15 12:44:41.969
60.0, -233.59228128241375, -148.90411673579365, -183.7899035224691, -180.25756801432, -0.06400000303983688, 0.09600000455975533, 1.0400000493973494, 0.0, 0.0, 0.0, 0.0, 0.0, 1.7632286819698696E9, 0.0, 2025-11-15 12:44:41.969
61.0, -201.43662146339193, -119.39630608540028, -159.84706400614232, -122.60701019736007, -0.06400000303983688, 0.09600000455975533, 1.0400000493973494, 0.0, 0.0, 0.0, 0.0, 0.0, 1.7632286819835093E9, 0.0, 2025-11-15 12:44:41.983
61.0, -180.68765650922433, -101.48966509755701, -143.09979200456291, -112.61399751575664, -0.06400000303983688, 0.09600000455975533, 1.0400000493973494, 0.0, 0.0, 0.0, 0.0, 0.0, 1.7632286819835093E9, 0.0, 2025-11-15 12:44:41.983
