%OpenBCI Raw EXG Data
%Number of channels = 4
%Sample Rate = 200 Hz
%Board = OpenBCI_GUI$BoardGanglionBLE
Sample Index, EXG Channel 0, EXG Channel 1, EXG Channel 2, EXG Channel 3, Accel Channel 0, Accel Channel 1, Accel Channel 2, Other, Other, Other, Other, Other, Timestamp, Marker Channel, Timestamp (Formatted)
56.0, 150.85073466273025, 177.5872794459574, 190.73302779020742, 200.7410000716336, 0.0, 0.0, 0.0, 0.0, 0.0, 0.0, 0.0, 0.0, 1.7632260503025615E9, 0.0, 2025-11-15 12:00:50.302
56.0, 260.15305076772347, 256.01298151677474, 255.62777182133868, 267.49821428069845, 0.0, 0.0, 0.0, 0.0, 0.0, 0.0, 0.0, 0.0, 1.7632260503025615E9, 0.0, 2025-11-15 12:00:50.302
0.0, -150.1083645215258, -97.56464009406045, -141.3102498757653, -101.272750900127, 0.0, 0.0, 0.0, 0.0, 0.0, 0.0, 0.0, 0.0, 1.7632260503319936E9, 0.0, 2025-11-15 12:00:50.331
1.0, 79.13254316244274, 128.16450153151527, 68.4943977384828, 86.50014607515186, 0.0, 0.27200001291930676, 0.0, 0.0, 0.0, 0.0, 0.0, 0.0, 1.763226050345394E9, 0.0, 2025-11-15 12:00:50.345
1.0, 246.0274486350827, 333.5018386486918, -169.12014594627544, -123.6897112345323, 0.0, 0.27200001291930676, 0.0, 0.0, 0.0, 0.0, 0.0, 0.0, 1.763226050345394E9, 0.0, 2025-11-15 12:00:50.345
2.0, 256.6936433087103, 322.77206567581743, -203.77405893569812, -152.21018829662353, -0.03200000151991844, 0.27200001291930676, 0.0, 0.0, 0.0, 0.0, 0.0, 0.0, 1.7632260503620994E9, 0.0, 2025-11-15 12:00:50.362
2.0, 80.3367909481749, 115.06363198673353, 34.233174244407564, 57.736575515940785, -0.03200000151991844, 0.27200001291930676, 0.0, 0.0, 0.0, 0.0, 0.0, 0.0, 1.7632260503620994E9, 0.0, 2025-11-15 12:00:50.362
3.0, -146.74993436131626, -66.3102961643599, -90.79168127430603, -57.08957282360643, -0.03200000151991844, 0.27200001291930676, 0.0, 0.0, 0.0, 0.0, 0.0, 0.0, 1.763226050362834E9, 0.0, 2025-11-15 12:00:50.362
3.0, -269.758983803913, -195.68091543158516, -224.35472839185968, -173.18354724813253, -0.03200000151991844, 0.27200001291930676, 0.0, 0.0, 0.0, 0.0, 0.0, 0.0, 1.763226050362834E9, 0.0, 2025-11-15 12:00:50.362
4.0, -27.293789876624942, 13.832019986119121, -59.88140814052895, -28.082908767275512, -0.03200000151991844, 0.27200001291930676, 0.0, 0.0, 0.0, 0.0, 0.0, 0.0, 1.7632260503752036E9, 0.0, 2025-11-15 12:00:50.375
4.0, -16.377021905966103, 53.946186910849065, 14.026494783814996, 34.50057709123939, -0.03200000151991844, 0.27200001291930676, 0.0, 0.0, 0.0, 0.0, 0.0, 0.0, 1.7632260503752036E9, 0.0, 2025-11-15 12:00:50.375
5.0, 207.27834519417956, 291.60373944509774, -216.42988038575277, -165.19512094277889, -0.03200000151991844, 0.27200001291930676, 0.0, 0.0, 0.0, 0.0, 0.0, 0.0, 1.7632260503909073E9, 0.0, 2025-11-15 12:00:50.390
5.0, 337.5502803507261, 386.61215791944414, -159.609580358956, -107.52586362604052, -0.03200000151991844, 0.27200001291930676, 0.0, 0.0, 0.0, 0.0, 0.0, 0.0, 1.7632260503909073E9, 0.0, 2025-11-15 12:00:50.390
6.0, 101.22039230074733, 619.6303645586595, 63.66244699573144, 82.76772591937333, -0.03200000151991844, 0.27200001291930676, 0.0, 0.0, 0.0, 0.0, 0.0, 0.0, 1.7632260503915758E9, 0.0, 2025-11-15 12:00:50.391
6.0, 237.48177723633125, 812.0800064285286, -178.327779637184, -132.67669082805514, -0.03200000151991844, 0.27200001291930676, 0.0, 0.0, 0.0, 0.0, 0.0, 0.0, 1.7632260503915758E9, 0.0, 2025-11-15 12:00:50.391
7.0, 249.3634393955581, 815.1205450925045, -205.10546331992373, -151.4771679053083, -0.03200000151991844, 0.27200001291930676, 0.0, 0.0, 0.0, 0.0, 0.0, 0.0, 1.7632260504052186E9, 0.0, 2025-11-15 12:00:50.405
7.0, 72.35958434268832, 597.8566670166329, 38.661215791944414, 55.6197921410203, -0.03200000151991844, 0.27200001291930676, 0.0, 0.0, 0.0, 0.0, 0.0, 0.0, 1.7632260504052186E9, 0.0, 2025-11-15 12:00:50.405
8.0, -164.0020928569138, 412.33144991472363, -97.59455929370597, -61.93648316618055, -0.03200000151991844, 0.27200001291930676, 0.0, 0.0, 0.0, 0.0, 0.0, 0.0, 1.7632260504208786E9, 0.0, 2025-11-15 12:00:50.420
8.0, -278.15879910439253, 295.56803339812905, -219.96782574383542, -168.68818750139326, -0.03200000151991844, 0.27200001291930676, 0.0, 0.0, 0.0, 0.0, 0.0, 0.0, 1.7632260504208786E9, 0.0, 2025-11-15 12:00:50.420
9.0, -515.891149637755, 505.1295875152573, -58.68838005466387, -24.54122350923717, -0.03200000151991844, 0.27200001291930676, 0.0, 0.0, 0.0, 0.0, 0.0, 0.0, 1.7632260504215746E9, 0.0, 2025-11-15 12:00:50.421
9.0, -509.90356980869547, 536.9299568384886, 11.292627916205674, 37.582254654727876, -0.03200000151991844, 0.27200001291930676, 0.0, 0.0, 0.0, 0.0, 0.0, 0.0, 1.7632260504215746E9, 0.0, 2025-11-15 12:00:50.421
10.0, -280.62713307514787, 293.8738587182015, -212.73485922953114, -159.72738720756024, -0.03200000151991844, 0.27200001291930676, 0.5280000250786543, 0.0, 0.0, 0.0, 0.0, 0.0, 1.7632260504352477E9, 0.0, 2025-11-15 12:00:50.435
10.0, -157.86865692958236, 389.5965980840847, -148.95086548523977, -103.65880707185715, -0.03200000151991844, 0.27200001291930676, 0.5280000250786543, 0.0, 0.0, 0.0, 0.0, 0.0, 1.7632260504352477E9, 0.0, 2025-11-15 12:00:50.435
11.0, -389.6096877339296, 628.404169854708, 71.98372439714149, 97.24113874789327, -0.03200000151991844, 0.09600000455975533, 0.5280000250786543, 0.0, 0.0, 0.0, 0.0, 0.0, 1.7632260504508755E9, 0.0, 2025-11-15 12:00:50.450
11.0, -248.9651400502771, 819.2493946435861, -169.2435626448132, -118.37157349754125, -0.03200000151991844, 0.09600000455975533, 0.5280000250786543, 0.0, 0.0, 0.0, 0.0, 0.0, 1.7632260504508755E9, 0.0, 2025-11-15 12:00:50.450
12.0, -233.26877993624657, 810.7336424444802, -209.35772956954315, -160.17991510219872, -0.01600000075995922, 0.09600000455975533, 0.5280000250786543, 0.0, 0.0, 0.0, 0.0, 0.0, 1.7632260504515705E9, 0.0, 2025-11-15 12:00:50.451
12.0, -417.30364690581337, 599.9248316921294, 34.08731814613566, 54.60253935307264, -0.01600000075995922, 0.09600000455975533, 0.5280000250786543, 0.0, 0.0, 0.0, 0.0, 0.0, 1.7632260504515705E9, 0.0, 2025-11-15 12:00:50.451
13.0, -647.9507569731213, 423.7493644794449, -90.2830548803322, -62.605925258249044, -0.01600000075995922, 0.09600000455975533, 0.5280000250786543, 0.0, 0.0, 0.0, 0.0, 0.0, 1.763226050465207E9, 0.0, 2025-11-15 12:00:50.465
13.0, -758.404962264467, 300.83007263578475, -212.11403583688661, -163.8225776590407, -0.01600000075995922, 0.09600000455975533, 0.5280000250786543, 0.0, 0.0, 0.0, 0.0, 0.0, 1.763226050465207E9, 0.0, 2025-11-15 12:00:50.465
14.0, -999.376066159457, 514.4568980047479, -49.73505956074223, -18.815436677075922, -0.01600000075995922, 0.09600000455975533, 0.5280000250786543, 0.0, 0.0, 0.0, 0.0, 0.0, 1.7632260504808779E9, 0.0, 2025-11-15 12:00:50.480
14.0, -989.1923185801134, 544.3798375502229, 16.562146953772753, 33.988210797309875, -0.01600000075995922, 0.09600000455975533, 0.5280000250786543, 0.0, 0.0, 0.0, 0.0, 0.0, 1.7632260504808779E9, 0.0, 2025-11-15 12:00:50.480
15.0, -767.9865859509446, 787.845454715658, -211.6428084424697, -162.1134433792904, -0.01600000075995922, 0.09600000455975533, 0.5280000250786543, 0.0, 0.0, 0.0, 0.0, 0.0, 1.763226050481573E9, 0.0, 2025-11-15 12:00:50.481
15.0, -640.4036388625391, 887.7643618318252, -149.0855018836446, -101.16803370136768, -0.01600000075995922, 0.09600000455975533, 0.5280000250786543, 0.0, 0.0, 0.0, 0.0, 0.0, 1.763226050481573E9, 0.0, 2025-11-15 12:00:50.481
16.0, -398.5405688281171, 1112.154619273264, 65.59223537286744, 86.20843387860805, -0.01600000075995922, 0.09600000455975533, 0.5280000250786543, 0.0, 0.0, 0.0, 0.0, 0.0, 1.7632260504951816E9, 0.0, 2025-11-15 12:00:50.495
16.0, -242.36047672852874, 1316.2353500053287, -167.14173886971548, -121.8347208565101, -0.01600000075995922, 0.09600000455975533, 0.5280000250786543, 0.0, 0.0, 0.0, 0.0, 0.0, 1.7632260504951816E9, 0.0, 2025-11-15 12:00:50.495
17.0, -247.06153097283095, 1300.3295554937795, -209.9710731622763, -149.86527102440596, -0.01600000075995922, 0.09600000455975533, 0.5280000250786543, 0.0, 0.0, 0.0, 0.0, 0.0, 1.7632260505108843E9, 0.0, 2025-11-15 12:00:50.510
17.0, -409.53587469784543, 1090.3921414311044, 33.99382064724341, 55.331819844432175, -0.01600000075995922, 0.09600000455975533, 0.5280000250786543, 0.0, 0.0, 0.0, 0.0, 0.0, 1.7632260505108843E9, 0.0, 2025-11-15 12:00:50.510
18.0, -638.0998604898341, 919.4039154569618, -78.75668321689591, -41.213697511702776, -0.01600000075995922, 0.09600000455975533, 0.5280000250786543, 0.0, 0.0, 0.0, 0.0, 0.0, 1.76322605051157E9, 0.0, 2025-11-15 12:00:50.511
18.0, -766.0792369735427, 787.3031692220829, -224.52302388986573, -172.6786607541144, -0.01600000075995922, 0.09600000455975533, 0.5280000250786543, 0.0, 0.0, 0.0, 0.0, 0.0, 1.76322605051157E9, 0.0, 2025-11-15 12:00:50.511
19.0, -1008.1274320557714, 996.1691019474529, -54.97839929861948, -19.68683336675167, -0.01600000075995922, 0.09600000455975533, 0.5280000250786543, 0.0, 0.0, 0.0, 0.0, 0.0, 1.7632260505251973E9, 0.0, 2025-11-15 12:00:50.525
19.0, -978.6906795045361, 1043.1534650907852, 20.27212770981714, 45.36872636247426, -0.01600000075995922, 0.09600000455975533, 0.5280000250786543, 0.0, 0.0, 0.0, 0.0, 0.0, 1.7632260505251973E9, 0.0, 2025-11-15 12:00:50.525
20.0, -777.7065859357826, 1268.615203869529, -223.1579604060389, -169.1220158962533, -0.01600000075995922, 0.09600000455975533, 0.7680000364780426, 0.0, 0.0, 0.0, 0.0, 0.0, 1.763226050540881E9, 0.0, 2025-11-15 12:00:50.540
20.0, -641.8846392449923, 1368.6986665837467, -160.5408154479228, -115.63396672997624, -0.01600000075995922, 0.09600000455975533, 0.7680000364780426, 0.0, 0.0, 0.0, 0.0, 0.0, 1.763226050540881E9, 0.0, 2025-11-15 12:00:50.540
21.0, -880.2976515702903, 1610.9132872140035, 73.47968437941745, 94.99345887452364, -0.01600000075995922, 0.144000006839633, 0.7680000364780426, 0.0, 0.0, 0.0, 0.0, 0.0, 1.7632260505415704E9, 0.0, 2025-11-15 12:00:50.541
21.0, -745.584585216362, 1795.337103778962, 313.3400379875675, -133.01702172402292, -0.01600000075995922, 0.144000006839633, 0.7680000364780426, 0.0, 0.0, 0.0, 0.0, 0.0, 1.7632260505415704E9, 0.0, 2025-11-15 12:00:50.541
22.0, -728.9794294130988, 1792.4760803128593, 287.1345589980483, -150.84138491284102, -0.03200000151991844, 0.144000006839633, 0.7680000364780426, 0.0, 0.0, 0.0, 0.0, 0.0, 1.763226050555224E9, 0.0, 2025-11-15 12:00:50.555
22.0, -902.4004603084177, 1584.722767824307, 524.8725193813443, 59.8795381905511, -0.03200000151991844, 0.144000006839633, 0.7680000364780426, 0.0, 0.0, 0.0, 0.0, 0.0, 1.763226050555224E9, 0.0, 2025-11-15 12:00:50.555
23.0, -1123.9633533833548, 1409.8001670967788, 412.4511267133057, -45.77263555768877, -0.03200000151991844, 0.144000006839633, 0.7680000364780426, 0.0, 0.0, 0.0, 0.0, 0.0, 1.7632260505708797E9, 0.0, 2025-11-15 12:00:50.570
23.0, -1261.3523181555793, 1271.8053385317326, 265.1327275587246, -177.712566094473, -0.03200000151991844, 0.144000006839633, 0.7680000364780426, 0.0, 0.0, 0.0, 0.0, 0.0, 1.7632260505708797E9, 0.0, 2025-11-15 12:00:50.570
24.0, -1492.5286240666173, 1487.3544724779204, 438.9183986997232, -17.28581759519875, -0.03200000151991844, 0.144000006839633, 0.7680000364780426, 0.0, 0.0, 0.0, 0.0, 0.0, 1.7632260505715575E9, 0.0, 2025-11-15 12:00:50.571
24.0, -1476.1628218605183, 1525.8492627218366, 509.97275795787573, 48.914151520468295, -0.03200000151991844, 0.144000006839633, 0.7680000364780426, 0.0, 0.0, 0.0, 0.0, 0.0, 1.7632260505715575E9, 0.0, 2025-11-15 12:00:50.571
25.0, -1265.8102789027616, 1763.4394970568828, 269.63556710537523, -174.84032292850316, -0.03200000151991844, 0.144000006839633, 0.7680000364780426, 0.0, 0.0, 0.0, 0.0, 0.0, 1.7632260505852947E9, 0.0, 2025-11-15 12:00:50.585
25.0, -1134.2592979613692, 1864.3756569609977, 336.00009181909263, -114.19410524703562, -0.03200000151991844, 0.144000006839633, 0.7680000364780426, 0.0, 0.0, 0.0, 0.0, 0.0, 1.7632260505852947E9, 0.0, 2025-11-15 12:00:50.585
26.0, -1365.8993514669128, 2107.368176782038, 573.4014612063766, 98.26587133575231, -0.03200000151991844, 0.144000006839633, 0.7680000364780426, 0.0, 0.0, 0.0, 0.0, 0.0, 1.7632260506008747E9, 0.0, 2025-11-15 12:00:50.600
26.0, -1211.3236764483154, 2305.173355388455, 330.9437470789999, -115.9817774258554, -0.03200000151991844, 0.144000006839633, 0.7680000364780426, 0.0, 0.0, 0.0, 0.0, 0.0, 1.7632260506008747E9, 0.0, 2025-11-15 12:00:50.600
27.0, -1223.0370431095362, 2284.372031834908, 286.9438241003081, -153.42191588226706, -0.03200000151991844, 0.144000006839633, 0.7680000364780426, 0.0, 0.0, 0.0, 0.0, 0.0, 1.76322605060158E9, 0.0, 2025-11-15 12:00:50.601
27.0, -1388.0470390045084, 2084.973655847367, 52.08745663287118, 75.67687560338527, -0.03200000151991844, 0.144000006839633, 0.7680000364780426, 0.0, 0.0, 0.0, 0.0, 0.0, 1.76322605060158E9, 0.0, 2025-11-15 12:00:50.601
28.0, -1628.986353749875, 1886.7028596964665, -89.01896869530901, -51.97338968422264, -0.03200000151991844, 0.144000006839633, 0.7680000364780426, 0.0, 0.0, 0.0, 0.0, 0.0, 1.7632260506151965E9, 0.0, 2025-11-15 12:00:50.615
28.0, -1749.1605590260588, 1753.0837140795775, -231.2772832098417, -179.58251607231796, -0.03200000151991844, 0.144000006839633, 0.7680000364780426, 0.0, 0.0, 0.0, 0.0, 0.0, 1.7632260506151965E9, 0.0, 2025-11-15 12:00:50.615
29.0, -1993.6434289794415, 1972.50738437986, -60.367595134768635, -27.3461484760046, -0.03200000151991844, 0.144000006839633, 0.7680000364780426, 0.0, 0.0, 0.0, 0.0, 0.0, 1.7632260506308668E9, 0.0, 2025-11-15 12:00:50.630
29.0, -1963.1108857411891, 2025.273632854689, 21.326779497321695, 48.491542825475335, -0.03200000151991844, 0.144000006839633, 0.7680000364780426, 0.0, 0.0, 0.0, 0.0, 0.0, 1.7632260506308668E9, 0.0, 2025-11-15 12:00:50.630
30.0, -1744.489423981402, 1780.4635216551833, -206.1488954075612, -151.64172350335866, -0.03200000151991844, 0.144000006839633, 0.9120000433176756, 0.0, 0.0, 0.0, 0.0, 0.0, 1.7632260506315904E9, 0.0, 2025-11-15 12:00:50.631
30.0, -1613.6976427310146, 1877.880435700994, -138.88305480452254, -98.73709873016924, -0.03200000151991844, 0.144000006839633, 0.9120000433176756, 0.0, 0.0, 0.0, 0.0, 0.0, 1.7632260506315904E9, 0.0, 2025-11-15 12:00:50.631
31.0, -1856.4751183046028, 2110.719127142336, 76.2023315471597, 94.55215067975223, -0.03200000151991844, 0.1600000075995922, 0.9120000433176756, 0.0, 0.0, 0.0, 0.0, 0.0, 1.7632260506451893E9, 0.0, 2025-11-15 12:00:50.645
31.0, -1709.6185967945494, 2299.4999271556735, -163.33826061477885, -120.32380127441138, -0.03200000151991844, 0.1600000075995922, 0.9120000433176756, 0.0, 0.0, 0.0, 0.0, 0.0, 1.7632260506451893E9, 0.0, 2025-11-15 12:00:50.645
32.0, -1705.4523482439108, 2282.6778571549803, -197.72664070734754, -145.7775603728369, -0.03200000151991844, 0.1600000075995922, 0.9120000433176756, 0.0, 0.0, 0.0, 0.0, 0.0, 1.7632260506772585E9, 0.0, 2025-11-15 12:00:50.677
32.0, -1865.626653496176, 2091.567099469248, -440.44427788164467, 73.13374363351613, -0.03200000151991844, 0.1600000075995922, 0.9120000433176756, 0.0, 0.0, 0.0, 0.0, 0.0, 1.7632260506772585E9, 0.0, 2025-11-15 12:00:50.677
33.0, -2083.090616219677, 1921.345552986022, -546.9416690198705, -21.048156950622797, -0.03200000151991844, 0.1600000075995922, 0.9120000433176756, 0.0, 0.0, 0.0, 0.0, 0.0, 1.7632260506779919E9, 0.0, 2025-11-15 12:00:50.677
33.0, -2214.34614506457, 1790.2171807396226, -684.4914494901896, -140.31730643752962, -0.03200000151991844, 0.1600000075995922, 0.9120000433176756, 0.0, 0.0, 0.0, 0.0, 0.0, 1.7632260506779919E9, 0.0, 2025-11-15 12:00:50.677
34.0, -1973.2048757215962, 1998.2304162750952, -520.3397606350482, -2.124263174831867, -0.03200000151991844, 0.1600000075995922, 0.9120000433176756, 0.0, 0.0, 0.0, 0.0, 0.0, 1.7632260506787097E9, 0.0, 2025-11-15 12:00:50.678
34.0, -1929.9379731342196, 2058.8093157573603, -431.2852628901601, 77.61040388047695, -0.03200000151991844, 0.1600000075995922, 0.9120000433176756, 0.0, 0.0, 0.0, 0.0, 0.0, 1.7632260506787097E9, 0.0, 2025-11-15 12:00:50.678
35.0, -1741.4975040168501, 2271.1589652914554, -193.63519015582278, -148.94151573535055, -0.03200000151991844, 0.1600000075995922, 0.9120000433176756, 0.0, 0.0, 0.0, 0.0, 0.0, 1.763226050679454E9, 0.0, 2025-11-15 12:00:50.679
35.0, -1608.0877927974798, 2375.9771413495764, -126.36560965282843, -85.01914569269866, -0.03200000151991844, 0.1600000075995922, 0.9120000433176756, 0.0, 0.0, 0.0, 0.0, 0.0, 1.763226050679454E9, 0.0, 2025-11-15 12:00:50.679
36.0, -1841.6464149802923, 2133.794309868943, 107.27716027898714, 121.52430916018784, -0.03200000151991844, 0.1600000075995922, 0.9120000433176756, 0.0, 0.0, 0.0, 0.0, 0.0, 1.763226050690247E9, 0.0, 2025-11-15 12:00:50.690
36.0, -1682.6950570135377, 2328.7496847091243, -131.59024989092723, -95.40484786964953, -0.03200000151991844, 0.1600000075995922, 0.9120000433176756, 0.0, 0.0, 0.0, 0.0, 0.0, 1.763226050690247E9, 0.0, 2025-11-15 12:00:50.690
37.0, -1696.2858534525149, 2303.0116932140663, -179.2851940258406, -132.81132722645998, -0.03200000151991844, 0.1600000075995922, 0.9120000433176756, 0.0, 0.0, 0.0, 0.0, 0.0, 1.763226050705184E9, 0.0, 2025-11-15 12:00:50.705
37.0, -1847.7686312077567, 2107.6860682782717, -423.91765997745097, 85.71476708445698, -0.03200000151991844, 0.1600000075995922, 0.9120000433176756, 0.0, 0.0, 0.0, 0.0, 0.0, 1.763226050705184E9, 0.0, 2025-11-15 12:00:50.705
38.0, -2087.6046754661947, 1921.3380731861107, -552.7983523504809, -42.17111190035939, -0.03200000151991844, 0.1600000075995922, 0.9120000433176756, 0.0, 0.0, 0.0, 0.0, 0.0, 1.7632260507373438E9, 0.0, 2025-11-15 12:00:50.737
38.0, -2223.647276254371, 1778.3130791806616, -700.4196834014729, -172.24483235925436, -0.03200000151991844, 0.1600000075995922, 0.9120000433176756, 0.0, 0.0, 0.0, 0.0, 0.0, 1.7632260507373438E9, 0.0, 2025-11-15 12:00:50.737
39.0, -2468.0216891090386, 1972.713078877423, -544.5780522478744, -33.80869559943676, -0.03200000151991844, 0.1600000075995922, 0.9120000433176756, 0.0, 0.0, 0.0, 0.0, 0.0, 1.763226050738003E9, 0.0, 2025-11-15 12:00:50.738
39.0, -2425.263412915636, 2039.8929017814808, -450.7290027597919, 48.68227772321552, -0.03200000151991844, 0.1600000075995922, 0.9120000433176756, 0.0, 0.0, 0.0, 0.0, 0.0, 1.763226050738003E9, 0.0, 2025-11-15 12:00:50.738
40.0, -2236.1348022064194, 2261.5960411047563, -205.9656403097324, -160.6287030968815, -0.03200000151991844, 0.1600000075995922, 0.9600000455975533, 0.0, 0.0, 0.0, 0.0, 0.0, 1.7632260507387269E9, 0.0, 2025-11-15 12:00:50.738
40.0, -2106.1059605469927, 2354.311900906265, -147.07343570748344, -108.28506331704557, -0.03200000151991844, 0.1600000075995922, 0.9600000455975533, 0.0, 0.0, 0.0, 0.0, 0.0, 1.7632260507387269E9, 0.0, 2025-11-15 12:00:50.738
41.0, -2347.398695838172, 2597.7232895223424, 76.95405143825337, 86.43656777590513, -0.03200000151991844, 0.17600000835955143, 0.9600000455975533, 0.0, 0.0, 0.0, 0.0, 0.0, 1.7632260507395544E9, 0.0, 2025-11-15 12:00:50.739
41.0, -2201.0620204219595, 2789.840080296155, -162.51922252448276, -131.51732184179127, -0.03200000151991844, 0.17600000835955143, 0.9600000455975533, 0.0, 0.0, 0.0, 0.0, 0.0, 1.7632260507395544E9, 0.0, 2025-11-15 12:00:50.739
42.0, -2195.025821893476, 2771.13684061775, -212.14021513657644, -163.5233856625855, -0.03200000151991844, 0.17600000835955143, 0.9600000455975533, 0.0, 0.0, 0.0, 0.0, 0.0, 1.7632260507502017E9, 0.0, 2025-11-15 12:00:50.750
42.0, -2371.9847981468774, 2566.311869794503, -450.74770225957036, 58.29382060933858, -0.03200000151991844, 0.17600000835955143, 0.9600000455975533, 0.0, 0.0, 0.0, 0.0, 0.0, 1.7632260507502017E9, 0.0, 2025-11-15 12:00:50.750
43.0, -2582.159695856739, 2398.7344325799495, -559.309518173337, -40.1291265245527, -0.03200000151991844, 0.17600000835955143, 0.9600000455975533, 0.0, 0.0, 0.0, 0.0, 0.0, 1.7632260507652302E9, 0.0, 2025-11-15 12:00:50.765
43.0, -2721.672923803795, 2256.0348098706454, -706.55685922876, -169.0397380972281, -0.03200000151991844, 0.17600000835955143, 0.9600000455975533, 0.0, 0.0, 0.0, 0.0, 0.0, 1.7632260507652302E9, 0.0, 2025-11-15 12:00:50.765
44.0, -2485.0270142075606, 2455.8053059037775, -555.027332724072, -37.197044959291816, -0.03200000151991844, 0.17600000835955143, 0.9600000455975533, 0.0, 0.0, 0.0, 0.0, 0.0, 1.7632260507808888E9, 0.0, 2025-11-15 12:00:50.780
44.0, -2455.257410560269, 2512.2216967353597, -468.6954821469262, 38.053482049144804, -0.03200000151991844, 0.17600000835955143, 0.9600000455975533, 0.0, 0.0, 0.0, 0.0, 0.0, 1.7632260507808888E9, 0.0, 2025-11-15 12:00:50.780
45.0, -2236.306837604381, 2743.8243512413464, -700.0980520052835, -160.24723330140114, -0.03200000151991844, 0.17600000835955143, 0.9600000455975533, 0.0, 0.0, 0.0, 0.0, 0.0, 1.763226050781576E9, 0.0, 2025-11-15 12:00:50.781
45.0, -2112.7293233685195, 2836.659887841437, -646.4005684414878, -117.06634841300547, -0.03200000151991844, 0.17600000835955143, 0.9600000455975533, 0.0, 0.0, 0.0, 0.0, 0.0, 1.763226050781576E9, 0.0, 2025-11-15 12:00:50.781
46.0, -2352.3353637796827, 3079.45045306487, -414.84466268494725, 80.11613685078919, -0.03200000151991844, 0.17600000835955143, 0.9600000455975533, 0.0, 0.0, 0.0, 0.0, 0.0, 1.763226050795387E9, 0.0, 2025-11-15 12:00:50.795
46.0, -2199.5997195392847, 3277.5024650683627, -652.8930347645655, -128.05417448282242, -0.03200000151991844, 0.17600000835955143, 0.9600000455975533, 0.0, 0.0, 0.0, 0.0, 0.0, 1.763226050795387E9, 0.0, 2025-11-15 12:00:50.795
47.0, -2201.7277226140723, 3259.408829082735, -692.4985752953216, -159.43567501101643, -0.03200000151991844, 0.17600000835955143, 0.9600000455975533, 0.0, 0.0, 0.0, 0.0, 0.0, 1.763226050810887E9, 0.0, 2025-11-15 12:00:50.810
47.0, -2384.5770412976854, 3041.5503069139086, -460.53128054365516, 40.076767925173044, -0.03200000151991844, 0.17600000835955143, 0.9600000455975533, 0.0, 0.0, 0.0, 0.0, 0.0, 1.763226050810887E9, 0.0, 2025-11-15 12:00:50.810
48.0, -2596.42367428774, 2874.9938623872586, -565.1961207035929, -52.37355897948146, -0.03200000151991844, 0.17600000835955143, 0.9600000455975533, 0.0, 0.0, 0.0, 0.0, 0.0, 1.7632260508115983E9, 0.0, 2025-11-15 12:00:50.811
48.0, -2727.5557864340954, 2746.2141473130323, -709.7993524903432, -174.44015363324434, -0.03200000151991844, 0.17600000835955143, 0.9600000455975533, 0.0, 0.0, 0.0, 0.0, 0.0, 1.7632260508115983E9, 0.0, 2025-11-15 12:00:50.811
49.0, -2492.895763714332, 2941.500503299292, -554.7842392269522, -33.558122302405536, -0.03200000151991844, 0.17600000835955143, 0.9600000455975533, 0.0, 0.0, 0.0, 0.0, 0.0, 1.763226050825206E9, 0.0, 2025-11-15 12:00:50.825
49.0, -2448.140380944591, 3011.380533971358, -457.12049178406596, 40.7611696170643, -0.03200000151991844, 0.17600000835955143, 0.9600000455975533, 0.0, 0.0, 0.0, 0.0, 0.0, 1.763226050825206E9, 0.0, 2025-11-15 12:00:50.825
50.0, -2244.5383574068546, 3235.660464364104, -212.48054603254423, -174.57479003164917, -0.03200000151991844, 0.17600000835955143, 0.9920000471174717, 0.0, 0.0, 0.0, 0.0, 0.0, 1.7632260508408837E9, 0.0, 2025-11-15 12:00:50.840
50.0, -2112.516149071045, 3331.1887289322913, -152.59352804208174, -114.44841844402254, -0.03200000151991844, 0.17600000835955143, 0.9920000471174717, 0.0, 0.0, 0.0, 0.0, 0.0, 1.7632260508408837E9, 0.0, 2025-11-15 12:00:50.840
51.0, -1870.1033137431368, 3558.413830540143, 63.550249997060746, 73.83684482518584, -0.03200000151991844, 0.17600000835955143, 0.9920000471174717, 0.0, 0.0, 0.0, 0.0, 0.0, 1.763226050841599E9, 0.0, 2025-11-15 12:00:50.841
51.0, -1712.023352466058, 3762.890990667511, -166.67051147529855, -131.25552884489298, -0.03200000151991844, 0.17600000835955143, 0.9920000471174717, 0.0, 0.0, 0.0, 0.0, 0.0, 1.763226050841599E9, 0.0, 2025-11-15 12:00:50.841
52.0, -1727.5065382826142, 3737.160478972364, -214.87408200418577, -172.57020365539938, -0.03200000151991844, 0.17600000835955143, 0.9920000471174717, 0.0, 0.0, 0.0, 0.0, 0.0, 1.7632260508552396E9, 0.0, 2025-11-15 12:00:50.855
52.0, -1898.6312706051394, 3529.7624569796026, 29.042193105909973, 41.206217711791396, -0.03200000151991844, 0.17600000835955143, 0.9920000471174717, 0.0, 0.0, 0.0, 0.0, 0.0, 1.7632260508552396E9, 0.0, 2025-11-15 12:00:50.855
53.0, -2108.439658119343, 3369.29082968086, -69.04416303196922, -43.33796068653464, -0.03200000151991844, 0.17600000835955143, 0.9920000471174717, 0.0, 0.0, 0.0, 0.0, 0.0, 1.7632260508708649E9, 0.0, 2025-11-15 12:00:50.870
53.0, -2243.868915314786, 3227.615939559415, -221.54232362518087, -178.3109500873834, -0.03200000151991844, 0.17600000835955143, 0.9920000471174717, 0.0, 0.0, 0.0, 0.0, 0.0, 1.7632260508708649E9, 0.0, 2025-11-15 12:00:50.870
54.0, -2012.2531711589545, 3425.8642963105813, -72.33901489293203, -44.830180768854916, -0.03200000151991844, 0.17600000835955143, 0.9920000471174717, 0.0, 0.0, 0.0, 0.0, 0.0, 1.763226050871575E9, 0.0, 2025-11-15 12:00:50.871
54.0, -1974.7531943032518, 3486.2973396945745, 12.69883029954508, 28.20632546581328, -0.03200000151991844, 0.17600000835955143, 0.9920000471174717, 0.0, 0.0, 0.0, 0.0, 0.0, 1.763226050871575E9, 0.0, 2025-11-15 12:00:50.871
55.0, -1768.6678771949373, 3713.715046150144, -221.6096418243833, -174.32795663457364, -0.03200000151991844, 0.17600000835955143, 0.9920000471174717, 0.0, 0.0, 0.0, 0.0, 0.0, 1.7632260508852339E9, 0.0, 2025-11-15 12:00:50.885
55.0, -1642.928700784687, 3808.813222223427, -161.02700244216248, -112.52984976675361, -0.03200000151991844, 0.17600000835955143, 0.9920000471174717, 0.0, 0.0, 0.0, 0.0, 0.0, 1.7632260508852339E9, 0.0, 2025-11-15 12:00:50.885
56.0, -1875.4738100795075, 4045.646126817446, 59.45879944553599, 68.26439389120787, -0.03200000151991844, 0.17600000835955143, 0.9920000471174717, 0.0, 0.0, 0.0, 0.0, 0.0, 1.763226050900872E9, 0.0, 2025-11-15 12:00:50.900
56.0, -1719.3273770795204, 4249.547342351638, -170.11495933448896, -136.24455538578331, -0.03200000151991844, 0.17600000835955143, 0.9920000471174717, 0.0, 0.0, 0.0, 0.0, 0.0, 1.763226050900872E9, 0.0, 2025-11-15 12:00:50.900
57.0, -1731.3399357371964, 4223.248365863226, -211.62410894269124, -162.09474387951195, -0.03200000151991844, 0.17600000835955143, 0.9920000471174717, 0.0, 0.0, 0.0, 0.0, 0.0, 1.7632260509015827E9, 0.0, 2025-11-15 12:00:50.901
57.0, -1914.4772267173976, 4003.400216917973, 3.577214307617396, 22.58151593245566, -0.03200000151991844, 0.17600000835955143, 0.9920000471174717, 0.0, 0.0, 0.0, 0.0, 0.0, 1.7632260509015827E9, 0.0, 2025-11-15 12:00:50.901
58.0, -2113.8849524548277, 3855.7601863672026, -80.95200449088588, -45.58938045985997, -0.03200000151991844, 0.17600000835955143, 0.9920000471174717, 0.0, 0.0, 0.0, 0.0, 0.0, 1.7632260509152207E9, 0.0, 2025-11-15 12:00:50.915
58.0, -2243.1994732227176, 3725.1591400145553, -214.54123090812936, -157.20669463742524, -0.03200000151991844, 0.17600000835955143, 0.9920000471174717, 0.0, 0.0, 0.0, 0.0, 0.0, 1.7632260509152207E9, 0.0, 2025-11-15 12:00:50.915
59.0, -2026.5919475890696, 3895.7284971936606, -89.60239308839664, -54.23976905737072, -0.03200000151991844, 0.17600000835955143, 0.9920000471174717, 0.0, 0.0, 0.0, 0.0, 0.0, 1.7632260509309316E9, 0.0, 2025-11-15 12:00:50.930
59.0, -1968.926430172287, 3972.0112365898676, 10.911158120725304, 35.222377782687545, -0.03200000151991844, 0.17600000835955143, 0.9920000471174717, 0.0, 0.0, 0.0, 0.0, 0.0, 1.7632260509309316E9, 0.0, 2025-11-15 12:00:50.930
60.0, -1762.182890671771, 4207.828758345917, -217.31997657520697, -165.86456303484738, -0.03200000151991844, 0.17600000835955143, 1.008000047877431, 0.0, 0.0, 0.0, 0.0, 0.0, 1.7632260509315891E9, 0.0, 2025-11-15 12:00:50.931
60.0, -1642.0273848953657, 4290.076638171449, -166.78644837392494, -120.63047307077795, -0.03200000151991844, 0.17600000835955143, 1.008000047877431, 0.0, 0.0, 0.0, 0.0, 0.0, 1.7632260509315891E9, 0.0, 2025-11-15 12:00:50.931
61.0, -1875.7954414756969, 4052.463964436669, 67.40608685137704, 88.7066870490089, -0.03200000151991844, 0.17600000835955143, 1.008000047877431, 0.0, 0.0, 0.0, 0.0, 0.0, 1.7632260509615881E9, 0.0, 2025-11-15 12:00:50.961
61.0, -1724.5594971175306, 4243.1221942277625, -173.33875309629366, -122.12269315309823, -0.03200000151991844, 0.17600000835955143, 1.008000047877431, 0.0, 0.0, 0.0, 0.0, 0.0, 1.7632260509615881E9, 0.0, 2025-11-15 12:00:50.961
62.0, -1737.3088160664774, 4219.7365998048335, -229.3175756330602, -171.9007615633309, -0.03200000151991844, 0.17600000835955143, 1.008000047877431, 0.0, 0.0, 0.0, 0.0, 0.0, 1.7632260509622955E9, 0.0, 2025-11-15 12:00:50.962
62.0, -1904.256080138497, 4014.4329217872582, 15.234482469502836, 36.75573676452041, -0.03200000151991844, 0.17600000835955143, 1.008000047877431, 0.0, 0.0, 0.0, 0.0, 0.0, 1.7632260509622955E9, 0.0, 2025-11-15 12:00:50.962
63.0, -2104.4342252667993, 3863.5877969744615, -69.975398120936, -28.030550167895854, -0.03200000151991844, 0.17600000835955143, 1.008000047877431, 0.0, 0.0, 0.0, 0.0, 0.0, 1.7632260509630337E9, 0.0, 2025-11-15 12:00:50.963
63.0, -2241.53147784248, 3726.587781797629, -220.77938403422013, -162.7492263717577, -0.03200000151991844, 0.17600000835955143, 1.008000047877431, 0.0, 0.0, 0.0, 0.0, 0.0, 1.7632260509630337E9, 0.0, 2025-11-15 12:00:50.963
64.0, -2014.2203585356474, 3910.95736981323, -73.93221227405593, -35.02416308503598, -0.03200000151991844, 0.17600000835955143, 1.008000047877431, 0.0, 0.0, 0.0, 0.0, 0.0, 1.7632260509752326E9, 0.0, 2025-11-15 12:00:50.975
64.0, -1957.033548313193, 3988.444356995169, 26.7720738328062, 48.19983062893152, -0.03200000151991844, 0.17600000835955143, 1.008000047877431, 0.0, 0.0, 0.0, 0.0, 0.0, 1.7632260509752326E9, 0.0, 2025-11-15 12:00:50.975
65.0, -1760.5261149914004, 4218.053644824773, -213.5277180201374, -161.38416288793087, -0.03200000151991844, 0.17600000835955143, 1.008000047877431, 0.0, 0.0, 0.0, 0.0, 0.0, 1.7632260509909356E9, 0.0, 2025-11-15 12:00:50.990
65.0, -1654.3540951493196, 4292.339277644642, -166.0646476824768, -116.00421682558954, -0.03200000151991844, 0.17600000835955143, 1.008000047877431, 0.0, 0.0, 0.0, 0.0, 0.0, 1.7632260509909356E9, 0.0, 2025-11-15 12:00:50.990
66.0, -1860.839581552893, 4054.872460008133, 66.02980366768315, 87.29674476571381, -0.03200000151991844, 0.17600000835955143, 1.008000047877431, 0.0, 0.0, 0.0, 0.0, 0.0, 1.7632260509917262E9, 0.0, 2025-11-15 12:00:50.991
66.0, -1705.3214517454617, 4267.932690533809, -154.30266232183203, -110.32330879289657, -0.03200000151991844, 0.17600000835955143, 1.008000047877431, 0.0, 0.0, 0.0, 0.0, 0.0, 1.7632260509917262E9, 0.0, 2025-11-15 12:00:50.991
67.0, -1718.8411900852807, 4233.854722137563, -210.07579036103562, -150.75536721386015, -0.03200000151991844, 0.17600000835955143, 1.008000047877431, 0.0, 0.0, 0.0, 0.0, 0.0, 1.7632260510052648E9, 0.0, 2025-11-15 12:00:51.005
67.0, -1911.04773845803, 4005.2252880963497, 9.781708334106952, 33.2738899057731, -0.03200000151991844, 0.17600000835955143, 1.008000047877431, 0.0, 0.0, 0.0, 0.0, 0.0, 1.7632260510052648E9, 0.0, 2025-11-15 12:00:51.005
68.0, -2094.377634285949, 3869.646434902679, -67.96707184473053, -33.243970706127584, -0.03200000151991844, 0.17600000835955143, 1.008000047877431, 0.0, 0.0, 0.0, 0.0, 0.0, 1.763226051020913E9, 0.0, 2025-11-15 12:00:51.020
68.0, -2236.549931101501, 3727.1375470911153, -219.18992655305192, -160.80447839479893, -0.03200000151991844, 0.17600000835955143, 1.008000047877431, 0.0, 0.0, 0.0, 0.0, 0.0, 1.763226051020913E9, 0.0, 2025-11-15 12:00:51.020
69.0, -2026.6555258883163, 3906.1104594706558, -79.74401680519804, -32.398753316141665, -0.03200000151991844, 0.17600000835955143, 1.008000047877431, 0.0, 0.0, 0.0, 0.0, 0.0, 1.7632260510216963E9, 0.0, 2025-11-15 12:00:51.021
69.0, -1940.1404202133417, 4002.9476890233345, 38.02917269943282, 59.44196989573538, -0.03200000151991844, 0.17600000835955143, 1.008000047877431, 0.0, 0.0, 0.0, 0.0, 0.0, 1.7632260510216963E9, 0.0, 2025-11-15 12:00:51.021
70.0, -1757.7324097245, 4215.114083459601, 273.18847206328064, -167.36052301712334, -0.03200000151991844, 0.17600000835955143, 1.0240000486373901, 0.0, 0.0, 0.0, 0.0, 0.0, 1.7632260510352535E9, 0.0, 2025-11-15 12:00:51.035
70.0, -1644.398481467273, 4287.069758607075, 311.6346436077729, -132.97588282451034, -0.03200000151991844, 0.17600000835955143, 1.0240000486373901, 0.0, 0.0, 0.0, 0.0, 0.0, 1.7632260510352535E9, 0.0, 2025-11-15 12:00:51.035
71.0, -1868.8130482584238, 4053.294222226832, 551.4519883664325, 83.4483877113089, -0.03200000151991844, 0.19200000911951065, 1.0240000486373901, 0.0, 0.0, 0.0, 0.0, 0.0, 1.7632260510509243E9, 0.0, 2025-11-15 12:00:51.050
71.0, -1706.1591893355362, 4268.50489522703, 337.77654429804534, -106.5684492373839, -0.03200000151991844, 0.19200000911951065, 1.0240000486373901, 0.0, 0.0, 0.0, 0.0, 0.0, 1.7632260510509243E9, 0.0, 2025-11-15 12:00:51.050
72.0, -1738.748677549418, 4218.427634820342, 269.0446629123762, -164.2638858538121, -0.03200000151991844, 0.19200000911951065, 1.0240000486373901, 0.0, 0.0, 0.0, 0.0, 0.0, 1.7632260510517132E9, 0.0, 2025-11-15 12:00:51.051
72.0, -1909.8472305722535, 4012.3684970117174, 504.2432312257588, 34.21634469460696, -0.03200000151991844, 0.19200000911951065, 1.0240000486373901, 0.0, 0.0, 0.0, 0.0, 0.0, 1.7632260510517132E9, 0.0, 2025-11-15 12:00:51.051
73.0, -2100.0174034191296, 3865.5811636508442, 415.65622097533196, -46.535575148649514, -0.03200000151991844, 0.19200000911951065, 1.0240000486373901, 0.0, 0.0, 0.0, 0.0, 0.0, 1.7632260510653255E9, 0.0, 2025-11-15 12:00:51.065
73.0, -2242.5225513307378, 3723.162033438217, 268.9885644130409, -158.13418982643634, -0.03200000151991844, 0.19200000911951065, 1.0240000486373901, 0.0, 0.0, 0.0, 0.0, 0.0, 1.7632260510653255E9, 0.0, 2025-11-15 12:00:51.065
74.0, -2032.5907471179962, 3898.982210155111, 403.62122291792184, -55.46271634288132, -0.03200000151991844, 0.19200000911951065, 1.0240000486373901, 0.0, 0.0, 0.0, 0.0, 0.0, 1.763226051080896E9, 0.0, 2025-11-15 12:00:51.080
74.0, -1962.8154336446896, 3980.025842194911, 508.03174988087267, 34.463178091682494, -0.03200000151991844, 0.19200000911951065, 1.0240000486373901, 0.0, 0.0, 0.0, 0.0, 0.0, 1.763226051080896E9, 0.0, 2025-11-15 12:00:51.080
75.0, -1762.0071153738536, 4214.13422967121, 277.77358940895647, -166.16001513134688, -0.03200000151991844, 0.19200000911951065, 1.0240000486373901, 0.0, 0.0, 0.0, 0.0, 0.0, 1.7632260510816357E9, 0.0, 2025-11-15 12:00:51.081
75.0, -1662.2191047561355, 4286.362917515449, 310.86422421690077, -136.2894341852516, -0.03200000151991844, 0.19200000911951065, 1.0240000486373901, 0.0, 0.0, 0.0, 0.0, 0.0, 1.7632260510816357E9, 0.0, 2025-11-15 12:00:51.081
76.0, -1871.3113014288247, 4050.2649032627232, 544.499514348805, 69.7715735733509, -0.03200000151991844, 0.19200000911951065, 1.0240000486373901, 0.0, 0.0, 0.0, 0.0, 0.0, 1.7632260510952632E9, 0.0, 2025-11-15 12:00:51.095
76.0, -1709.237126999069, 4262.487396198325, 328.0902034128085, -118.00880320183933, -0.03200000151991844, 0.19200000911951065, 1.0240000486373901, 0.0, 0.0, 0.0, 0.0, 0.0, 1.7632260510952632E9, 0.0, 2025-11-15 12:00:51.095
77.0, -1738.1428137565963, 4217.286965333857, 261.4863251019269, -180.99993815552443, -0.03200000151991844, 0.19200000911951065, 1.0240000486373901, 0.0, 0.0, 0.0, 0.0, 0.0, 1.7632260511109076E9, 0.0, 2025-11-15 12:00:51.110
77.0, -1909.8509704722092, 4004.462348505389, 489.9829926947132, 20.210419360548258, -0.03200000151991844, 0.19200000911951065, 1.0240000486373901, 0.0, 0.0, 0.0, 0.0, 0.0, 1.7632260511109076E9, 0.0, 2025-11-15 12:00:51.110
78.0, -2087.249384970404, 3879.40757378703, 423.6147280810401, -34.55667559057474, -0.03200000151991844, 0.19200000911951065, 1.0240000486373901, 0.0, 0.0, 0.0, 0.0, 0.0, 1.763226051111708E9, 0.0, 2025-11-15 12:00:51.111
78.0, -2235.6299157124013, 3719.9831184758805, 263.14684068225324, -174.5261713322252, -0.03200000151991844, 0.19200000911951065, 1.0240000486373901, 0.0, 0.0, 0.0, 0.0, 0.0, 1.763226051111708E9, 0.0, 2025-11-15 12:00:51.111
79.0, -2036.37926577311, 3895.784595692996, 400.01969926059246, -51.8387532858178, -0.03200000151991844, 0.19200000911951065, 1.0240000486373901, 0.0, 0.0, 0.0, 0.0, 0.0, 1.7632260511252732E9, 0.0, 2025-11-15 12:00:51.125
79.0, -1958.2190965991467, 3984.4239645428024, 513.6827387139201, 27.103054978884757, -0.03200000151991844, 0.19200000911951065, 1.0240000486373901, 0.0, 0.0, 0.0, 0.0, 0.0, 1.7632260511252732E9, 0.0, 2025-11-15 12:00:51.125
80.0, -1760.6495316899382, 4218.330397421494, 273.40538626071066, -166.25725253019482, -0.03200000151991844, 0.19200000911951065, 1.0240000486373901, 0.0, 0.0, 0.0, 0.0, 0.0, 1.763226051140916E9, 0.0, 2025-11-15 12:00:51.140
80.0, -1657.6975657097064, 4289.72882747557, 319.9334816094488, -125.466163713485, -0.03200000151991844, 0.19200000911951065, 1.0240000486373901, 0.0, 0.0, 0.0, 0.0, 0.0, 1.763226051140916E9, 0.0, 2025-11-15 12:00:51.140
81.0, -1864.7552568065003, 4050.3920598612167, 543.9123500557616, 68.87399758398533, -0.03200000151991844, 0.17600000835955143, 1.0240000486373901, 0.0, 0.0, 0.0, 0.0, 0.0, 1.76322605114161E9, 0.0, 2025-11-15 12:00:51.141
81.0, -1714.484206636902, 4259.667511631735, 325.35259664524347, -125.36892631463706, -0.03200000151991844, 0.17600000835955143, 1.0240000486373901, 0.0, 0.0, 0.0, 0.0, 0.0, 1.76322605114161E9, 0.0, 2025-11-15 12:00:51.141
82.0, -1717.7940180976875, 4239.083102275617, 279.89037278387696, -159.50673311017454, -0.03200000151991844, 0.17600000835955143, 1.0240000486373901, 0.0, 0.0, 0.0, 0.0, 0.0, 1.7632260511552873E9, 0.0, 2025-11-15 12:00:51.155
82.0, -1908.2091543916613, 4006.0331064867787, 493.03475105855614, 22.286063835956156, -0.03200000151991844, 0.17600000835955143, 1.0240000486373901, 0.0, 0.0, 0.0, 0.0, 0.0, 1.7632260511552873E9, 0.0, 2025-11-15 12:00:51.155
83.0, -2093.1210279008374, 3876.7073660190217, 420.59288891684264, -35.77214307617396, -0.03200000151991844, 0.17600000835955143, 1.0240000486373901, 0.0, 0.0, 0.0, 0.0, 0.0, 1.763226051170931E9, 0.0, 2025-11-15 12:00:51.170
83.0, -2241.2846444454044, 3723.857654829975, 266.8306421386078, -176.50083850882947, -0.03200000151991844, 0.17600000835955143, 1.0240000486373901, 0.0, 0.0, 0.0, 0.0, 0.0, 1.763226051170931E9, 0.0, 2025-11-15 12:00:51.170
84.0, -2035.8033211799338, 3894.6289666066878, 396.20874120574445, -57.89739121403545, -0.03200000151991844, 0.17600000835955143, 1.0240000486373901, 0.0, 0.0, 0.0, 0.0, 0.0, 1.7632260511716113E9, 0.0, 2025-11-15 12:00:51.171
84.0, -1936.8941870518029, 4001.4666886408813, 526.046847967431, 60.4741822835058, -0.03200000151991844, 0.17600000835955143, 1.0240000486373901, 0.0, 0.0, 0.0, 0.0, 0.0, 1.7632260511716113E9, 0.0, 2025-11-15 12:00:51.171
85.0, -1759.8005743999965, 4224.822863744572, 287.0522811990231, -151.63424370344728, -0.03200000151991844, 0.17600000835955143, 1.0240000486373901, 0.0, 0.0, 0.0, 0.0, 0.0, 1.763226051185262E9, 0.0, 2025-11-15 12:00:51.185
85.0, -1656.5830755229108, 4285.001593931578, 311.705701706931, -139.90965734235942, -0.03200000151991844, 0.17600000835955143, 1.0240000486373901, 0.0, 0.0, 0.0, 0.0, 0.0, 1.763226051185262E9, 0.0, 2025-11-15 12:00:51.185
86.0, -1867.821974770166, 4055.500763200689, 551.0443392712623, 71.65648315101862, -0.03200000151991844, 0.17600000835955143, 1.0240000486373901, 0.0, 0.0, 0.0, 0.0, 0.0, 1.763226051201608E9, 0.0, 2025-11-15 12:00:51.201
86.0, -1714.749739533756, 4266.694783648476, 327.7199533171952, -117.15610601194203, -0.03200000151991844, 0.17600000835955143, 1.0240000486373901, 0.0, 0.0, 0.0, 0.0, 0.0, 1.763226051201608E9, 0.0, 2025-11-15 12:00:51.201
87.0, -1740.0352031341754, 4217.19720773492, 252.77235820516944, -188.6779527645558, -0.03200000151991844, 0.17600000835955143, 1.0240000486373901, 0.0, 0.0, 0.0, 0.0, 0.0, 1.7632260512022734E9, 0.0, 2025-11-15 12:00:51.202
87.0, -1908.8598969839513, 4009.915122640785, 489.2050935039297, 24.50756440963596, -0.03200000151991844, 0.17600000835955143, 1.0240000486373901, 0.0, 0.0, 0.0, 0.0, 0.0, 1.7632260512022734E9, 0.0, 2025-11-15 12:00:51.202
88.0, -2073.381835934706, 3885.8177623110823, 427.89317363034934, -31.474998027086258, -0.03200000151991844, 0.17600000835955143, 1.0240000486373901, 0.0, 0.0, 0.0, 0.0, 0.0, 1.763226051231684E9, 0.0, 2025-11-15 12:00:51.231
88.0, -2242.1036825357005, 3726.441925699357, 264.07433587126434, -173.75575194135308, -0.03200000151991844, 0.17600000835955143, 1.0240000486373901, 0.0, 0.0, 0.0, 0.0, 0.0, 1.763226051231684E9, 0.0, 2025-11-15 12:00:51.231
89.0, -2024.224590917118, 3907.3334067561664, 404.2607458103448, -49.86408610921353, -0.03200000151991844, 0.17600000835955143, 1.0240000486373901, 0.0, 0.0, 0.0, 0.0, 0.0, 1.763226051232338E9, 0.0, 2025-11-15 12:00:51.232
89.0, -1929.6013821382076, 4013.6812018961646, 528.9116113334894, 57.05965362396091, -0.03200000151991844, 0.17600000835955143, 1.0240000486373901, 0.0, 0.0, 0.0, 0.0, 0.0, 1.763226051232338E9, 0.0, 2025-11-15 12:00:51.232
90.0, -1747.5823212447576, 4224.041224653833, 768.9552200394683, -164.53315865062177, -0.03200000151991844, 0.17600000835955143, 1.0240000486373901, 0.0, 0.0, 0.0, 0.0, 0.0, 1.76322605123307E9, 0.0, 2025-11-15 12:00:51.233
90.0, -1668.2291239849292, 4280.94754237961, 788.9225459028967, -136.81302017904818, -0.03200000151991844, 0.17600000835955143, 1.0240000486373901, 0.0, 0.0, 0.0, 0.0, 0.0, 1.76322605123307E9, 0.0, 2025-11-15 12:00:51.233
91.0, -1869.800381846726, 4060.156938645523, 547.8766440087929, 76.54827229306102, -0.03200000151991844, 0.17600000835955143, 1.0240000486373901, 0.0, 0.0, 0.0, 0.0, 0.0, 1.7632260512452466E9, 0.0, 2025-11-15 12:00:51.245
91.0, -1705.3139719455503, 4271.825926387683, 330.8652091799304, -111.28820298146456, -0.03200000151991844, 0.17600000835955143, 1.0240000486373901, 0.0, 0.0, 0.0, 0.0, 0.0, 1.7632260512452466E9, 0.0, 2025-11-15 12:00:51.245
92.0, -1722.3641758435406, 4233.574229640886, 265.99290454853326, -169.1556749958545, -0.03200000151991844, 0.17600000835955143, 1.0240000486373901, 0.0, 0.0, 0.0, 0.0, 0.0, 1.7632260512608802E9, 0.0, 2025-11-15 12:00:51.260
92.0, -1906.3579039135948, 4019.463087227661, 503.6186679331586, 35.39441318064928, -0.03200000151991844, 0.17600000835955143, 1.0240000486373901, 0.0, 0.0, 0.0, 0.0, 0.0, 1.7632260512608802E9, 0.0, 2025-11-15 12:00:51.260
93.0, -2071.3884692583233, 3896.7644494813867, 435.3654937418178, -21.586702544242144, -0.03200000151991844, 0.17600000835955143, 1.0240000486373901, 0.0, 0.0, 0.0, 0.0, 0.0, 1.7632260512616084E9, 0.0, 2025-11-15 12:00:51.261
93.0, -2243.120935323648, 3724.0109907281585, 270.3050091974437, -170.65911477804184, -0.03200000151991844, 0.17600000835955143, 1.0240000486373901, 0.0, 0.0, 0.0, 0.0, 0.0, 1.7632260512616084E9, 0.0, 2025-11-15 12:00:51.261
94.0, -2014.3849141336977, 3918.3885510251857, 412.0434776181355, -45.286448563449085, -0.03200000151991844, 0.17600000835955143, 1.0240000486373901, 0.0, 0.0, 0.0, 0.0, 0.0, 1.763226051275196E9, 0.0, 2025-11-15 12:00:51.275
94.0, -1935.2336714714766, 4004.0920984097756, 522.355566711165, 52.86348587367684, -0.03200000151991844, 0.17600000835955143, 1.0240000486373901, 0.0, 0.0, 0.0, 0.0, 0.0, 1.763226051275196E9, 0.0, 2025-11-15 12:00:51.275
95.0, -1751.4344181991182, 4220.716453593224, 282.5831007519737, -156.34651764761657, -0.03200000151991844, 0.17600000835955143, 1.0240000486373901, 0.0, 0.0, 0.0, 0.0, 0.0, 1.7632260512908823E9, 0.0, 2025-11-15 12:00:51.290
95.0, -1662.985784247052, 4285.356884427369, 309.3794839344919, -136.64098478108644, -0.03200000151991844, 0.17600000835955143, 1.0240000486373901, 0.0, 0.0, 0.0, 0.0, 0.0, 1.7632260512908823E9, 0.0, 2025-11-15 12:00:51.290
96.0, -1857.088461897336, 4062.0081891235895, 553.3855166435242, 75.72549430280924, -0.03200000151991844, 0.17600000835955143, 1.0240000486373901, 0.0, 0.0, 0.0, 0.0, 0.0, 1.763226051291589E9, 0.0, 2025-11-15 12:00:51.291
96.0, -1688.600359043572, 4283.1877424530685, 345.764970603399, -98.08635613787919, -0.03200000151991844, 0.17600000835955143, 1.0240000486373901, 0.0, 0.0, 0.0, 0.0, 0.0, 1.763226051291589E9, 0.0, 2025-11-15 12:00:51.291
97.0, -1728.7070461683907, 4233.031944147311, 276.0120965298265, -159.42071541119367, -0.03200000151991844, 0.17600000835955143, 1.0240000486373901, 0.0, 0.0, 0.0, 0.0, 0.0, 1.7632260513052917E9, 0.0, 2025-11-15 12:00:51.305
97.0, -1892.3183194799349, 4021.890282298904, 504.26193072553724, 37.49249705579132, -0.03200000151991844, 0.17600000835955143, 1.0240000486373901, 0.0, 0.0, 0.0, 0.0, 0.0, 1.7632260513052917E9, 0.0, 2025-11-15 12:00:51.305
98.0, -2071.8821360524744, 3889.5763617665507, 439.11287349741906, -22.1215082379058, -0.03200000151991844, 0.17600000835955143, 1.0240000486373901, 0.0, 0.0, 0.0, 0.0, 0.0, 1.7632260513209453E9, 0.0, 2025-11-15 12:00:51.320
98.0, -2221.4182958807796, 3733.8880665111355, 278.2074178038165, -152.9656480876729, -0.03200000151991844, 0.17600000835955143, 1.0240000486373901, 0.0, 0.0, 0.0, 0.0, 0.0, 1.7632260513209453E9, 0.0, 2025-11-15 12:00:51.320
99.0, -2024.5761415129527, 3903.4476507022046, 405.681907793507, -51.64801838807762, -0.03200000151991844, 0.17600000835955143, 1.0240000486373901, 0.0, 0.0, 0.0, 0.0, 0.0, 1.7632260513217254E9, 0.0, 2025-11-15 12:00:51.321
99.0, -1938.5434829322621, 4006.018146886956, 525.7027771715075, 52.65031157620251, -0.03200000151991844, 0.17600000835955143, 1.0240000486373901, 0.0, 0.0, 0.0, 0.0, 0.0, 1.7632260513217254E9, 0.0, 2025-11-15 12:00:51.321
100.0, -1769.999281579163, 4211.1011708071455, 761.8194909240119, -170.54691777937114, -0.03200000151991844, 0.17600000835955143, 1.0240000486373901, 0.0, 0.0, 0.0, 0.0, 0.0, 1.7632260513359869E9, 0.0, 2025-11-15 12:00:51.335
100.0, -1674.6318327090703, 4273.400424269028, 792.2622765633278, -143.02499400544912, -0.03200000151991844, 0.17600000835955143, 1.0240000486373901, 0.0, 0.0, 0.0, 0.0, 0.0, 1.7632260513359869E9, 0.0, 2025-11-15 12:00:51.335
0.0, 105.5119274999015, 140.14340108959004, 70.56256241397932, 87.34162356518209, -0.03200000151991844, 0.17600000835955143, 1.0240000486373901, 0.0, 0.0, 0.0, 0.0, 0.0, 1.7632260513367162E9, 0.0, 2025-11-15 12:00:51.336
1.0, 254.55629048403352, 350.2865096498281, -158.1285799765028, -117.5375758074224, -0.03200000151991844, 0.17600000835955143, 1.0240000486373901, 0.0, 0.0, 0.0, 0.0, 0.0, 1.763226051350247E9, 0.0, 2025-11-15 12:00:51.350
1.0, 236.27565950062126, 308.53052664455026, -221.13841442996636, -163.83379735890776, -0.03200000151991844, 0.17600000835955143, 1.0240000486373901, 0.0, 0.0, 0.0, 0.0, 0.0, 1.763226051350247E9, 0.0, 2025-11-15 12:00:51.350
2.0, 41.469880658667535, 80.09930730098858, 5.753836081828922, 23.41177372261882, -0.03200000151991844, 0.17600000835955143, 1.0240000486373901, 0.0, 0.0, 0.0, 0.0, 0.0, 1.763226051365949E9, 0.0, 2025-11-15 12:00:51.365
2.0, -106.68251618603244, -27.071265829261392, -48.01844548108056, -26.14564059022814, -0.03200000151991844, 0.17600000835955143, 1.0240000486373901, 0.0, 0.0, 0.0, 0.0, 0.0, 1.763226051365949E9, 0.0, 2025-11-15 12:00:51.365
3.0, -286.14161555981264, -200.374489875976, -226.2695571691729, -178.90933408029377, -0.03200000151991844, 0.17600000835955143, 1.0240000486373901, 0.0, 0.0, 0.0, 0.0, 0.0, 1.7632260513667097E9, 0.0, 2025-11-15 12:00:51.366
3.0, -84.82280094502494, -38.16380909783766, -101.75332804443315, -67.06388600543141, -0.03200000151991844, 0.17600000835955143, 1.0240000486373901, 0.0, 0.0, 0.0, 0.0, 0.0, 1.7632260513667097E9, 0.0, 2025-11-15 12:00:51.366
4.0, 32.30712576722726, 89.53133498923853, 39.3717967835255, 55.95638313703239, -0.03200000151991844, 0.17600000835955143, 1.0240000486373901, 0.0, 0.0, 0.0, 0.0, 0.0, 1.7632260513802516E9, 0.0, 2025-11-15 12:00:51.380
4.0, 214.7712347554043, 306.4810614688322, -202.87274304637685, -154.71592126693577, -0.03200000151991844, 0.17600000835955143, 1.0240000486373901, 0.0, 0.0, 0.0, 0.0, 0.0, 1.7632260513802516E9, 0.0, 2025-11-15 12:00:51.380
5.0, 297.4828621754423, 360.358060230501, -182.57630598684773, -135.6947900922969, -0.03200000151991844, 0.17600000835955143, 1.0240000486373901, 0.0, 0.0, 0.0, 0.0, 0.0, 1.7632260513959477E9, 0.0, 2025-11-15 12:00:51.395
5.0, 109.0723122577183, 152.7244245405309, -415.95915287174284, 85.89802218228579, -0.03200000151991844, 0.17600000835955143, 1.0240000486373901, 0.0, 0.0, 0.0, 0.0, 0.0, 1.7632260513959477E9, 0.0, 2025-11-15 12:00:51.395
6.0, 273.66343935765326, 362.53094210475683, -632.529279505834, -103.55034997314215, -0.03200000151991844, 0.17600000835955143, 1.0240000486373901, 0.0, 0.0, 0.0, 0.0, 0.0, 1.7632260513967185E9, 0.0, 2025-11-15 12:00:51.396
6.0, 228.41812969371676, 306.8438317645341, -709.3468245957047, -168.08980350848287, -0.03200000151991844, 0.17600000835955143, 1.0240000486373901, 0.0, 0.0, 0.0, 0.0, 0.0, 1.7632260513967185E9, 0.0, 2025-11-15 12:00:51.396
7.0, 51.27589834248647, 92.92342424904928, -482.17034168727696, 29.34325505234301, -0.03200000151991844, 0.17600000835955143, 1.0240000486373901, 0.0, 0.0, 0.0, 0.0, 0.0, 1.7632260514102511E9, 0.0, 2025-11-15 12:00:51.410
7.0, -109.64825685089454, -25.377091149333864, -541.8367055803537, -23.34819542337209, -0.03200000151991844, 0.17600000835955143, 1.0240000486373901, 0.0, 0.0, 0.0, 0.0, 0.0, 1.7632260514102511E9, 0.0, 2025-11-15 12:00:51.410
8.0, -283.9275947860442, -188.13005742104724, -712.4733809586614, -176.44847990944982, -0.03200000151991844, 0.17600000835955143, 1.0240000486373901, 0.0, 0.0, 0.0, 0.0, 0.0, 1.763226051425985E9, 0.0, 2025-11-15 12:00:51.425
8.0, -59.62709494354203, -11.771335110533983, -578.4204069469124, -53.20381676964462, -0.03200000151991844, 0.17600000835955143, 1.0240000486373901, 0.0, 0.0, 0.0, 0.0, 0.0, 1.763226051425985E9, 0.0, 2025-11-15 12:00:51.425
9.0, 49.929534358438104, 109.86517104832456, -433.6040008626878, 69.69677557423711, -0.03200000151991844, 0.17600000835955143, 1.0240000486373901, 0.0, 0.0, 0.0, 0.0, 0.0, 1.7632260514267368E9, 0.0, 2025-11-15 12:00:51.426
9.0, 201.54694851208478, 300.8824312351644, -205.0755441202782, -158.6652556201443, -0.03200000151991844, 0.17600000835955143, 1.0240000486373901, 0.0, 0.0, 0.0, 0.0, 0.0, 1.7632260514267368E9, 0.0, 2025-11-15 12:00:51.426
10.0, 291.0614539515227, 357.85980706010014, -178.70550953270867, -130.5786069529131, -0.03200000151991844, 0.17600000835955143, 1.0400000493973494, 0.0, 0.0, 0.0, 0.0, 0.0, 1.7632260514402611E9, 0.0, 2025-11-15 12:00:51.440
10.0, 111.90715642413124, 156.8383144917898, -412.3052706150338, 100.4200537102297, -0.03200000151991844, 0.17600000835955143, 1.0400000493973494, 0.0, 0.0, 0.0, 0.0, 0.0, 1.7632260514402611E9, 0.0, 2025-11-15 12:00:51.440
11.0, 269.975898001343, 373.8815384702757, -626.6164976758882, -98.25839153584093, -0.03200000151991844, 0.17600000835955143, 1.0400000493973494, 0.0, 0.0, 0.0, 0.0, 0.0, 1.7632260514557707E9, 0.0, 2025-11-15 12:00:51.455
11.0, 223.52260065171868, 306.3277255706489, -711.5683251693845, -167.27450531814247, -0.03200000151991844, 0.17600000835955143, 1.0400000493973494, 0.0, 0.0, 0.0, 0.0, 0.0, 1.7632260514557707E9, 0.0, 2025-11-15 12:00:51.455
12.0, 47.61079638591036, 88.80953429779038, -485.2968980502337, 28.456898762844503, -0.03200000151991844, 0.17600000835955143, 1.0400000493973494, 0.0, 0.0, 0.0, 0.0, 0.0, 1.7632260514710047E9, 0.0, 2025-11-15 12:00:51.471
12.0, -103.60083862254396, -17.785094239283353, -535.018867961131, -12.951273546554148, -0.03200000151991844, 0.17600000835955143, 1.0400000493973494, 0.0, 0.0, 0.0, 0.0, 0.0, 1.7632260514710047E9, 0.0, 2025-11-15 12:00:51.471
13.0, -287.2000072472729, -203.58332403795794, -724.1007299209014, -185.7870100988075, -0.03200000151991844, 0.17600000835955143, 1.0400000493973494, 0.0, 0.0, 0.0, 0.0, 0.0, 1.7632260514717252E9, 0.0, 2025-11-15 12:00:51.471
13.0, -85.8737128325738, -36.96704111201689, -597.5724346200004, -68.69074248615652, -0.03200000151991844, 0.17600000835955143, 1.0400000493973494, 0.0, 0.0, 0.0, 0.0, 0.0, 1.7632260514717252E9, 0.0, 2025-11-15 12:00:51.471
14.0, 36.36491721915081, 98.44351658364758, -450.16053796652704, 66.71233540959656, -0.03200000151991844, 0.17600000835955143, 1.0400000493973494, 0.0, 0.0, 0.0, 0.0, 0.0, 1.7632260514859812E9, 0.0, 2025-11-15 12:00:51.485
14.0, 204.69220437482, 297.0714731803164, -215.9399534915574, -172.90679465141147, -0.03200000151991844, 0.17600000835955143, 1.0400000493973494, 0.0, 0.0, 0.0, 0.0, 0.0, 1.7632260514859812E9, 0.0, 2025-11-15 12:00:51.485
15.0, 290.6276255566627, 359.00421644654125, -175.41813747165725, -132.1044861348346, -0.03200000151991844, 0.17600000835955143, 1.0400000493973494, 0.0, 0.0, 0.0, 0.0, 0.0, 1.7632260514867485E9, 0.0, 2025-11-15 12:00:51.486
15.0, 107.23228147951886, 146.82286241045222, -417.911380648613, 89.53320493921638, -0.03200000151991844, 0.17600000835955143, 1.0400000493973494, 0.0, 0.0, 0.0, 0.0, 0.0, 1.7632260514867485E9, 0.0, 2025-11-15 12:00:51.486
16.0, 265.80964945070446, 363.3911190945655, -637.2939120493829, -108.80490941088647, -0.03200000151991844, 0.17600000835955143, 1.0400000493973494, 0.0, 0.0, 0.0, 0.0, 0.0, 1.7632260515003035E9, 0.0, 2025-11-15 12:00:51.500
16.0, 219.9883951935917, 305.2955131828785, -712.4846006585285, -169.08835679665208, -0.03200000151991844, 0.17600000835955143, 1.0400000493973494, 0.0, 0.0, 0.0, 0.0, 0.0, 1.7632260515003035E9, 0.0, 2025-11-15 12:00:51.500
17.0, 49.462046863976866, 85.69793753465638, -487.8325502201915, 32.750303911976516, -0.03200000151991844, 0.17600000835955143, 1.0400000493973494, 0.0, 0.0, 0.0, 0.0, 0.0, 1.7632260515159156E9, 0.0, 2025-11-15 12:00:51.515
17.0, -100.27980746189132, -18.147864534985274, -537.8424924276769, -17.69720659032464, -0.03200000151991844, 0.17600000835955143, 1.0400000493973494, 0.0, 0.0, 0.0, 0.0, 0.0, 1.7632260515159156E9, 0.0, 2025-11-15 12:00:51.515
18.0, -285.20290067093447, -196.62337022041902, -716.9949200050905, -179.6797534711659, -0.03200000151991844, 0.17600000835955143, 1.0400000493973494, 0.0, 0.0, 0.0, 0.0, 0.0, 1.7632260515167148E9, 0.0, 2025-11-15 12:00:51.516
18.0, -81.69998448202386, -35.385063430760056, -591.4427385926247, -70.0333665702492, -0.03200000151991844, 0.17600000835955143, 1.0400000493973494, 0.0, 0.0, 0.0, 0.0, 0.0, 1.7632260515167148E9, 0.0, 2025-11-15 12:00:51.516
19.0, 41.021092663984746, 101.1399844517, -440.18996468465775, 73.14870323333889, -0.03200000151991844, 0.17600000835955143, 1.0400000493973494, 0.0, 0.0, 0.0, 0.0, 0.0, 1.7632260515302825E9, 0.0, 2025-11-15 12:00:51.530
19.0, 224.7380681373179, 312.71921459492296, -198.3025853005238, -148.70964193809777, -0.03200000151991844, 0.17600000835955143, 1.0400000493973494, 0.0, 0.0, 0.0, 0.0, 0.0, 1.7632260515302825E9, 0.0, 2025-11-15 12:00:51.530
20.0, 287.30285449605435, 350.36878744885325, -191.17059608502313, -140.1789301391691, -0.03200000151991844, 0.17600000835955143, 1.0400000493973494, 0.0, 0.0, 0.0, 0.0, 0.0, 1.7632260515459404E9, 0.0, 2025-11-15 12:00:51.545
20.0, 102.73692173277959, 144.84819523384795, -420.95191931258887, 82.27405912522227, -0.03200000151991844, 0.17600000835955143, 1.0400000493973494, 0.0, 0.0, 0.0, 0.0, 0.0, 1.7632260515459404E9, 0.0, 2025-11-15 12:00:51.545
21.0, 263.1692800819874, 363.2751821959391, -631.0407993234694, -100.12460161373019, -0.03200000151991844, 0.17600000835955143, 1.0400000493973494, 0.0, 0.0, 0.0, 0.0, 0.0, 1.763226051546723E9, 0.0, 2025-11-15 12:00:51.546
21.0, 228.7435009898618, 307.8162057530135, -705.6779827391729, -164.0394918564707, -0.03200000151991844, 0.17600000835955143, 1.0400000493973494, 0.0, 0.0, 0.0, 0.0, 0.0, 1.763226051546723E9, 0.0, 2025-11-15 12:00:51.546
22.0, 56.309803682845086, 93.73498253943399, -474.46240787860006, 37.39525965694338, -0.03200000151991844, 0.17600000835955143, 1.0400000493973494, 0.0, 0.0, 0.0, 0.0, 0.0, 1.7632260515602925E9, 0.0, 2025-11-15 12:00:51.560
22.0, -108.42156966542825, -26.30458633834496, -540.3931041974574, -20.51335125695914, -0.03200000151991844, 0.17600000835955143, 1.0400000493973494, 0.0, 0.0, 0.0, 0.0, 0.0, 1.7632260515602925E9, 0.0, 2025-11-15 12:00:51.560
23.0, -277.7829391588457, -196.87020361749455, -709.077551798895, -170.53943797945976, -0.03200000151991844, 0.17600000835955143, 1.0400000493973494, 0.0, 0.0, 0.0, 0.0, 0.0, 1.763226051575936E9, 0.0, 2025-11-15 12:00:51.575
23.0, -85.50720263691619, -28.529826811980456, -587.5644623385742, -60.90427077841014, -0.03200000151991844, 0.17600000835955143, 1.0400000493973494, 0.0, 0.0, 0.0, 0.0, 0.0, 1.763226051575936E9, 0.0, 2025-11-15 12:00:51.575
24.0, 40.639622868504375, 95.05142732383683, -440.1002070857212, 69.72295487392694, -0.03200000151991844, 0.17600000835955143, 1.0400000493973494, 0.0, 0.0, 0.0, 0.0, 0.0, 1.7632260515767183E9, 0.0, 2025-11-15 12:00:51.576
24.0, 202.08175420574844, 293.78784101922065, -210.31514395819977, 314.22826422704384, -0.03200000151991844, 0.17600000835955143, 1.0400000493973494, 0.0, 0.0, 0.0, 0.0, 0.0, 1.7632260515767183E9, 0.0, 2025-11-15 12:00:51.576
25.0, 294.61061900947243, 356.390026377514, -182.61370498640463, 347.24036113591865, -0.03200000151991844, 0.17600000835955143, 1.0400000493973494, 0.0, 0.0, 0.0, 0.0, 0.0, 1.7632260515903E9, 0.0, 2025-11-15 12:00:51.590
25.0, 95.44037691922858, 135.1618543486111, 62.30486331181601, 561.2523962003179, -0.03200000151991844, 0.17600000835955143, 1.0400000493973494, 0.0, 0.0, 0.0, 0.0, 0.0, 1.7632260515903E9, 0.0, 2025-11-15 12:00:51.590
26.0, 264.96443206071854, 354.3106420021504, -148.0121505963616, 383.0125042120926, -0.03200000151991844, 0.17600000835955143, 1.0400000493973494, 0.0, 0.0, 0.0, 0.0, 0.0, 1.763226051605932E9, 0.0, 2025-11-15 12:00:51.605
26.0, 226.67907621432096, 295.8784450944513, -223.8648014976643, 312.03668285300955, -0.03200000151991844, 0.17600000835955143, 1.0400000493973494, 0.0, 0.0, 0.0, 0.0, 0.0, 1.763226051605932E9, 0.0, 2025-11-15 12:00:51.605
27.0, 41.60825695702806, 75.67874555336311, -3.4500577091239393, 505.94675565557554, -0.03200000151991844, 0.17600000835955143, 1.0400000493973494, 0.0, 0.0, 0.0, 0.0, 0.0, 1.7632260516067147E9, 0.0, 2025-11-15 12:00:51.606
27.0, -95.1000460232608, -18.641531329136342, -42.38241624785587, 472.5494490512647, -0.03200000151991844, 0.17600000835955143, 1.0400000493973494, 0.0, 0.0, 0.0, 0.0, 0.0, 1.7632260516067147E9, 0.0, 2025-11-15 12:00:51.606
28.0, -290.9698264026083, -200.46798737486824, -218.4980450612493, 324.60274670412764, -0.03200000151991844, 0.17600000835955143, 1.0400000493973494, 0.0, 0.0, 0.0, 0.0, 0.0, 1.7632260516202815E9, 0.0, 2025-11-15 12:00:51.620
28.0, -87.93813760811463, -44.06537122791633, -104.03840691735968, 419.31571308197454, -0.03200000151991844, 0.17600000835955143, 1.0400000493973494, 0.0, 0.0, 0.0, 0.0, 0.0, 1.7632260516202815E9, 0.0, 2025-11-15 12:00:51.620
29.0, 35.71791452681646, 91.52096176566556, 43.470727134961635, 552.6169672026299, -0.03200000151991844, 0.17600000835955143, 1.0400000493973494, 0.0, 0.0, 0.0, 0.0, 0.0, 1.7632260516359446E9, 0.0, 2025-11-15 12:00:51.635
29.0, 199.9462713310495, 298.0962057681754, 278.96661749482155, 316.5470021995716, -0.03200000151991844, 0.17600000835955143, 1.0400000493973494, 0.0, 0.0, 0.0, 0.0, 0.0, 1.7632260516359446E9, 0.0, 2025-11-15 12:00:51.635
30.0, 289.1840241737664, 356.3264480782673, 310.35559782292694, 360.599283777643, -0.03200000151991844, 0.17600000835955143, 1.0400000493973494, 0.0, 0.0, 0.0, 0.0, 0.0, 1.7632260516366324E9, 0.0, 2025-11-15 12:00:51.636
30.0, 97.80025379126891, 139.3094033994712, 65.40898027503863, 568.9416305092163, -0.03200000151991844, 0.17600000835955143, 1.0400000493973494, 0.0, 0.0, 0.0, 0.0, 0.0, 1.7632260516366324E9, 0.0, 2025-11-15 12:00:51.636
31.0, 288.8137740781531, 383.5977985551581, -120.35933032399043, 406.19614403741434, -0.03200000151991844, 0.17600000835955143, 1.0400000493973494, 0.0, 0.0, 0.0, 0.0, 0.0, 1.7632260516503208E9, 0.0, 2025-11-15 12:00:51.650
31.0, 238.5569984735921, 317.4838471384719, -202.91014204593375, 336.5592068624683, -0.03200000151991844, 0.17600000835955143, 1.0400000493973494, 0.0, 0.0, 0.0, 0.0, 0.0, 1.7632260516503208E9, 0.0, 2025-11-15 12:00:51.650
32.0, 5.159191988874227, 538.493235019967, -25.9193766429089, 483.27174222422764, -0.03200000151991844, 0.17600000835955143, 1.0400000493973494, 0.0, 0.0, 0.0, 0.0, 0.0, 1.7632260516659255E9, 0.0, 2025-11-15 12:00:51.665
32.0, -83.17724496452138, 492.58222316391766, -24.917083454784006, 487.3183139762841, -0.03200000151991844, 0.17600000835955143, 1.0400000493973494, 0.0, 0.0, 0.0, 0.0, 0.0, 1.7632260516659255E9, 0.0, 2025-11-15 12:00:51.665
33.0, -270.04882605047897, 309.5515193324536, -210.1543282601051, 318.8769598719664, -0.03200000151991844, 0.17600000835955143, 1.0400000493973494, 0.0, 0.0, 0.0, 0.0, 0.0, 1.76322605166672E9, 0.0, 2025-11-15 12:00:51.666
33.0, -109.83899174863473, 439.93939138762653, -114.34557119524106, 411.64143837289885, -0.03200000151991844, 0.17600000835955143, 1.0400000493973494, 0.0, 0.0, 0.0, 0.0, 0.0, 1.76322605166672E9, 0.0, 2025-11-15 12:00:51.666
34.0, 37.412089206743985, 586.1096412558109, 47.124609391670674, 553.2677097949199, -0.03200000151991844, 0.17600000835955143, 1.0400000493973494, 0.0, 0.0, 0.0, 0.0, 0.0, 1.7632260516802723E9, 0.0, 2025-11-15 12:00:51.680
34.0, 242.1136433314532, 343.07224263530225, -169.37071924330667, 356.13010333059356, -0.03200000151991844, 0.17600000835955143, 1.0400000493973494, 0.0, 0.0, 0.0, 0.0, 0.0, 1.7632260516802723E9, 0.0, 2025-11-15 12:00:51.680
35.0, 305.46754858084023, 373.2981140771881, -166.86124637303874, 365.6780679174699, -0.03200000151991844, 0.17600000835955143, 1.0400000493973494, 0.0, 0.0, 0.0, 0.0, 0.0, 1.7632260516959136E9, 0.0, 2025-11-15 12:00:51.695
35.0, 529.9101646216586, 577.6013688566163, 21.435236596036702, 533.1320884334855, -0.03200000151991844, 0.17600000835955143, 1.0400000493973494, 0.0, 0.0, 0.0, 0.0, 0.0, 1.7632260516959136E9, 0.0, 2025-11-15 12:00:51.695
36.0, 303.7845936007798, 398.5274791782722, -115.61339728021994, 404.7936815540306, -0.03200000151991844, 0.17600000835955143, 1.0400000493973494, 0.0, 0.0, 0.0, 0.0, 0.0, 1.763226051696618E9, 0.0, 2025-11-15 12:00:51.696
36.0, 249.2718118466437, 330.99236577842385, -196.8141051181592, 336.82473975932226, -0.03200000151991844, 0.17600000835955143, 1.0400000493973494, 0.0, 0.0, 0.0, 0.0, 0.0, 1.763226051696618E9, 0.0, 2025-11-15 12:00:51.696
37.0, 474.4063093792647, 525.7551357708871, -36.989480511751026, 485.6166594964452, -0.03200000151991844, 0.17600000835955143, 1.0400000493973494, 0.0, 0.0, 0.0, 0.0, 0.0, 1.7632260517103279E9, 0.0, 2025-11-15 12:00:51.710
37.0, 402.10282353591174, 482.28627858590335, -40.98369366442785, 476.7568365014158, -0.03200000151991844, 0.17600000835955143, 1.0400000493973494, 0.0, 0.0, 0.0, 0.0, 0.0, 1.7632260517103279E9, 0.0, 2025-11-15 12:00:51.710
38.0, 241.05525164399296, 321.02179249655455, -197.19557491363958, 336.85839885892347, -0.03200000151991844, 0.17600000835955143, 1.0400000493973494, 0.0, 0.0, 0.0, 0.0, 0.0, 1.7632260517259212E9, 0.0, 2025-11-15 12:00:51.725
38.0, 386.35036492254585, 440.765909277834, -110.00354734668508, 420.20206937147304, -0.03200000151991844, 0.17600000835955143, 1.0400000493973494, 0.0, 0.0, 0.0, 0.0, 0.0, 1.7632260517259212E9, 0.0, 2025-11-15 12:00:51.725
39.0, 489.40330820158124, 544.8809841442853, 11.715236611198634, 517.0093797245063, -0.03200000151991844, 0.17600000835955143, 1.0400000493973494, 0.0, 0.0, 0.0, 0.0, 0.0, 1.7632260517266347E9, 0.0, 2025-11-15 12:00:51.726
39.0, 253.40814119763672, 342.76931073889136, -169.53527484135702, 356.788325722795, -0.03200000151991844, 0.17600000835955143, 1.0400000493973494, 0.0, 0.0, 0.0, 0.0, 0.0, 1.7632260517266347E9, 0.0, 2025-11-15 12:00:51.726
40.0, 293.11465902719647, 366.70841035526246, -169.37071924330667, 360.84611717471853, -0.03200000151991844, 0.17600000835955143, 1.0400000493973494, 0.0, 0.0, 0.0, 0.0, 0.0, 1.7632260517403145E9, 0.0, 2025-11-15 12:00:51.740
40.0, 49.510665563400835, 580.1220614267513, 29.95472869509831, 546.9136197702028, -0.03200000151991844, 0.17600000835955143, 1.0400000493973494, 0.0, 0.0, 0.0, 0.0, 0.0, 1.7632260517403145E9, 0.0, 2025-11-15 12:00:51.740
41.0, -174.20640988601372, 400.9322348497808, -109.91752964770421, 414.4725426393561, -0.03200000151991844, 0.17600000835955143, 1.0400000493973494, 0.0, 0.0, 0.0, 0.0, 0.0, 1.7632260517559211E9, 0.0, 2025-11-15 12:00:51.755
41.0, -233.8727737790905, 325.3413769453764, -195.98384732799605, 334.3713653883897, -0.03200000151991844, 0.17600000835955143, 1.0400000493973494, 0.0, 0.0, 0.0, 0.0, 0.0, 1.7632260517559211E9, 0.0, 2025-11-15 12:00:51.755
42.0, -18.080546335782856, 520.8035082295537, -34.72684103855863, 489.1396452547051, -0.03200000151991844, 0.17600000835955143, 1.0400000493973494, 0.0, 0.0, 0.0, 0.0, 0.0, 1.7632260517566307E9, 0.0, 2025-11-15 12:00:51.756
42.0, -81.63266628282145, 479.9600608134642, -38.75097339088097, 474.92428552312776, -0.03200000151991844, 0.17600000835955143, 1.0400000493973494, 0.0, 0.0, 0.0, 0.0, 0.0, 1.7632260517566307E9, 0.0, 2025-11-15 12:00:51.756
43.0, -252.71812965581194, 316.3057786524296, -199.20016128988937, 329.85730614187196, -0.03200000151991844, 0.17600000835955143, 1.0400000493973494, 0.0, 0.0, 0.0, 0.0, 0.0, 1.763226051770276E9, 0.0, 2025-11-15 12:00:51.770
43.0, -121.61219680914655, 430.5036237994209, -111.02454003458843, 422.45722904475406, -0.03200000151991844, 0.17600000835955143, 1.0400000493973494, 0.0, 0.0, 0.0, 0.0, 0.0, 1.763226051770276E9, 0.0, 2025-11-15 12:00:51.770
44.0, 12.6539515000768, 560.6072634579614, 20.578799506183714, 530.2748048673384, -0.03200000151991844, 0.17600000835955143, 1.0400000493973494, 0.0, 0.0, 0.0, 0.0, 0.0, 1.763226051785983E9, 0.0, 2025-11-15 12:00:51.785
44.0, 245.64410888962448, 336.1235085176304, -177.5872794459574, 347.53955313237384, -0.03200000151991844, 0.17600000835955143, 1.0400000493973494, 0.0, 0.0, 0.0, 0.0, 0.0, 1.763226051785983E9, 0.0, 2025-11-15 12:00:51.785
45.0, 293.89255821797997, 359.82699443679303, -176.36807206040248, 354.50698674982414, -0.03200000151991844, 0.17600000835955143, 1.0400000493973494, 0.0, 0.0, 0.0, 0.0, 0.0, 1.7632260517866442E9, 0.0, 2025-11-15 12:00:51.786
45.0, 67.39112725155428, 603.4066785508767, 45.471573611255735, 553.8249548883177, -0.03200000151991844, 0.17600000835955143, 1.0400000493973494, 0.0, 0.0, 0.0, 0.0, 0.0, 1.7632260517866442E9, 0.0, 2025-11-15 12:00:51.786
46.0, 299.1396378558129, 384.876844340004, -117.19911486143246, 415.1719039310701, -0.03200000151991844, 0.17600000835955143, 1.0400000493973494, 0.0, 0.0, 0.0, 0.0, 0.0, 1.76322605180029E9, 0.0, 2025-11-15 12:00:51.800
46.0, 236.05500540323555, 306.5446397680789, -208.8191839759238, 335.9570829696022, -0.03200000151991844, 0.17600000835955143, 1.0400000493973494, 0.0, 0.0, 0.0, 0.0, 0.0, 1.76322605180029E9, 0.0, 2025-11-15 12:00:51.800
47.0, 23.320146173704416, 62.29364361194894, -16.861338950227946, 493.2236160063185, -0.03200000151991844, 0.17600000835955143, 1.0400000493973494, 0.0, 0.0, 0.0, 0.0, 0.0, 1.763226051815937E9, 0.0, 2025-11-15 12:00:51.815
47.0, -84.30669475113973, -7.45549056166783, -24.34113886160776, 495.9163439744152, -0.03200000151991844, 0.17600000835955143, 1.0400000493973494, 0.0, 0.0, 0.0, 0.0, 0.0, 1.763226051815937E9, 0.0, 2025-11-15 12:00:51.815
48.0, -299.96428579604253, -204.75765262404457, -223.0532432072796, 316.0495955054648, -0.03200000151991844, 0.17600000835955143, 1.0400000493973494, 0.0, 0.0, 0.0, 0.0, 0.0, 1.7632260518167365E9, 0.0, 2025-11-15 12:00:51.816
48.0, -94.53158122999594, -40.55360516952351, -102.65464393375441, 420.3030466702767, -0.03200000151991844, 0.17600000835955143, 1.0400000493973494, 0.0, 0.0, 0.0, 0.0, 0.0, 1.7632260518167365E9, 0.0, 2025-11-15 12:00:51.816
49.0, 56.317283482756466, 105.72136189742014, 56.739892177749425, 561.3421537992544, -0.03200000151991844, 0.17600000835955143, 1.0400000493973494, 0.0, 0.0, 0.0, 0.0, 0.0, 1.7632260518302832E9, 0.0, 2025-11-15 12:00:51.830
49.0, 195.96701777819544, 290.2835547607392, 282.33626735489815, 337.2922272537835, -0.03200000151991844, 0.17600000835955143, 1.0400000493973494, 0.0, 0.0, 0.0, 0.0, 0.0, 1.7632260518302832E9, 0.0, 2025-11-15 12:00:51.830
50.0, 277.70253130979836, 332.6828005583957, 291.23722924944013, 345.0674792616628, -0.03200000151991844, 0.17600000835955143, 1.0240000486373901, 0.0, 0.0, 0.0, 0.0, 0.0, 1.7632260518459237E9, 0.0, 2025-11-15 12:00:51.845
50.0, 114.7756596901454, 136.35488243447617, 63.77464399440214, 575.0713265365921, -0.03200000151991844, 0.17600000835955143, 1.0240000486373901, 0.0, 0.0, 0.0, 0.0, 0.0, 1.7632260518459237E9, 0.0, 2025-11-15 12:00:51.845
51.0, 285.7582758143544, 368.5521810334176, -133.1161290728487, 398.33113443059847, -0.03200000151991844, 0.17600000835955143, 1.0240000486373901, 0.0, 0.0, 0.0, 0.0, 0.0, 1.7632260518466191E9, 0.0, 2025-11-15 12:00:51.846
51.0, 215.11904545128345, 288.3649860834703, -231.56151560647413, 313.9926505298354, -0.03200000151991844, 0.17600000835955143, 1.0240000486373901, 0.0, 0.0, 0.0, 0.0, 0.0, 1.7632260518466191E9, 0.0, 2025-11-15 12:00:51.846
52.0, 27.22834162740037, 63.44179289834574, -18.607872229535133, 499.3607918336056, -0.03200000151991844, 0.17600000835955143, 1.0240000486373901, 0.0, 0.0, 0.0, 0.0, 0.0, 1.7632260518603435E9, 0.0, 2025-11-15 12:00:51.860
52.0, -83.23334346385673, -5.536921884398907, -31.458168477285653, 485.1379523021169, -0.03200000151991844, 0.17600000835955143, 1.0240000486373901, 0.0, 0.0, 0.0, 0.0, 0.0, 1.7632260518603435E9, 0.0, 2025-11-15 12:00:51.860
53.0, -300.77210418647155, -206.86321629909799, -227.4214463555254, 313.1399533399381, -0.03200000151991844, 0.17600000835955143, 1.0240000486373901, 0.0, 0.0, 0.0, 0.0, 0.0, 1.7632260518759258E9, 0.0, 2025-11-15 12:00:51.875
53.0, -97.48610219499096, -47.68933428497985, -115.34038458345458, 419.1810766835697, -0.03200000151991844, 0.17600000835955143, 1.0240000486373901, 0.0, 0.0, 0.0, 0.0, 0.0, 1.7632260518759258E9, 0.0, 2025-11-15 12:00:51.875
54.0, 53.19820691971108, 112.99546731123701, 61.76257781824097, 567.7411226234399, -0.03200000151991844, 0.17600000835955143, 1.0240000486373901, 0.0, 0.0, 0.0, 0.0, 0.0, 1.76322605187662E9, 0.0, 2025-11-15 12:00:51.876
54.0, 209.41195811890066, 311.43268901016563, 289.00076907593757, 343.3396454821341, -0.03200000151991844, 0.17600000835955143, 1.0240000486373901, 0.0, 0.0, 0.0, 0.0, 0.0, 1.76322605187662E9, 0.0, 2025-11-15 12:00:51.876
55.0, 283.4320580419153, 358.0954207573086, 307.28140005934983, 363.4154284442775, -0.03200000151991844, 0.17600000835955143, 1.0240000486373901, 0.0, 0.0, 0.0, 0.0, 0.0, 1.763226051890238E9, 0.0, 2025-11-15 12:00:51.890
55.0, 103.78035382041708, 149.52307017846033, 71.57981520192698, 576.1035389243625, -0.03200000151991844, 0.17600000835955143, 1.0240000486373901, 0.0, 0.0, 0.0, 0.0, 0.0, 1.763226051890238E9, 0.0, 2025-11-15 12:00:51.890
56.0, 283.1291261455044, 375.433596951887, -124.88086937041953, 403.59691356820986, -0.03200000151991844, 0.17600000835955143, 1.0240000486373901, 0.0, 0.0, 0.0, 0.0, 0.0, 1.7632260519059117E9, 0.0, 2025-11-15 12:00:51.905
56.0, 234.2972524240613, 315.50544006191194, -211.29873764654621, 331.93295061727986, -0.03200000151991844, 0.17600000835955143, 1.0240000486373901, 0.0, 0.0, 0.0, 0.0, 0.0, 1.7632260519059117E9, 0.0, 2025-11-15 12:00:51.905
57.0, 19.45682951947674, 73.22163128247485, -8.742016146425158, 503.64671718282625, -0.03200000151991844, 0.17600000835955143, 1.0240000486373901, 0.0, 0.0, 0.0, 0.0, 0.0, 1.7632260519066107E9, 0.0, 2025-11-15 12:00:51.906
57.0, -67.27893025288358, 7.567687560338527, -24.494474759791046, 494.8392527871765, -0.03200000151991844, 0.17600000835955143, 1.0240000486373901, 0.0, 0.0, 0.0, 0.0, 0.0, 1.7632260519066107E9, 0.0, 2025-11-15 12:00:51.906
58.0, -289.8889953154139, -200.2959519769065, -222.0098111196421, 328.1294723623432, -0.03200000151991844, 0.17600000835955143, 1.0240000486373901, 0.0, 0.0, 0.0, 0.0, 0.0, 1.7632260519203272E9, 0.0, 2025-11-15 12:00:51.920
58.0, -101.08762585232034, -43.93821462942287, -113.08896481012926, 411.04679427994415, -0.03200000151991844, 0.17600000835955143, 1.0240000486373901, 0.0, 0.0, 0.0, 0.0, 0.0, 1.7632260519203272E9, 0.0, 2025-11-15 12:00:51.920
59.0, 54.82880330039188, 108.30937266675755, 52.319330430123955, 566.1329656424932, -0.03200000151991844, 0.17600000835955143, 1.0240000486373901, 0.0, 0.0, 0.0, 0.0, 0.0, 1.7632260519356618E9, 0.0, 2025-11-15 12:00:51.935
59.0, 206.75288925040513, 308.38093064632267, 289.1653246739879, 338.1374446437694, -0.03200000151991844, 0.17600000835955143, 1.0240000486373901, 0.0, 0.0, 0.0, 0.0, 0.0, 1.7632260519356618E9, 0.0, 2025-11-15 12:00:51.935
60.0, 275.3950130371377, 340.4169136667624, 292.0300880400464, 340.1457709199749, -0.03200000151991844, 0.17600000835955143, 1.0240000486373901, 0.0, 0.0, 0.0, 0.0, 0.0, 1.7632260519509504E9, 0.0, 2025-11-15 12:00:51.950
60.0, 104.73776820907369, 147.7877565990202, 71.6097344015725, 579.0019613900222, -0.03200000151991844, 0.17600000835955143, 1.0240000486373901, 0.0, 0.0, 0.0, 0.0, 0.0, 1.7632260519509504E9, 0.0, 2025-11-15 12:00:51.950
61.0, 284.7559826262295, 379.59984550252557, -123.24653308978304, 405.2873483481817, -0.03200000151991844, 0.17600000835955143, 1.0240000486373901, 0.0, 0.0, 0.0, 0.0, 0.0, 1.7632260519516296E9, 0.0, 2025-11-15 12:00:51.951
61.0, 225.98345482256263, 302.45692911650985, -210.12440906045958, 325.6125196921639, -0.03200000151991844, 0.17600000835955143, 1.0240000486373901, 0.0, 0.0, 0.0, 0.0, 0.0, 1.7632260519516296E9, 0.0, 2025-11-15 12:00:51.951
62.0, 28.38771061366424, 67.64918034849688, -8.865432844962925, 504.98186146700755, -0.03200000151991844, 0.17600000835955143, 1.0240000486373901, 0.0, 0.0, 0.0, 0.0, 0.0, 1.7632260519659889E9, 0.0, 2025-11-15 12:00:51.965
62.0, -71.29558280529454, 7.934197755996138, -18.637791429180652, 504.23388147586957, -0.03200000151991844, 0.17600000835955143, 1.0240000486373901, 0.0, 0.0, 0.0, 0.0, 0.0, 1.7632260519659889E9, 0.0, 2025-11-15 12:00:51.965
63.0, -294.50403186073527, -205.7038473128341, -226.61736786505207, 307.76945700356737, -0.03200000151991844, 0.17600000835955143, 1.0240000486373901, 0.0, 0.0, 0.0, 0.0, 0.0, 1.7632260519666345E9, 0.0, 2025-11-15 12:00:51.966
63.0, -101.61495174607262, -45.01530581666157, -106.16640999214724, 411.85835257032886, -0.03200000151991844, 0.17600000835955143, 1.0240000486373901, 0.0, 0.0, 0.0, 0.0, 0.0, 1.7632260519666345E9, 0.0, 2025-11-15 12:00:51.966
64.0, 46.91143509419635, 115.27680628420785, 63.942939492408186, 567.5765670253895, -0.03200000151991844, 0.17600000835955143, 1.0240000486373901, 0.0, 0.0, 0.0, 0.0, 0.0, 1.76322605198028E9, 0.0, 2025-11-15 12:00:51.980
64.0, 198.0164829539135, 301.3237394299358, 284.9055786244571, 328.23044966114685, -0.03200000151991844, 0.17600000835955143, 1.0240000486373901, 0.0, 0.0, 0.0, 0.0, 0.0, 1.76322605198028E9, 0.0, 2025-11-15 12:00:51.980
65.0, 268.2480642218143, 344.58690211735666, 300.3738048411906, 351.6010844842531, -0.03200000151991844, 0.17600000835955143, 1.0240000486373901, 0.0, 0.0, 0.0, 0.0, 0.0, 1.7632260520123289E9, 0.0, 2025-11-15 12:00:52.012
65.0, 108.50758736440912, 152.9749978375621, 76.10509414831176, 583.6992757343687, -0.03200000151991844, 0.17600000835955143, 1.0240000486373901, 0.0, 0.0, 0.0, 0.0, 0.0, 1.7632260520123289E9, 0.0, 2025-11-15 12:00:52.012
66.0, 284.0678410343826, 371.55906059779227, -128.8975219228305, 400.8106881012209, -0.03200000151991844, 0.17600000835955143, 1.0240000486373901, 0.0, 0.0, 0.0, 0.0, 0.0, 1.7632260520129936E9, 0.0, 2025-11-15 12:00:52.012
66.0, 223.3692647535354, 304.8766443878412, -216.50467838486657, 331.1101726270281, -0.03200000151991844, 0.17600000835955143, 1.0240000486373901, 0.0, 0.0, 0.0, 0.0, 0.0, 1.7632260520129936E9, 0.0, 2025-11-15 12:00:52.012
67.0, 29.5508194998838, 68.72627153573558, -14.819353574421257, 505.83829855686054, -0.03200000151991844, 0.17600000835955143, 1.0240000486373901, 0.0, 0.0, 0.0, 0.0, 0.0, 1.7632260520137427E9, 0.0, 2025-11-15 12:00:52.013
67.0, -66.31777596427128, 8.958930343855172, -22.75542128039524, 491.1030927314423, -0.03200000151991844, 0.17600000835955143, 1.0240000486373901, 0.0, 0.0, 0.0, 0.0, 0.0, 1.7632260520137427E9, 0.0, 2025-11-15 12:00:52.013
68.0, -297.66050742333755, -210.1954671596177, -231.15386651130393, 302.69441276369616, -0.03200000151991844, 0.17600000835955143, 1.0240000486373901, 0.0, 0.0, 0.0, 0.0, 0.0, 1.7632260520145276E9, 0.0, 2025-11-15 12:00:52.014
68.0, -120.30323182465509, -65.07238927902654, -132.61498247878626, 395.9936969582923, -0.03200000151991844, 0.17600000835955143, 1.0240000486373901, 0.0, 0.0, 0.0, 0.0, 0.0, 1.7632260520145276E9, 0.0, 2025-11-15 12:00:52.014
69.0, 50.15766825573519, 107.46041537681594, 53.145848320331424, 563.795528170187, -0.03200000151991844, 0.17600000835955143, 1.0240000486373901, 0.0, 0.0, 0.0, 0.0, 0.0, 1.7632260520253005E9, 0.0, 2025-11-15 12:00:52.025
69.0, 207.97583653591573, 305.8190991766751, 292.86408573016524, 336.4806689633988, -0.03200000151991844, 0.17600000835955143, 1.0240000486373901, 0.0, 0.0, 0.0, 0.0, 0.0, 1.7632260520253005E9, 0.0, 2025-11-15 12:00:52.025
70.0, 271.55413578264415, 344.66170011647046, 300.98340853396803, 348.94201561575755, -0.03200000151991844, 0.17600000835955143, 1.0240000486373901, 0.0, 0.0, 0.0, 0.0, 0.0, 1.7632260520403311E9, 0.0, 2025-11-15 12:00:52.040
70.0, 116.3314580717124, 155.6452864059247, 77.56365513103083, 577.1918498114683, -0.03200000151991844, 0.17600000835955143, 1.0240000486373901, 0.0, 0.0, 0.0, 0.0, 0.0, 1.7632260520403311E9, 0.0, 2025-11-15 12:00:52.040
71.0, 298.20466286689043, 389.4096030863002, -114.31565199559554, 413.4291105517186, -0.03200000151991844, 0.19200000911951065, 1.0240000486373901, 0.0, 0.0, 0.0, 0.0, 0.0, 1.7632260520559573E9, 0.0, 2025-11-15 12:00:52.055
71.0, 220.42596348840743, 305.04493988584727, -220.8317426335998, 328.204270361457, -0.03200000151991844, 0.19200000911951065, 1.0240000486373901, 0.0, 0.0, 0.0, 0.0, 0.0, 1.7632260520559573E9, 0.0, 2025-11-15 12:00:52.055
72.0, 20.616198505740613, 64.1972526893951, -22.085979188326746, 490.01478184433654, -0.03200000151991844, 0.19200000911951065, 1.0240000486373901, 0.0, 0.0, 0.0, 0.0, 0.0, 1.763226052056728E9, 0.0, 2025-11-15 12:00:52.056
72.0, -66.0485031674616, 12.178984205704182, -21.5848325942643, 496.87001846311614, -0.03200000151991844, 0.19200000911951065, 1.0240000486373901, 0.0, 0.0, 0.0, 0.0, 0.0, 1.763226052056728E9, 0.0, 2025-11-15 12:00:52.056
73.0, -290.43502070894465, -200.98783346870914, -226.0937818712555, 313.9814308299683, -0.03200000151991844, 0.19200000911951065, 1.0240000486373901, 0.0, 0.0, 0.0, 0.0, 0.0, 1.7632260520702808E9, 0.0, 2025-11-15 12:00:52.070
73.0, -110.78892633737996, -51.80322423623875, -118.51555964583531, 408.75049570715055, -0.03200000151991844, 0.19200000911951065, 1.0240000486373901, 0.0, 0.0, 0.0, 0.0, 0.0, 1.7632260520702808E9, 0.0, 2025-11-15 12:00:52.070
74.0, 63.961638992186636, 122.19562120223418, 60.99215842736885, 569.7344892998226, -0.03200000151991844, 0.19200000911951065, 1.0240000486373901, 0.0, 0.0, 0.0, 0.0, 0.0, 1.7632260520859458E9, 0.0, 2025-11-15 12:00:52.085
74.0, 219.20675610285252, 315.09031116683036, 304.75696758925915, 356.20116142975166, -0.03200000151991844, 0.19200000911951065, 1.0240000486373901, 0.0, 0.0, 0.0, 0.0, 0.0, 1.7632260520859458E9, 0.0, 2025-11-15 12:00:52.085
75.0, 280.8029083730653, 352.579068322666, 308.20141544844955, 352.9661479680799, -0.03200000151991844, 0.19200000911951065, 1.0240000486373901, 0.0, 0.0, 0.0, 0.0, 0.0, 1.7632260520867302E9, 0.0, 2025-11-15 12:00:52.086
75.0, 96.94381670141593, 143.92817984474823, 551.7810995625332, 563.156005277764, -0.03200000151991844, 0.19200000911951065, 1.0240000486373901, 0.0, 0.0, 0.0, 0.0, 0.0, 1.7632260520867302E9, 0.0, 2025-11-15 12:00:52.086
76.0, 285.533881817013, 387.2180217122659, 369.89854501746595, 403.92602476431057, -0.03200000151991844, 0.19200000911951065, 1.0240000486373901, 0.0, 0.0, 0.0, 0.0, 0.0, 1.7632260521002853E9, 0.0, 2025-11-15 12:00:52.100
76.0, 225.8151593245566, 309.3607844347134, 274.36654054932296, 327.6844242676161, -0.03200000151991844, 0.19200000911951065, 1.0240000486373901, 0.0, 0.0, 0.0, 0.0, 0.0, 1.7632260521002853E9, 0.0, 2025-11-15 12:00:52.100
77.0, 6.112866477575153, 539.9293566029519, 458.6613305658102, 484.11695961421356, -0.03200000151991844, 0.19200000911951065, 1.0240000486373901, 0.0, 0.0, 0.0, 0.0, 0.0, 1.7632260521159463E9, 0.0, 2025-11-15 12:00:52.115
77.0, -76.7221776410006, 496.95416621211916, 467.24066106416285, 490.64308503689244, -0.03200000151991844, 0.19200000911951065, 1.0240000486373901, 0.0, 0.0, 0.0, 0.0, 0.0, 1.7632260521159463E9, 0.0, 2025-11-15 12:00:52.115
78.0, -286.65398185374215, 294.01597491651773, 273.1323735639453, 322.6430391273461, -0.03200000151991844, 0.19200000911951065, 1.0240000486373901, 0.0, 0.0, 0.0, 0.0, 0.0, 1.7632260521167316E9, 0.0, 2025-11-15 12:00:52.116
78.0, -106.95178898284212, 433.0205764696002, 373.89649807009846, 418.2947203940712, -0.03200000151991844, 0.19200000911951065, 1.0240000486373901, 0.0, 0.0, 0.0, 0.0, 0.0, 1.7632260521167316E9, 0.0, 2025-11-15 12:00:52.116
79.0, 56.4893188807182, 600.0632079904899, 553.8268248382956, 573.4893488553353, -0.03200000151991844, 0.19200000911951065, 1.0240000486373901, 0.0, 0.0, 0.0, 0.0, 0.0, 1.7632260521302812E9, 0.0, 2025-11-15 12:00:52.130
79.0, 216.74216203205287, 793.2496101516299, 783.6904258648865, 339.5810460266657, -0.03200000151991844, 0.19200000911951065, 1.0240000486373901, 0.0, 0.0, 0.0, 0.0, 0.0, 1.7632260521302812E9, 0.0, 2025-11-15 12:00:52.130
80.0, 272.3208152735606, 827.2079017492943, 788.7467706049792, 343.4780217804946, -0.03200000151991844, 0.19200000911951065, 1.0240000486373901, 0.0, 0.0, 0.0, 0.0, 0.0, 1.7632260521459513E9, 0.0, 2025-11-15 12:00:52.145
80.0, 90.18581748148426, 620.0193141540512, 1032.4723108173348, 562.2771287881769, -0.03200000151991844, 0.19200000911951065, 1.0240000486373901, 0.0, 0.0, 0.0, 0.0, 0.0, 1.7632260521459513E9, 0.0, 2025-11-15 12:00:52.145
81.0, 297.5800995742902, 383.23128835950047, 855.4067474151962, 401.2781755956821, -0.03200000151991844, 0.19200000911951065, 1.0240000486373901, 0.0, 0.0, 0.0, 0.0, 0.0, 1.76322605214673E9, 0.0, 2025-11-15 12:00:52.146
81.0, 212.52355488203466, 293.45498992316425, 757.1034770798869, 317.3473407900892, -0.03200000151991844, 0.19200000911951065, 1.0240000486373901, 0.0, 0.0, 0.0, 0.0, 0.0, 1.76322605214673E9, 0.0, 2025-11-15 12:00:52.146
82.0, 14.445363578852266, 58.774397753644735, 959.1515721860342, 494.27826779382303, -0.03200000151991844, 0.19200000911951065, 1.0240000486373901, 0.0, 0.0, 0.0, 0.0, 0.0, 1.7632260521603036E9, 0.0, 2025-11-15 12:00:52.160
82.0, -63.72602529497817, 9.972443231847137, 959.2450696849264, 498.52679414348677, -0.03200000151991844, 0.19200000911951065, 1.0240000486373901, 0.0, 0.0, 0.0, 0.0, 0.0, 1.7632260521603036E9, 0.0, 2025-11-15 12:00:52.160
83.0, -285.91722156247124, -198.53819899773225, 756.6285097855143, 326.8840856770985, -0.03200000151991844, 0.19200000911951065, 1.0240000486373901, 0.0, 0.0, 0.0, 0.0, 0.0, 1.7632260521759467E9, 0.0, 2025-11-15 12:00:52.175
83.0, -121.16340881446376, -71.53119650250301, 849.0227381908335, 410.9869558806531, -0.03200000151991844, 0.19200000911951065, 1.0240000486373901, 0.0, 0.0, 0.0, 0.0, 0.0, 1.7632260521759467E9, 0.0, 2025-11-15 12:00:52.175
84.0, 62.394620910752565, 109.24434765568003, 1031.5934343277477, 556.7869556532241, -0.03200000151991844, 0.19200000911951065, 1.0240000486373901, 0.0, 0.0, 0.0, 0.0, 0.0, 1.7632260521767368E9, 0.0, 2025-11-15 12:00:52.176
84.0, 227.23258140776306, 320.2625928055495, 788.9337656027637, 339.56234652688727, -0.03200000151991844, 0.19200000911951065, 1.0240000486373901, 0.0, 0.0, 0.0, 0.0, 0.0, 1.7632260521767368E9, 0.0, 2025-11-15 12:00:52.176
85.0, 265.0541896596551, 338.7563980864361, 785.4033000445925, 342.31117299431935, -0.03200000151991844, 0.19200000911951065, 1.0240000486373901, 0.0, 0.0, 0.0, 0.0, 0.0, 1.7632260521902926E9, 0.0, 2025-11-15 12:00:52.190
85.0, 99.08677937602624, 139.0064715030603, 555.7229541158304, 569.4726963029243, -0.03200000151991844, 0.19200000911951065, 1.0240000486373901, 0.0, 0.0, 0.0, 0.0, 0.0, 1.7632260521902926E9, 0.0, 2025-11-15 12:00:52.190
86.0, 286.981223099865, 381.8849243754521, 368.15949153807014, 405.70621714321896, -0.03200000151991844, 0.19200000911951065, 1.0240000486373901, 0.0, 0.0, 0.0, 0.0, 0.0, 1.7632260522059956E9, 0.0, 2025-11-15 12:00:52.205
86.0, 216.2559750378132, 295.79242739547044, 268.3527814205736, 321.1433392451145, -0.03200000151991844, 0.19200000911951065, 1.0240000486373901, 0.0, 0.0, 0.0, 0.0, 0.0, 1.7632260522059956E9, 0.0, 2025-11-15 12:00:52.205
87.0, 7.017922266852111, 53.41138121718541, 468.8450781451538, 505.68870255863294, -0.03200000151991844, 0.19200000911951065, 1.0240000486373901, 0.0, 0.0, 0.0, 0.0, 0.0, 1.7632260522067587E9, 0.0, 2025-11-15 12:00:52.206
87.0, -57.28591757128015, 18.798607127275318, 482.0469249887392, 502.94735589111224, -0.03200000151991844, 0.19200000911951065, 1.0240000486373901, 0.0, 0.0, 0.0, 0.0, 0.0, 1.7632260522067587E9, 0.0, 2025-11-15 12:00:52.206
88.0, -280.5990838254802, -194.30837214784697, 277.7287106094882, 333.2606151015498, -0.03200000151991844, 0.19200000911951065, 1.0240000486373901, 0.0, 0.0, 0.0, 0.0, 0.0, 1.7632260522202628E9, 0.0, 2025-11-15 12:00:52.220
88.0, -119.42809523502365, -65.03873017942533, 366.8019078541547, 407.96885661641136, -0.03200000151991844, 0.19200000911951065, 1.0240000486373901, 0.0, 0.0, 0.0, 0.0, 0.0, 1.7632260522202628E9, 0.0, 2025-11-15 12:00:52.220
89.0, 61.82989601744339, 121.23820681357756, 559.260899473913, 575.5500337309204, -0.03200000151991844, 0.19200000911951065, 1.0240000486373901, 0.0, 0.0, 0.0, 0.0, 0.0, 1.7632260522359636E9, 0.0, 2025-11-15 12:00:52.235
89.0, 234.26733322441578, 329.6422618944198, 318.16824883036315, 367.64899519411847, -0.03200000151991844, 0.19200000911951065, 1.0240000486373901, 0.0, 0.0, 0.0, 0.0, 0.0, 1.7632260522359636E9, 0.0, 2025-11-15 12:00:52.235
90.0, 266.430472843349, 342.9413461368531, 306.2267482718453, 356.4105958272703, -0.03200000151991844, 0.19200000911951065, 1.0240000486373901, 0.0, 0.0, 0.0, 0.0, 0.0, 1.7632260522367277E9, 0.0, 2025-11-15 12:00:52.236
90.0, 94.3595458320342, 139.3094033994712, 66.52721036178991, 572.4683561674319, -0.03200000151991844, 0.19200000911951065, 1.0240000486373901, 0.0, 0.0, 0.0, 0.0, 0.0, 1.7632260522367277E9, 0.0, 2025-11-15 12:00:52.236
91.0, 295.4072177000344, -94.35206603212282, -106.48056158842519, 423.2912267348729, -0.03200000151991844, 0.19200000911951065, 1.0240000486373901, 0.0, 0.0, 0.0, 0.0, 0.0, 1.7632260522502692E9, 0.0, 2025-11-15 12:00:52.250
91.0, 223.19722935557365, -183.0737126809545, -209.09967647260055, 331.8880718178116, -0.03200000151991844, 0.19200000911951065, 1.0240000486373901, 0.0, 0.0, 0.0, 0.0, 0.0, 1.7632260522502692E9, 0.0, 2025-11-15 12:00:52.250
92.0, 11.105632918421179, 53.20568671962246, -17.803793739061803, 495.89764447463676, -0.03200000151991844, 0.19200000911951065, 1.0240000486373901, 0.0, 0.0, 0.0, 0.0, 0.0, 1.763226052265944E9, 0.0, 2025-11-15 12:00:52.265
92.0, -53.482439316343516, 24.823585955891758, -1.8157214284874499, 510.61789070023224, -0.03200000151991844, 0.19200000911951065, 1.0240000486373901, 0.0, 0.0, 0.0, 0.0, 0.0, 1.763226052265944E9, 0.0, 2025-11-15 12:00:52.265
93.0, -277.0424389676191, -184.57715246314183, -203.46738713933155, 338.5151745392941, -0.03200000151991844, 0.19200000911951065, 1.0240000486373901, 0.0, 0.0, 0.0, 0.0, 0.0, 1.7632260522667704E9, 0.0, 2025-11-15 12:00:52.266
93.0, -125.75226606009528, -59.944986439775676, -118.90076934127137, 414.027494544629, -0.03200000151991844, 0.19200000911951065, 1.0240000486373901, 0.0, 0.0, 0.0, 0.0, 0.0, 1.7632260522667704E9, 0.0, 2025-11-15 12:00:52.266
94.0, 62.17396681336686, 117.49456695793197, 70.37182751623914, 581.4104569614865, -0.03200000151991844, 0.19200000911951065, 1.0240000486373901, 0.0, 0.0, 0.0, 0.0, 0.0, 1.7632260522803426E9, 0.0, 2025-11-15 12:00:52.280
94.0, 230.61345096770674, 333.0867097536102, -163.66363191092387, 375.80571699747816, -0.03200000151991844, 0.19200000911951065, 1.0240000486373901, 0.0, 0.0, 0.0, 0.0, 0.0, 1.7632260522803426E9, 0.0, 2025-11-15 12:00:52.280
95.0, 251.87104231584817, 328.4492338085547, -193.42949565825984, 351.05505909072235, -0.03200000151991844, 0.19200000911951065, 1.0240000486373901, 0.0, 0.0, 0.0, 0.0, 0.0, 1.763226052296674E9, 0.0, 2025-11-15 12:00:52.296
95.0, 90.22321648104116, 133.68833376606926, -434.7633698489517, 568.6947971121408, -0.03200000151991844, 0.19200000911951065, 1.0240000486373901, 0.0, 0.0, 0.0, 0.0, 0.0, 1.763226052296674E9, 0.0, 2025-11-15 12:00:52.296
96.0, 319.2266405178234, -85.07711414201185, -586.5621691504493, 427.3639777866192, -0.03200000151991844, 0.19200000911951065, 1.0240000486373901, 0.0, 0.0, 0.0, 0.0, 0.0, 1.763226052297371E9, 0.0, 2025-11-15 12:00:52.297
96.0, 233.24260063655674, -170.4328508307226, -689.6674710288644, 343.31720608239993, -0.03200000151991844, 0.19200000911951065, 1.0240000486373901, 0.0, 0.0, 0.0, 0.0, 0.0, 1.763226052297371E9, 0.0, 2025-11-15 12:00:52.297
97.0, 8.985109643545002, 57.42803376959637, -501.10171526297927, 513.310618668329, -0.03200000151991844, 0.19200000911951065, 1.0240000486373901, 0.0, 0.0, 0.0, 0.0, 0.0, 1.7632260523103492E9, 0.0, 2025-11-15 12:00:52.310
97.0, -58.90529425209388, 17.362485544290394, -498.77923739049584, 503.6280176830478, -0.03200000151991844, 0.19200000911951065, 1.0240000486373901, 0.0, 0.0, 0.0, 0.0, 0.0, 1.7632260523103492E9, 0.0, 2025-11-15 12:00:52.310
98.0, -281.64999571302906, -186.92954953527078, -698.3589985258877, 335.42227727593854, -0.03200000151991844, 0.19200000911951065, 1.0240000486373901, 0.0, 0.0, 0.0, 0.0, 0.0, 1.763226052325926E9, 0.0, 2025-11-15 12:00:52.325
98.0, -125.14266236731783, -58.95391295151785, -611.9860090492293, 411.53672117413953, -0.03200000151991844, 0.19200000911951065, 1.0240000486373901, 0.0, 0.0, 0.0, 0.0, 0.0, 1.763226052325926E9, 0.0, 2025-11-15 12:00:52.325
99.0, 64.98637158004567, 124.95940726948902, -416.0227311709896, 585.0045008189045, -0.03200000151991844, 0.19200000911951065, 1.0240000486373901, 0.0, 0.0, 0.0, 0.0, 0.0, 1.7632260523266444E9, 0.0, 2025-11-15 12:00:52.326
99.0, 234.143916525878, 336.6358748115599, -651.1951201846823, 367.8135507921688, -0.03200000151991844, 0.19200000911951065, 1.0240000486373901, 0.0, 0.0, 0.0, 0.0, 0.0, 1.7632260523266444E9, 0.0, 2025-11-15 12:00:52.326
100.0, 274.7330507449806, 348.1996454745531, -667.8227153876796, 359.9373214854859, -0.03200000151991844, 0.19200000911951065, 1.0240000486373901, 0.0, 0.0, 0.0, 0.0, 0.0, 1.7632260523409772E9, 0.0, 2025-11-15 12:00:52.340
100.0, 90.81038077408448, 133.31060387054458, -431.1319269919768, 568.9229310094379, -0.03200000151991844, 0.19200000911951065, 1.0240000486373901, 0.0, 0.0, 0.0, 0.0, 0.0, 1.7632260523409772E9, 0.0, 2025-11-15 12:00:52.340
0.0, -174.33543643448502, -81.57095793355256, -97.51976129459217, -65.3659714255482, -0.03200000151991844, 0.19200000911951065, 1.0240000486373901, 0.0, 0.0, 0.0, 0.0, 0.0, 1.7632260523416708E9, 0.0, 2025-11-15 12:00:52.341
1.0, -260.99639820773154, -175.16943412460387, -206.32467070547864, -156.82896474190056, -0.03200000151991844, 0.19200000911951065, 1.0240000486373901, 0.0, 0.0, 0.0, 0.0, 0.0, 1.7632260523553026E9, 0.0, 2025-11-15 12:00:52.355
1.0, -484.352573311422, 54.538961053825915, -18.117945335339755, 15.774898013100028, -0.03200000151991844, 0.19200000911951065, 1.0240000486373901, 0.0, 0.0, 0.0, 0.0, 0.0, 1.7632260523553026E9, 0.0, 2025-11-15 12:00:52.355
2.0, -538.1136351744644, 34.5342361908406, -0.1365063483826816, 19.28666407149285, -0.03200000151991844, 0.19200000911951065, 1.0240000486373901, 0.0, 0.0, 0.0, 0.0, 0.0, 1.7632260523709605E9, 0.0, 2025-11-15 12:00:52.370
2.0, -759.4970130515285, -173.05265074968338, -198.1492494023405, -151.33879160694778, -0.03200000151991844, 0.19200000911951065, 1.0240000486373901, 0.0, 0.0, 0.0, 0.0, 0.0, 1.7632260523709605E9, 0.0, 2025-11-15 12:00:52.370
3.0, -608.1245623449795, -60.122631687670946, -116.39503637095913, -72.28478634357452, -0.03200000151991844, 0.19200000911951065, 1.0240000486373901, 0.0, 0.0, 0.0, 0.0, 0.0, 1.7632260523716447E9, 0.0, 2025-11-15 12:00:52.371
3.0, -425.1387373129837, 122.35082705039531, 65.1958059775643, 85.1874411907047, -0.03200000151991844, 0.19200000911951065, 1.0240000486373901, 0.0, 0.0, 0.0, 0.0, 0.0, 1.7632260523716447E9, 0.0, 2025-11-15 12:00:52.371
4.0, -249.99361253809184, 336.49562856322154, -165.2044706926681, -123.58873393572867, -0.03200000151991844, 0.19200000911951065, 1.0240000486373901, 0.0, 0.0, 0.0, 0.0, 0.0, 1.7632260524017184E9, 0.0, 2025-11-15 12:00:52.401
4.0, -219.068379804492, 342.4345896928571, -187.2212617318146, -145.1754364799708, -0.03200000151991844, 0.19200000911951065, 1.0240000486373901, 0.0, 0.0, 0.0, 0.0, 0.0, 1.7632260524017184E9, 0.0, 2025-11-15 12:00:52.401
5.0, -423.90831022756174, 110.60006138961762, 34.88017693674192, 59.98425538931042, -0.03200000151991844, 0.19200000911951065, 1.0240000486373901, 0.0, 0.0, 0.0, 0.0, 0.0, 1.7632260524023545E9, 0.0, 2025-11-15 12:00:52.402
5.0, -657.4426230606623, -79.3718967596069, -94.37824533181265, -57.46356281917542, -0.03200000151991844, 0.19200000911951065, 1.0240000486373901, 0.0, 0.0, 0.0, 0.0, 0.0, 1.7632260524023545E9, 0.0, 2025-11-15 12:00:52.402
6.0, -762.904061911162, -177.94817979168147, -209.84017666382715, -154.65234296768904, -0.03200000151991844, 0.19200000911951065, 1.0240000486373901, 0.0, 0.0, 0.0, 0.0, 0.0, 1.7632260524030893E9, 0.0, 2025-11-15 12:00:52.403
6.0, -1000.6476321443915, 25.644493996165693, -44.13268942711875, -10.022931881248951, -0.03200000151991844, 0.19200000911951065, 1.0240000486373901, 0.0, 0.0, 0.0, 0.0, 0.0, 1.7632260524030893E9, 0.0, 2025-11-15 12:00:52.403
7.0, -1018.8272858290002, 34.56041549053043, -2.533782219979912, 21.919553640298545, -0.03200000151991844, 0.19200000911951065, 1.0240000486373901, 0.0, 0.0, 0.0, 0.0, 0.0, 1.7632260524153168E9, 0.0, 2025-11-15 12:00:52.415
7.0, -1240.5248153023422, -175.9361136155203, -195.224647636991, -142.00774121750146, -0.03200000151991844, 0.19200000911951065, 1.0240000486373901, 0.0, 0.0, 0.0, 0.0, 0.0, 1.7632260524153168E9, 0.0, 2025-11-15 12:00:52.415
8.0, -1109.9798674490303, -68.6982222860679, -125.99161965725943, -81.95242772903293, -0.03200000151991844, 0.19200000911951065, 1.0240000486373901, 0.0, 0.0, 0.0, 0.0, 0.0, 1.7632260524309816E9, 0.0, 2025-11-15 12:00:52.430
8.0, -943.1055314261466, 100.27793751191348, 39.095044186804444, 59.44944969564676, -0.03200000151991844, 0.19200000911951065, 1.0240000486373901, 0.0, 0.0, 0.0, 0.0, 0.0, 1.7632260524309816E9, 0.0, 2025-11-15 12:00:52.430
9.0, -740.2290484798141, 337.3333661532961, -166.56953417649493, -121.46073086094111, -0.03200000151991844, 0.19200000911951065, 1.0240000486373901, 0.0, 0.0, 0.0, 0.0, 0.0, 1.7632260524317508E9, 0.0, 2025-11-15 12:00:52.431
9.0, -708.5969746545888, 350.0677255024202, -187.45687542902306, -139.66656384523958, -0.03200000151991844, 0.19200000911951065, 1.0240000486373901, 0.0, 0.0, 0.0, 0.0, 0.0, 1.7632260524317508E9, 0.0, 2025-11-15 12:00:52.431
10.0, -912.853480684571, 124.06744113005698, 41.5184993580915, 65.75492102093995, -0.03200000151991844, 0.19200000911951065, 1.0240000486373901, 0.0, 0.0, 0.0, 0.0, 0.0, 1.763226052445275E9, 0.0, 2025-11-15 12:00:52.445
10.0, -1139.8467084951699, -69.57335887569934, -85.00231614289805, -53.94431696087122, -0.03200000151991844, 0.19200000911951065, 1.0240000486373901, 0.0, 0.0, 0.0, 0.0, 0.0, 1.763226052445275E9, 0.0, 2025-11-15 12:00:52.445
11.0, -1234.170725277625, -172.1924737598747, -199.78732558293268, -152.56547879241407, -0.03200000151991844, 0.19200000911951065, 1.0240000486373901, 0.0, 0.0, 0.0, 0.0, 0.0, 1.7632260524773903E9, 0.0, 2025-11-15 12:00:52.477
11.0, -994.8133882135153, 41.36329350993037, -32.04533277032897, 0.007479799911379814, -0.03200000151991844, 0.19200000911951065, 1.0240000486373901, 0.0, 0.0, 0.0, 0.0, 0.0, 1.7632260524773903E9, 0.0, 2025-11-15 12:00:52.477
12.0, -1024.4333958625793, 36.411665968596935, 5.507002684753388, 31.02994993235916, -0.03200000151991844, 0.19200000911951065, 1.0240000486373901, 0.0, 0.0, 0.0, 0.0, 0.0, 1.7632260524780595E9, 0.0, 2025-11-15 12:00:52.478
12.0, -1249.077966501005, -173.1573679484427, -192.0345129747875, -139.59176584612578, -0.03200000151991844, 0.19200000911951065, 1.0240000486373901, 0.0, 0.0, 0.0, 0.0, 0.0, 1.7632260524780595E9, 0.0, 2025-11-15 12:00:52.478
13.0, -1115.8365507796407, -79.83190445415676, -134.17078086035326, -88.27285865414888, -0.03200000151991844, 0.19200000911951065, 1.0240000486373901, 0.0, 0.0, 0.0, 0.0, 0.0, 1.763226052478798E9, 0.0, 2025-11-15 12:00:52.478
13.0, -923.0409681638703, 120.57063467148691, 61.616721719969064, 78.42570207081735, -0.03200000151991844, 0.19200000911951065, 1.0240000486373901, 0.0, 0.0, 0.0, 0.0, 0.0, 1.763226052478798E9, 0.0, 2025-11-15 12:00:52.478
14.0, -746.1231308099814, 331.6636778204702, -173.27891469700262, -135.92666388954967, -0.03200000151991844, 0.19200000911951065, 1.0240000486373901, 0.0, 0.0, 0.0, 0.0, 0.0, 1.763226052479544E9, 0.0, 2025-11-15 12:00:52.479
14.0, -726.6868707402609, 331.53278132202104, -195.12367033818737, -149.79047302529216, -0.03200000151991844, 0.19200000911951065, 1.0240000486373901, 0.0, 0.0, 0.0, 0.0, 0.0, 1.763226052479544E9, 0.0, 2025-11-15 12:00:52.479
15.0, -905.4372590724379, 117.20098481141031, 39.5176528817974, 62.52364745922387, -0.03200000151991844, 0.19200000911951065, 1.0240000486373901, 0.0, 0.0, 0.0, 0.0, 0.0, 1.763226052490312E9, 0.0, 2025-11-15 12:00:52.490
15.0, -668.5613456289284, -89.51450543943793, -104.5507732112892, -72.81585213728249, -0.03200000151991844, 0.19200000911951065, 1.0240000486373901, 0.0, 0.0, 0.0, 0.0, 0.0, 1.763226052490312E9, 0.0, 2025-11-15 12:00:52.490
16.0, -757.5747044743039, -189.0930816596374, -217.55559027241543, -168.60964960232377, -0.03200000151991844, 0.19200000911951065, 1.0240000486373901, 0.0, 0.0, 0.0, 0.0, 0.0, 1.7632260525052693E9, 0.0, 2025-11-15 12:00:52.505
16.0, -1001.7658622311428, 26.13816079031676, -41.33898416021839, -13.946086934767663, -0.03200000151991844, 0.19200000911951065, 1.0240000486373901, 0.0, 0.0, 0.0, 0.0, 0.0, 1.7632260525052693E9, 0.0, 2025-11-15 12:00:52.505
17.0, -1029.2167279059067, 31.138407031074166, -1.1948980358429253, 21.975652139633894, -0.03200000151991844, 0.19200000911951065, 1.0240000486373901, 0.0, 0.0, 0.0, 0.0, 0.0, 1.7632260525209384E9, 0.0, 2025-11-15 12:00:52.520
17.0, -1260.2191284690052, -191.88304702658206, -208.58357027871534, -159.8208847064525, -0.03200000151991844, 0.19200000911951065, 1.0240000486373901, 0.0, 0.0, 0.0, 0.0, 0.0, 1.7632260525209384E9, 0.0, 2025-11-15 12:00:52.520
18.0, -1120.7320798216388, -81.82527113053948, -134.57095015561208, -87.67821456119418, -0.03200000151991844, 0.19200000911951065, 1.0240000486373901, 0.0, 0.0, 0.0, 0.0, 0.0, 1.7632260525217357E9, 0.0, 2025-11-15 12:00:52.521
18.0, -924.7501024436206, 111.84918797481805, 54.731565901543945, 73.93034232407808, -0.03200000151991844, 0.19200000911951065, 1.0240000486373901, 0.0, 0.0, 0.0, 0.0, 0.0, 1.7632260525217357E9, 0.0, 2025-11-15 12:00:52.521
19.0, -747.3797371950932, 326.6522118798457, -177.37036524852738, -132.07082703523338, -0.03200000151991844, 0.19200000911951065, 1.0240000486373901, 0.0, 0.0, 0.0, 0.0, 0.0, 1.763226052535302E9, 0.0, 2025-11-15 12:00:52.535
19.0, -719.3753663268872, 334.16567089082673, -188.8855172120966, -146.8509116601199, -0.03200000151991844, 0.19200000911951065, 1.0240000486373901, 0.0, 0.0, 0.0, 0.0, 0.0, 1.763226052535302E9, 0.0, 2025-11-15 12:00:52.535
20.0, -905.3175822738558, 118.30051539838314, 42.34127734834328, 58.73886870406568, -0.03200000151991844, 0.19200000911951065, 1.0400000493973494, 0.0, 0.0, 0.0, 0.0, 0.0, 1.7632260525509434E9, 0.0, 2025-11-15 12:00:52.550
20.0, -672.630356780719, -83.12675631511956, -100.97916875360534, -67.81934579648077, -0.03200000151991844, 0.19200000911951065, 1.0400000493973494, 0.0, 0.0, 0.0, 0.0, 0.0, 1.7632260525509434E9, 0.0, 2025-11-15 12:00:52.550
21.0, -763.7380596012808, -192.4589916197583, -221.65826052380726, -171.20888007152826, -0.03200000151991844, 0.17600000835955143, 1.0400000493973494, 0.0, 0.0, 0.0, 0.0, 0.0, 1.7632260525516326E9, 0.0, 2025-11-15 12:00:52.551
21.0, -1000.1876244498417, 18.49754518084228, -59.208226148504764, -22.731111930683255, -0.03200000151991844, 0.17600000835955143, 1.0400000493973494, 0.0, 0.0, 0.0, 0.0, 0.0, 1.7632260525516326E9, 0.0, 2025-11-15 12:00:52.551
22.0, -1025.0093404557556, 23.924140016548336, -9.699430535081774, 9.102916492149234, -0.03200000151991844, 0.17600000835955143, 1.0400000493973494, 0.0, 0.0, 0.0, 0.0, 0.0, 1.76322605256533E9, 0.0, 2025-11-15 12:00:52.565
22.0, -1267.8971430780366, -204.37805277854204, -222.20802581729367, -176.7102729063481, -0.03200000151991844, 0.17600000835955143, 1.0400000493973494, 0.0, 0.0, 0.0, 0.0, 0.0, 1.76322605256533E9, 0.0, 2025-11-15 12:00:52.565
23.0, -1119.0827839411795, -89.00213914550841, -147.69799900008366, -104.94533265661448, -0.03200000151991844, 0.17600000835955143, 1.0400000493973494, 0.0, 0.0, 0.0, 0.0, 0.0, 1.7632260525809197E9, 0.0, 2025-11-15 12:00:52.580
23.0, -915.0301024587825, 111.85292787477374, 48.05210458068177, 59.97303568944335, -0.03200000151991844, 0.17600000835955143, 1.0400000493973494, 0.0, 0.0, 0.0, 0.0, 0.0, 1.7632260525809197E9, 0.0, 2025-11-15 12:00:52.580
24.0, -757.6756817731075, 315.0547821172513, -191.72784117842093, -148.98639453481883, -0.03200000151991844, 0.17600000835955143, 1.0400000493973494, 0.0, 0.0, 0.0, 0.0, 0.0, 1.7632260525816412E9, 0.0, 2025-11-15 12:00:52.581
24.0, -721.6641850997694, 322.4298648298718, -207.03525169705972, -161.26822598930448, -0.03200000151991844, 0.17600000835955143, 1.0400000493973494, 0.0, 0.0, 0.0, 0.0, 0.0, 1.7632260525816412E9, 0.0, 2025-11-15 12:00:52.581
25.0, -896.439059779048, 122.21993055194616, -449.30784077662975, 60.84069247916341, -0.03200000151991844, 0.17600000835955143, 1.0400000493973494, 0.0, 0.0, 0.0, 0.0, 0.0, 1.7632260525953135E9, 0.0, 2025-11-15 12:00:52.595
25.0, -666.6951355510391, -88.10830305609852, -596.3307878347114, -73.65732962731272, -0.03200000151991844, 0.17600000835955143, 1.0400000493973494, 0.0, 0.0, 0.0, 0.0, 0.0, 1.7632260525953135E9, 0.0, 2025-11-15 12:00:52.595
26.0, -765.6753277783282, -199.26934943906963, -716.7256472082809, -175.4536665212363, -0.03200000151991844, 0.17600000835955143, 1.0400000493973494, 0.0, 0.0, 0.0, 0.0, 0.0, 1.7632260526109307E9, 0.0, 2025-11-15 12:00:52.610
26.0, -991.4287787536159, 26.437352786771953, -535.3554589571431, -16.003031910397112, -0.03200000151991844, 0.17600000835955143, 1.0400000493973494, 0.0, 0.0, 0.0, 0.0, 0.0, 1.7632260526109307E9, 0.0, 2025-11-15 12:00:52.610
27.0, -1011.5980592146516, 39.72895722929388, -482.9706802777946, 41.78590220492333, -0.03200000151991844, 0.17600000835955143, 1.0400000493973494, 0.0, 0.0, 0.0, 0.0, 0.0, 1.7632260526116376E9, 0.0, 2025-11-15 12:00:52.611
27.0, -770.7728114179336, -194.74407049268484, -704.8664244487882, -164.77625214774162, -0.03200000151991844, 0.17600000835955143, 1.0400000493973494, 0.0, 0.0, 0.0, 0.0, 0.0, 1.7632260526116376E9, 0.0, 2025-11-15 12:00:52.611
28.0, -627.8450548113324, -84.97426689323038, -634.0065399883315, -107.03593673184514, -0.03200000151991844, 0.17600000835955143, 1.0400000493973494, 0.0, 0.0, 0.0, 0.0, 0.0, 1.7632260526252866E9, 0.0, 2025-11-15 12:00:52.625
28.0, -425.68102280655876, 110.76835688762367, -439.2138507962227, 69.72295487392694, -0.03200000151991844, 0.17600000835955143, 1.0400000493973494, 0.0, 0.0, 0.0, 0.0, 0.0, 1.7632260526252866E9, 0.0, 2025-11-15 12:00:52.625
29.0, -242.40161562804133, 333.6869636964984, -653.1099489619955, -114.71395134087652, -0.03200000151991844, 0.17600000835955143, 1.0400000493973494, 0.0, 0.0, 0.0, 0.0, 0.0, 1.763226052640939E9, 0.0, 2025-11-15 12:00:52.640
29.0, -225.41125012934208, 336.3198532653041, -676.3010685872287, -136.19219678640366, -0.03200000151991844, 0.17600000835955143, 1.0400000493973494, 0.0, 0.0, 0.0, 0.0, 0.0, 1.763226052640939E9, 0.0, 2025-11-15 12:00:52.640
30.0, -400.33572080684826, 129.49403596576303, -436.3116884306073, 67.8081260966137, -0.03200000151991844, 0.17600000835955143, 1.0240000486373901, 0.0, 0.0, 0.0, 0.0, 0.0, 1.7632260526416318E9, 0.0, 2025-11-15 12:00:52.641
30.0, -159.75730640720576, -68.01756049413234, -572.4290872178972, -36.50142356753349, -0.03200000151991844, 0.17600000835955143, 1.0240000486373901, 0.0, 0.0, 0.0, 0.0, 0.0, 1.7632260526416318E9, 0.0, 2025-11-15 12:00:52.641
31.0, -263.7190453754738, -171.57539026718587, -688.6726576406509, -143.2493880027905, -0.03200000151991844, 0.19200000911951065, 1.0240000486373901, 0.0, 0.0, 0.0, 0.0, 0.0, 1.7632260526552596E9, 0.0, 2025-11-15 12:00:52.655
31.0, -491.6603378248401, 45.60807995963842, -522.2508495124057, 1.372543283738196, -0.03200000151991844, 0.19200000911951065, 1.0240000486373901, 0.0, 0.0, 0.0, 0.0, 0.0, 1.7632260526552596E9, 0.0, 2025-11-15 12:00:52.655
32.0, -506.5862785479985, 50.27921500429511, -471.50788691360503, 46.00450935494155, -0.03200000151991844, 0.19200000911951065, 1.0240000486373901, 0.0, 0.0, 0.0, 0.0, 0.0, 1.7632260526709588E9, 0.0, 2025-11-15 12:00:52.670
32.0, -732.7305490686558, -155.88277005311102, -663.476951639168, -124.89769892022014, -0.03200000151991844, 0.19200000911951065, 1.0240000486373901, 0.0, 0.0, 0.0, 0.0, 0.0, 1.7632260526709588E9, 0.0, 2025-11-15 12:00:52.670
33.0, -585.9432157077827, -38.55462864320725, -587.5532426387072, -53.93683716095984, -0.03200000151991844, 0.19200000911951065, 1.0240000486373901, 0.0, 0.0, 0.0, 0.0, 0.0, 1.7632260526716485E9, 0.0, 2025-11-15 12:00:52.671
33.0, -391.6142741101794, 151.46220830548555, -406.0035391896963, 106.07478244323283, -0.03200000151991844, 0.19200000911951065, 1.0240000486373901, 0.0, 0.0, 0.0, 0.0, 0.0, 1.7632260526716485E9, 0.0, 2025-11-15 12:00:52.671
34.0, -201.06450141780078, 376.07124989433214, -616.2532348986715, -80.75939964316785, -0.03200000151991844, 0.19200000911951065, 1.0240000486373901, 0.0, 0.0, 0.0, 0.0, 0.0, 1.7632260526852899E9, 0.0, 2025-11-15 12:00:52.685
34.0, -191.51653683092445, 370.99620565446094, -644.3997219651937, -106.14584054239094, -0.03200000151991844, 0.19200000911951065, 1.0240000486373901, 0.0, 0.0, 0.0, 0.0, 0.0, 1.7632260526852899E9, 0.0, 2025-11-15 12:00:52.685
35.0, -366.51206560758874, 166.10765653196722, -404.58611710648984, 100.47241230960935, -0.03200000151991844, 0.19200000911951065, 1.0240000486373901, 0.0, 0.0, 0.0, 0.0, 0.0, 1.7632260527009268E9, 0.0, 2025-11-15 12:00:52.700
35.0, -597.09559737565, -15.636521714739501, -519.3935659462586, 9.076737192459404, -0.03200000151991844, 0.19200000911951065, 1.0240000486373901, 0.0, 0.0, 0.0, 0.0, 0.0, 1.7632260527009268E9, 0.0, 2025-11-15 12:00:52.700
36.0, -680.4804067877121, -113.93979205004871, -627.8693641610444, -80.36297024786472, -0.03200000151991844, 0.19200000911951065, 1.0240000486373901, 0.0, 0.0, 0.0, 0.0, 0.0, 1.7632260527016342E9, 0.0, 2025-11-15 12:00:52.701
36.0, -897.5423302659765, 128.5441013770178, -437.7739893132821, 76.57071169279516, -0.03200000151991844, 0.19200000911951065, 1.0240000486373901, 0.0, 0.0, 0.0, 0.0, 0.0, 1.7632260527016342E9, 0.0, 2025-11-15 12:00:52.701
37.0, -907.5802217470482, 149.6221775272861, -375.3999378522858, 131.34528644382954, -0.03200000151991844, 0.19200000911951065, 1.0240000486373901, 0.0, 0.0, 0.0, 0.0, 0.0, 1.763226052715354E9, 0.0, 2025-11-15 12:00:52.715
37.0, -1124.131648881361, -47.661285035312176, -562.2004608390853, -28.838368558324873, -0.03200000151991844, 0.19200000911951065, 1.0240000486373901, 0.0, 0.0, 0.0, 0.0, 0.0, 1.763226052715354E9, 0.0, 2025-11-15 12:00:52.715
38.0, -973.8250696621835, 67.75576749723405, -479.28687882144004, 45.40986526198685, -0.03200000151991844, 0.19200000911951065, 1.0240000486373901, 0.0, 0.0, 0.0, 0.0, 0.0, 1.7632260527309747E9, 0.0, 2025-11-15 12:00:52.730
38.0, -743.7426844881848, 283.4395378418267, -268.1321273231879, 232.58063834439963, -0.03200000151991844, 0.19200000911951065, 1.0240000486373901, 0.0, 0.0, 0.0, 0.0, 0.0, 1.7632260527309747E9, 0.0, 2025-11-15 12:00:52.730
39.0, -564.3041545641609, 516.2539199334569, -480.53974530659616, 43.47633698489517, -0.03200000151991844, 0.19200000911951065, 1.0240000486373901, 0.0, 0.0, 0.0, 0.0, 0.0, 1.7632260527317374E9, 0.0, 2025-11-15 12:00:52.731
39.0, -510.3448780034669, 548.9481253460981, -472.16984920576215, 60.70231618080288, -0.03200000151991844, 0.19200000911951065, 1.0240000486373901, 0.0, 0.0, 0.0, 0.0, 0.0, 1.7632260527317374E9, 0.0, 2025-11-15 12:00:52.731
40.0, -656.2701644245535, 377.0754130324349, -685.2599989310838, 298.04758706875145, -0.03200000151991844, 0.19200000911951065, 1.0400000493973494, 0.0, 0.0, 0.0, 0.0, 0.0, 1.7632260527453015E9, 0.0, 2025-11-15 12:00:52.745
40.0, -895.5788827892393, 187.85517477430403, -810.4045312483795, 201.905978907831, -0.03200000151991844, 0.19200000911951065, 1.0400000493973494, 0.0, 0.0, 0.0, 0.0, 0.0, 1.7632260527453015E9, 0.0, 2025-11-15 12:00:52.745
41.0, -971.8990211850032, 92.7083800015971, -920.933534538839, 93.54985749162734, -0.03200000151991844, 0.19200000911951065, 1.0400000493973494, 0.0, 0.0, 0.0, 0.0, 0.0, 1.7632260527609885E9, 0.0, 2025-11-15 12:00:52.760
41.0, -738.6900796480477, 300.9273100346327, -764.2878248947673, 223.99008814617991, -0.03200000151991844, 0.19200000911951065, 1.0400000493973494, 0.0, 0.0, 0.0, 0.0, 0.0, 1.7632260527609885E9, 0.0, 2025-11-15 12:00:52.760
42.0, -802.631149190478, 260.6074486123398, -758.2553662662394, 227.4083567056805, -0.03200000151991844, 0.19200000911951065, 1.0400000493973494, 0.0, 0.0, 0.0, 0.0, 0.0, 1.763226052761737E9, 0.0, 2025-11-15 12:00:52.761
42.0, -610.1740275206976, 462.40684037143365, -540.1724501000717, 470.30550907785073, -0.03200000151991844, 0.19200000911951065, 1.0400000493973494, 0.0, 0.0, 0.0, 0.0, 0.0, 1.763226052761737E9, 0.0, 2025-11-15 12:00:52.761
43.0, -524.6051165345125, 525.7457860209979, -510.96383144613355, 494.1847702949308, -0.03200000151991844, 0.19200000911951065, 1.0400000493973494, 0.0, 0.0, 0.0, 0.0, 0.0, 1.7632260527753155E9, 0.0, 2025-11-15 12:00:52.775
43.0, -316.34130770200863, 714.154465988744, -327.0916501246393, 653.164177511353, -0.03200000151991844, 0.19200000911951065, 1.0400000493973494, 0.0, 0.0, 0.0, 0.0, 0.0, 1.7632260527753155E9, 0.0, 2025-11-15 12:00:52.775
44.0, -181.96483234409243, 910.7815761091188, -571.1313419332728, 449.0553975296207, -0.03200000151991844, 0.19200000911951065, 1.0400000493973494, 0.0, 0.0, 0.0, 0.0, 0.0, 1.763226052790983E9, 0.0, 2025-11-15 12:00:52.790
44.0, -169.42120789270848, 894.2512183049694, -614.4281637202948, 391.4272791123949, -0.03200000151991844, 0.19200000911951065, 1.0400000493973494, 0.0, 0.0, 0.0, 0.0, 0.0, 1.763226052790983E9, 0.0, 2025-11-15 12:00:52.790
45.0, -334.8874715822749, 693.4840389336459, -373.4776292750612, 587.4877943894826, -0.03200000151991844, 0.19200000911951065, 1.0400000493973494, 0.0, 0.0, 0.0, 0.0, 0.0, 1.7632260527917397E9, 0.0, 2025-11-15 12:00:52.791
45.0, -115.33477473352104, 469.40419318852946, -525.6204993724823, 464.6470404448919, -0.03200000151991844, 0.19200000911951065, 1.0400000493973494, 0.0, 0.0, 0.0, 0.0, 0.0, 1.7632260527917397E9, 0.0, 2025-11-15 12:00:52.791
46.0, -216.36817203648388, 363.0526581485756, -649.9759127991274, 353.13070356613025, -0.03200000151991844, 0.19200000911951065, 1.0400000493973494, 0.0, 0.0, 0.0, 0.0, 0.0, 1.7632260528216891E9, 0.0, 2025-11-15 12:00:52.821
46.0, -444.64979538181797, 589.5409994651563, -465.68486268259585, 513.9389218608849, -0.03200000151991844, 0.19200000911951065, 1.0400000493973494, 0.0, 0.0, 0.0, 0.0, 0.0, 1.7632260528216891E9, 0.0, 2025-11-15 12:00:52.821
47.0, -446.84885655576363, 615.234112160746, -400.80133835133165, 584.9297028197907, -0.03200000151991844, 0.19200000911951065, 1.0400000493973494, 0.0, 0.0, 0.0, 0.0, 0.0, 1.7632260528223684E9, 0.0, 2025-11-15 12:00:52.822
47.0, -212.82274687848985, 375.69725989876315, -626.149010181427, 377.4624926778488, -0.03200000151991844, 0.19200000911951065, 1.0400000493973494, 0.0, 0.0, 0.0, 0.0, 0.0, 1.7632260528223684E9, 0.0, 2025-11-15 12:00:52.822
48.0, -65.98679481819272, 503.53452018415555, -535.5723731545731, 451.1609612046741, -0.03200000151991844, 0.19200000911951065, 1.0400000493973494, 0.0, 0.0, 0.0, 0.0, 0.0, 1.7632260528231034E9, 0.0, 2025-11-15 12:00:52.823
48.0, 169.02477849740535, 725.4377441550605, -318.8563904222101, 639.5023229732178, -0.03200000151991844, 0.19200000911951065, 1.0400000493973494, 0.0, 0.0, 0.0, 0.0, 0.0, 1.7632260528231034E9, 0.0, 2025-11-15 12:00:52.823
49.0, 320.38039965415373, 923.153165162541, -74.32490176940337, 431.4741278379224, -0.03200000151991844, 0.19200000911951065, 1.0400000493973494, 0.0, 0.0, 0.0, 0.0, 0.0, 1.763226052835311E9, 0.0, 2025-11-15 12:00:52.835
49.0, 358.20200790604576, 936.4821686046198, -86.54689482459798, 418.74724828870967, -0.03200000151991844, 0.19200000911951065, 1.0400000493973494, 0.0, 0.0, 0.0, 0.0, 0.0, 1.763226052835311E9, 0.0, 2025-11-15 12:00:52.835
50.0, 181.11587505415082, 737.0912724169903, -331.4261941732839, 615.93347345246, -0.03200000151991844, 0.19200000911951065, 1.0240000486373901, 0.0, 0.0, 0.0, 0.0, 0.0, 1.7632260528510423E9, 0.0, 2025-11-15 12:00:52.851
50.0, -62.7704808562994, 536.4605993940495, -468.5496260486543, 508.4524886258878, -0.03200000151991844, 0.19200000911951065, 1.0240000486373901, 0.0, 0.0, 0.0, 0.0, 0.0, 1.7632260528510423E9, 0.0, 2025-11-15 12:00:52.851
51.0, -165.06796434428543, 429.4508419618942, -583.3159359889105, 417.7748743002303, -0.03200000151991844, 0.20800000987946987, 1.0240000486373901, 0.0, 0.0, 0.0, 0.0, 0.0, 1.7632260528517776E9, 0.0, 2025-11-15 12:00:52.851
51.0, -394.4977369760163, 657.6296180584468, -400.84621715079993, 562.5314419851638, -0.03200000151991844, 0.20800000987946987, 1.0240000486373901, 0.0, 0.0, 0.0, 0.0, 0.0, 1.7632260528517776E9, 0.0, 2025-11-15 12:00:52.851
52.0, -409.67425099620596, 663.5947584877722, -353.543962511234, 614.0934426742606, -0.03200000151991844, 0.20800000987946987, 1.0240000486373901, 0.0, 0.0, 0.0, 0.0, 0.0, 1.763226052865361E9, 0.0, 2025-11-15 12:00:52.865
52.0, -174.31673693470657, 427.3003994873725, -581.0794758154079, 405.5790605447255, -0.03200000151991844, 0.20800000987946987, 1.0240000486373901, 0.0, 0.0, 0.0, 0.0, 0.0, 1.763226052865361E9, 0.0, 2025-11-15 12:00:52.865
53.0, -53.62642546463758, 514.286732556764, -522.2022308129817, 467.1228542155586, -0.03200000151991844, 0.20800000987946987, 1.0240000486373901, 0.0, 0.0, 0.0, 0.0, 0.0, 1.7632260528813736E9, 0.0, 2025-11-15 12:00:52.881
53.0, 158.17158882599324, 719.1808915291913, -321.6650552889332, 645.433804302942, -0.03200000151991844, 0.20800000987946987, 1.0240000486373901, 0.0, 0.0, 0.0, 0.0, 0.0, 1.7632260528813736E9, 0.0, 2025-11-15 12:00:52.881
54.0, 282.9327813978307, 887.6353352833539, -106.09161199303344, 405.00311595154926, -0.03200000151991844, 0.20800000987946987, 1.0240000486373901, 0.0, 0.0, 0.0, 0.0, 0.0, 1.7632260528959856E9, 0.0, 2025-11-15 12:00:52.895
54.0, 255.08922622771934, 842.2292099213228, -175.44431677134708, 337.12393175577745, -0.03200000151991844, 0.20800000987946987, 1.0240000486373901, 0.0, 0.0, 0.0, 0.0, 0.0, 1.7632260528959856E9, 0.0, 2025-11-15 12:00:52.895
55.0, 85.71850698441267, 628.0320498091169, 57.61502876738086, 544.4789448990487, -0.03200000151991844, 0.20800000987946987, 1.0240000486373901, 0.0, 0.0, 0.0, 0.0, 0.0, 1.76322605289675E9, 0.0, 2025-11-15 12:00:52.896
55.0, 291.6430083946325, 388.44283894775435, -119.41687553515658, 404.2401763605885, -0.03200000151991844, 0.20800000987946987, 1.0240000486373901, 0.0, 0.0, 0.0, 0.0, 0.0, 1.76322605289675E9, 0.0, 2025-11-15 12:00:52.896
56.0, 161.80490163294598, 246.64453212777153, -271.1072177379392, 262.2473947429098, -0.03200000151991844, 0.20800000987946987, 1.0240000486373901, 0.0, 0.0, 0.0, 0.0, 0.0, 1.7632260529110367E9, 0.0, 2025-11-15 12:00:52.911
56.0, 397.5420155399479, 442.72374690463766, -110.50843384070322, 407.7257631192915, -0.03200000151991844, 0.20800000987946987, 1.0240000486373901, 0.0, 0.0, 0.0, 0.0, 0.0, 1.7632260529110367E9, 0.0, 2025-11-15 12:00:52.911
57.0, 400.8780063004233, 463.47271185880527, -59.82156974123791, 466.00462412880734, -0.03200000151991844, 0.20800000987946987, 1.0240000486373901, 0.0, 0.0, 0.0, 0.0, 0.0, 1.7632260529117603E9, 0.0, 2025-11-15 12:00:52.911
57.0, 594.7637697532773, 691.0138350129128, -303.2815770567395, 252.029988063965, -0.03200000151991844, 0.20800000987946987, 1.0240000486373901, 0.0, 0.0, 0.0, 0.0, 0.0, 1.7632260529117603E9, 0.0, 2025-11-15 12:00:52.911
58.0, 733.487878809683, 789.7172746434808, -242.34364717872813, 299.77729079825804, -0.03200000151991844, 0.20800000987946987, 1.0240000486373901, 0.0, 0.0, 0.0, 0.0, 0.0, 1.7632260529254065E9, 0.0, 2025-11-15 12:00:52.925
58.0, 963.0242385901511, 1004.7989210952073, -38.34332429571077, 476.89895269973204, -0.03200000151991844, 0.20800000987946987, 1.0240000486373901, 0.0, 0.0, 0.0, 0.0, 0.0, 1.7632260529254065E9, 0.0, 2025-11-15 12:00:52.925
59.0, 1106.2306177434511, 1191.283422535751, 195.80620208010077, 264.27816041884944, -0.03200000151991844, 0.20800000987946987, 1.0240000486373901, 0.0, 0.0, 0.0, 0.0, 0.0, 1.763226052940969E9, 0.0, 2025-11-15 12:00:52.940
59.0, 1122.2149501540698, 1188.1793055725284, 170.18414748366922, 239.25448981532827, -0.03200000151991844, 0.20800000987946987, 1.0240000486373901, 0.0, 0.0, 0.0, 0.0, 0.0, 1.763226052940969E9, 0.0, 2025-11-15 12:00:52.940
60.0, 943.9470089161769, 973.9223070610315, -74.16034617135301, 456.92040713643655, -0.03200000151991844, 0.20800000987946987, 1.0240000486373901, 0.0, 0.0, 0.0, 0.0, 0.0, 1.76322605294177E9, 0.0, 2025-11-15 12:00:52.941
60.0, 706.4596218299121, 780.1954893562943, -214.61228900728747, 343.27232728293166, -0.03200000151991844, 0.20800000987946987, 1.0240000486373901, 0.0, 0.0, 0.0, 0.0, 0.0, 1.76322605294177E9, 0.0, 2025-11-15 12:00:52.941
61.0, 607.0830002073199, 681.4995295256376, -322.571981028188, 244.46043055364862, -0.03200000151991844, 0.2400000113993883, 1.0240000486373901, 0.0, 0.0, 0.0, 0.0, 0.0, 1.76322605295532E9, 0.0, 2025-11-15 12:00:52.955
61.0, 364.35414333315566, 884.8827689159662, -161.34489393839613, 386.8758208663203, -0.03200000151991844, 0.2400000113993883, 1.0240000486373901, 0.0, 0.0, 0.0, 0.0, 0.0, 1.76322605295532E9, 0.0, 2025-11-15 12:00:52.955
62.0, 323.0207690228708, 879.7441463768482, -130.79365120036528, 412.07900666771457, -0.03200000151991844, 0.2400000113993883, 1.0240000486373901, 0.0, 0.0, 0.0, 0.0, 0.0, 1.763226052970962E9, 0.0, 2025-11-15 12:00:52.970
62.0, 99.13539807545021, 673.3465476222336, -328.469803258311, 247.83382031368092, -0.03200000151991844, 0.2400000113993883, 1.0240000486373901, 0.0, 0.0, 0.0, 0.0, 0.0, 1.763226052970962E9, 0.0, 2025-11-15 12:00:52.970
63.0, 230.6115810177289, 764.1400988465175, -266.3276255945675, 291.7178063937463, -0.03200000151991844, 0.2400000113993883, 1.0240000486373901, 0.0, 0.0, 0.0, 0.0, 0.0, 1.7632260529717531E9, 0.0, 2025-11-15 12:00:52.971
63.0, 431.57136523677036, 968.1329419296235, -76.33696794556454, 454.2987372674979, -0.03200000151991844, 0.2400000113993883, 1.0240000486373901, 0.0, 0.0, 0.0, 0.0, 0.0, 1.7632260529717531E9, 0.0, 2025-11-15 12:00:52.971
64.0, 621.1450240407139, 1194.2529031005688, -296.98732543131337, 277.75675985915586, -0.03200000151991844, 0.2400000113993883, 1.0240000486373901, 0.0, 0.0, 0.0, 0.0, 0.0, 1.7632260529853053E9, 0.0, 2025-11-15 12:00:52.985
64.0, 656.9246469167992, 1202.3572663045488, -315.7204843093641, 252.86024585412815, -0.03200000151991844, 0.2400000113993883, 1.0240000486373901, 0.0, 0.0, 0.0, 0.0, 0.0, 1.7632260529853053E9, 0.0, 2025-11-15 12:00:52.985
65.0, 447.121869252529, 967.7065933346748, -95.7283492158167, 438.7931120512076, -0.03200000151991844, 0.2400000113993883, 1.0240000486373901, 0.0, 0.0, 0.0, 0.0, 0.0, 1.763226053001027E9, 0.0, 2025-11-15 12:00:53.001
