%OpenBCI Raw EXG Data
%Number of channels = 4
%Sample Rate = 200 Hz
%Board = OpenBCI_GUI$BoardGanglionBLE
Sample Index, EXG Channel 0, EXG Channel 1, EXG Channel 2, EXG Channel 3, Accel Channel 0, Accel Channel 1, Accel Channel 2, Other, Other, Other, Other, Other, Timestamp, Marker Channel, Timestamp (Formatted)
88.0, 83.34741041250527, 62.153397363610566, 63.24170825071633, 64.63295103423297, 0.0, 0.0, 0.0, 0.0, 0.0, 0.0, 0.0, 0.0, 1.7632260410023038E9, 0.0, 2025-11-15 12:00:41.002
88.0, 268.67067291680723, 179.98268536757678, 227.5504729039967, 193.6520197056234, 0.0, 0.0, 0.0, 0.0, 0.0, 0.0, 0.0, 0.0, 1.7632260410023038E9, 0.0, 2025-11-15 12:00:41.002
0.0, 39.82245472818613, 100.30972666153684, 55.14856474660337, 82.84813376842067, 0.0, 0.0, 0.0, 0.0, 0.0, 0.0, 0.0, 0.0, 1.7632260410316503E9, 0.0, 2025-11-15 12:00:41.031
1.0, 241.6106267874129, 332.14425496477634, -179.6049554720521, -146.09732181904837, 0.0, 0.2240000106394291, 0.0, 0.0, 0.0, 0.0, 0.0, 0.0, 1.7632260410450287E9, 0.0, 2025-11-15 12:00:41.045
1.0, 255.35101922461763, 321.148949095048, -195.77628288045526, -157.7957288804464, 0.0, 0.2240000106394291, 0.0, 0.0, 0.0, 0.0, 0.0, 0.0, 1.7632260410450287E9, 0.0, 2025-11-15 12:00:41.045
2.0, 37.52989605534822, 77.00267013767734, 30.22587144188583, 62.46941890986636, -0.01600000075995922, 0.2240000106394291, 0.0, 0.0, 0.0, 0.0, 0.0, 0.0, 1.763226041061758E9, 0.0, 2025-11-15 12:00:41.061
2.0, -176.9758058032021, -98.30514028528705, -115.93689862638712, -83.06130806589499, -0.01600000075995922, 0.2240000106394291, 0.0, 0.0, 0.0, 0.0, 0.0, 0.0, 1.763226041061758E9, 0.0, 2025-11-15 12:00:41.061
3.0, -266.9839780367911, -191.2192147844471, -219.27033440209925, -175.42561727156863, -0.01600000075995922, 0.2240000106394291, 0.0, 0.0, 0.0, 0.0, 0.0, 0.0, 1.7632260410624795E9, 0.0, 2025-11-15 12:00:41.062
3.0, -25.3827009992674, 15.799207362812012, -31.912566321901977, 6.449457473587245, -0.01600000075995922, 0.2240000106394291, 0.0, 0.0, 0.0, 0.0, 0.0, 0.0, 1.7632260410624795E9, 0.0, 2025-11-15 12:00:41.062
4.0, -58.08438621181995, 7.485409761313349, -27.32744897622615, -10.103339730296284, -0.01600000075995922, 0.2240000106394291, 0.0, 0.0, 0.0, 0.0, 0.0, 0.0, 1.7632260410748696E9, 0.0, 2025-11-15 12:00:41.074
4.0, -262.85512848570943, -180.41090391250327, -207.87111933715641, -180.0630932166241, -0.01600000075995922, 0.2240000106394291, 0.0, 0.0, 0.0, 0.0, 0.0, 0.0, 1.7632260410748696E9, 0.0, 2025-11-15 12:00:41.074
5.0, -133.60792591702193, -68.4569987389259, -111.65097327716649, -69.51165052643046, -0.01600000075995922, 0.2240000106394291, 0.0, 0.0, 0.0, 0.0, 0.0, 0.0, 1.7632260410905457E9, 0.0, 2025-11-15 12:00:41.090
5.0, 58.570573206059635, 114.75322029041126, 69.30408607888967, 93.53302794182673, -0.01600000075995922, 0.2240000106394291, 0.0, 0.0, 0.0, 0.0, 0.0, 0.0, 1.7632260410905457E9, 0.0, 2025-11-15 12:00:41.090
6.0, 259.23677527857944, 350.19301215093583, -168.41891470458359, -145.62235452467576, -0.01600000075995922, 0.2240000106394291, 0.0, 0.0, 0.0, 0.0, 0.0, 0.0, 1.763226041091232E9, 0.0, 2025-11-15 12:00:41.091
6.0, 268.27611347148195, 341.2097724573687, -188.18802587036043, -158.19589817570522, -0.01600000075995922, 0.2240000106394291, 0.0, 0.0, 0.0, 0.0, 0.0, 0.0, 1.763226041091232E9, 0.0, 2025-11-15 12:00:41.091
7.0, 69.8463715724647, 117.53570585744455, -430.17264265334234, 86.64413222344592, -0.01600000075995922, 0.2240000106394291, 0.0, 0.0, 0.0, 0.0, 0.0, 0.0, 1.7632260411048808E9, 0.0, 2025-11-15 12:00:41.104
7.0, -166.36196972895414, -76.86055393936113, -591.3286716439761, -83.08374746562913, -0.01600000075995922, 0.2240000106394291, 0.0, 0.0, 0.0, 0.0, 0.0, 0.0, 1.7632260411048808E9, 0.0, 2025-11-15 12:00:41.104
8.0, -270.88469369057566, -187.84208512445912, -705.5863551902585, -178.85136563098058, -0.01600000075995922, 0.2240000106394291, 0.0, 0.0, 0.0, 0.0, 0.0, 0.0, 1.7632260411205535E9, 0.0, 2025-11-15 12:00:41.120
8.0, -44.7254635700956, 13.027941495645791, -529.9045547717251, -0.9106656392104924, -0.01600000075995922, 0.2240000106394291, 0.0, 0.0, 0.0, 0.0, 0.0, 0.0, 1.7632260411205535E9, 0.0, 2025-11-15 12:00:41.120
9.0, -65.70630232151598, 13.08777989493683, -512.9628079724498, -6.307341275271028, -0.01600000075995922, 0.2240000106394291, 0.0, 0.0, 0.0, 0.0, 0.0, 0.0, 1.7632260411212628E9, 0.0, 2025-11-15 12:00:41.121
9.0, -288.64173868019134, -199.42455528723076, -718.2646160400473, -195.50514013366774, -0.01600000075995922, 0.2240000106394291, 0.0, 0.0, 0.0, 0.0, 0.0, 0.0, 1.7632260411212628E9, 0.0, 2025-11-15 12:00:41.121
10.0, -172.99281235039234, -105.55680629936978, -641.8061013459228, -108.56368586374447, -0.01600000075995922, 0.2240000106394291, 0.5120000243186951, 0.0, 0.0, 0.0, 0.0, 0.0, 1.7632260411348815E9, 0.0, 2025-11-15 12:00:41.134
10.0, 34.29862249363214, 91.28908796841279, -446.7590989568271, 65.41646007495001, -0.01600000075995922, 0.2240000106394291, 0.5120000243186951, 0.0, 0.0, 0.0, 0.0, 0.0, 1.7632260411348815E9, 0.0, 2025-11-15 12:00:41.134
11.0, 236.8347745439969, 334.8930814322084, -679.3696565008722, -158.82420136826113, -0.01600000075995922, 0.1600000075995922, 0.5120000243186951, 0.0, 0.0, 0.0, 0.0, 0.0, 1.7632260411505146E9, 0.0, 2025-11-15 12:00:41.150
11.0, 242.82609427301213, 314.660222671926, -705.4741581915878, -173.19289699802175, -0.01600000075995922, 0.1600000075995922, 0.5120000243186951, 0.0, 0.0, 0.0, 0.0, 0.0, 1.7632260411505146E9, 0.0, 2025-11-15 12:00:41.150
12.0, 35.08026158437133, 87.81098100962117, -943.5094406213611, 61.08191602630541, -0.03200000151991844, 0.1600000075995922, 0.5120000243186951, 0.0, 0.0, 0.0, 0.0, 0.0, 1.7632260411512513E9, 0.0, 2025-11-15 12:00:41.151
12.0, -180.7942436579615, -88.67489789938554, -1094.1039921371266, -89.23214299278334, -0.03200000151991844, 0.1600000075995922, 0.5120000243186951, 0.0, 0.0, 0.0, 0.0, 0.0, 1.7632260411512513E9, 0.0, 2025-11-15 12:00:41.151
13.0, -271.6139741819352, -192.87225056486204, -1211.1927799498662, -189.10243140952662, -0.03200000151991844, 0.1600000075995922, 0.5120000243186951, 0.0, 0.0, 0.0, 0.0, 0.0, 1.7632260411649468E9, 0.0, 2025-11-15 12:00:41.164
13.0, -46.71509034652263, 2.084994225297123, -1032.1525493711233, -13.128918794449419, -0.03200000151991844, 0.1600000075995922, 0.5120000243186951, 0.0, 0.0, 0.0, 0.0, 0.0, 1.7632260411649468E9, 0.0, 2025-11-15 12:00:41.164
14.0, -55.85540583822876, 16.31157365674153, -1005.9171511819586, -6.101646777708083, -0.03200000151991844, 0.1600000075995922, 0.5120000243186951, 0.0, 0.0, 0.0, 0.0, 0.0, 1.7632260411805327E9, 0.0, 2025-11-15 12:00:41.180
14.0, -290.515428557992, -197.73412050725892, -1204.49087922927, -191.39125018240884, -0.03200000151991844, 0.1600000075995922, 0.5120000243186951, 0.0, 0.0, 0.0, 0.0, 0.0, 1.7632260411805327E9, 0.0, 2025-11-15 12:00:41.180
15.0, -170.7862713765353, -109.28922645514831, -1133.6609139684588, -106.57031918736175, -0.03200000151991844, 0.1600000075995922, 0.5120000243186951, 0.0, 0.0, 0.0, 0.0, 0.0, 1.763226041181236E9, 0.0, 2025-11-15 12:00:41.181
15.0, 17.173620596528053, 73.32634848123416, -954.5384055906907, 53.3403231180273, -0.03200000151991844, 0.1600000075995922, 0.5120000243186951, 0.0, 0.0, 0.0, 0.0, 0.0, 1.763226041181236E9, 0.0, 2025-11-15 12:00:41.181
16.0, 230.41336632007733, 313.2278409888968, -1182.1374971941113, -185.2914733546786, -0.03200000151991844, 0.1600000075995922, 0.5120000243186951, 0.0, 0.0, 0.0, 0.0, 0.0, 1.7632260411948843E9, 0.0, 2025-11-15 12:00:41.194
16.0, 235.17799886362627, 299.5772061506286, -1197.145715716295, -179.50584812322631, -0.03200000151991844, 0.1600000075995922, 0.5120000243186951, 0.0, 0.0, 0.0, 0.0, 0.0, 1.7632260411948843E9, 0.0, 2025-11-15 12:00:41.194
17.0, 30.730757935903966, 76.65859934175387, -954.5010065911338, 62.23754511261359, -0.03200000151991844, 0.1600000075995922, 0.5120000243186951, 0.0, 0.0, 0.0, 0.0, 0.0, 1.763226041210546E9, 0.0, 2025-11-15 12:00:41.210
17.0, -160.2995919007808, -76.23225074680522, -1086.4858159273863, -80.30874169850722, -0.03200000151991844, 0.1600000075995922, 0.5120000243186951, 0.0, 0.0, 0.0, 0.0, 0.0, 1.763226041210546E9, 0.0, 2025-11-15 12:00:41.210
18.0, -258.3111500395462, -185.26529405498877, -1190.5896710939705, -175.44431677134708, -0.03200000151991844, 0.1600000075995922, 0.5120000243186951, 0.0, 0.0, 0.0, 0.0, 0.0, 1.7632260412112179E9, 0.0, 2025-11-15 12:00:41.211
18.0, -41.31093491055071, 13.06908039515838, -1016.2953735589981, -0.15146594820544124, -0.03200000151991844, 0.1600000075995922, 0.5120000243186951, 0.0, 0.0, 0.0, 0.0, 0.0, 1.7632260412112179E9, 0.0, 2025-11-15 12:00:41.211
19.0, -22.97046552784741, 52.43152742879465, -968.5106718251482, 31.55914577608928, -0.03200000151991844, 0.1600000075995922, 0.5120000243186951, 0.0, 0.0, 0.0, 0.0, 0.0, 1.7632260412249043E9, 0.0, 2025-11-15 12:00:41.224
19.0, -263.1206613825634, -178.7690878319554, -1181.2885399041697, -163.9890032070689, -0.03200000151991844, 0.1600000075995922, 0.5120000243186951, 0.0, 0.0, 0.0, 0.0, 0.0, 1.7632260412249043E9, 0.0, 2025-11-15 12:00:41.224
20.0, -138.23044226225466, -77.11486713634804, -1098.068286090158, -84.06360125401989, -0.03200000151991844, 0.1600000075995922, 0.7680000364780426, 0.0, 0.0, 0.0, 0.0, 0.0, 1.763226041240544E9, 0.0, 2025-11-15 12:00:41.240
20.0, 97.44683324545622, 149.07054228382185, -876.5652314145118, 129.31639071786776, -0.03200000151991844, 0.1600000075995922, 0.7680000364780426, 0.0, 0.0, 0.0, 0.0, 0.0, 1.763226041240544E9, 0.0, 2025-11-15 12:00:41.240
21.0, 267.53935318021104, 357.4671175647527, -650.4901490430348, 346.6475869929418, -0.03200000151991844, 0.20800000987946987, 0.7680000364780426, 0.0, 0.0, 0.0, 0.0, 0.0, 1.7632260412412312E9, 0.0, 2025-11-15 12:00:41.241
21.0, 257.30698690144345, 336.55359701253474, -674.1973748621531, 338.5993222882971, -0.03200000151991844, 0.20800000987946987, 0.7680000364780426, 0.0, 0.0, 0.0, 0.0, 0.0, 1.7632260412412312E9, 0.0, 2025-11-15 12:00:41.241
22.0, 67.43039620108902, 119.26353963697329, -909.7344041215256, 96.61470550531521, -0.03200000151991844, 0.20800000987946987, 0.7680000364780426, 0.0, 0.0, 0.0, 0.0, 0.0, 1.763226041254876E9, 0.0, 2025-11-15 12:00:41.254
22.0, -137.44880317151546, -46.02881870465353, -1052.467685930431, -55.21027309587225, -0.03200000151991844, 0.20800000987946987, 0.7680000364780426, 0.0, 0.0, 0.0, 0.0, 0.0, 1.763226041254876E9, 0.0, 2025-11-15 12:00:41.254
23.0, -257.21909925248474, -175.9566830652766, -1180.6639766115695, -167.37361266696826, -0.03200000151991844, 0.20800000987946987, 0.7680000364780426, 0.0, 0.0, 0.0, 0.0, 0.0, 1.7632260412705235E9, 0.0, 2025-11-15 12:00:41.270
23.0, -17.416714093647897, 38.661215791944414, -984.6296406341717, 30.684009186457843, -0.03200000151991844, 0.20800000987946987, 0.7680000364780426, 0.0, 0.0, 0.0, 0.0, 0.0, 1.7632260412705235E9, 0.0, 2025-11-15 12:00:41.270
24.0, -6.133435927331448, 65.24442467698827, -948.5844848612323, 53.164547820109874, -0.03200000151991844, 0.20800000987946987, 0.7680000364780426, 0.0, 0.0, 0.0, 0.0, 0.0, 1.7632260412712336E9, 0.0, 2025-11-15 12:00:41.271
24.0, 230.02441672468558, -178.0285876407288, -1184.7142882635817, -176.05392046412453, -0.03200000151991844, 0.20800000987946987, 0.7680000364780426, 0.0, 0.0, 0.0, 0.0, 0.0, 1.7632260412712336E9, 0.0, 2025-11-15 12:00:41.271
25.0, 372.18175394041464, -57.929180363658816, -1076.369386547245, -58.318129959050566, -0.03200000151991844, 0.20800000987946987, 0.7680000364780426, 0.0, 0.0, 0.0, 0.0, 0.0, 1.763226041284898E9, 0.0, 2025-11-15 12:00:41.284
25.0, 555.9118190635927, 131.21625989535823, -893.7500717109069, 102.76684093242511, -0.03200000151991844, 0.20800000987946987, 0.7680000364780426, 0.0, 0.0, 0.0, 0.0, 0.0, 1.763226041284898E9, 0.0, 2025-11-15 12:00:41.284
26.0, 775.1428845161572, -110.97592133516446, -1117.2016142634675, -115.16086938558146, -0.03200000151991844, 0.20800000987946987, 0.7680000364780426, 0.0, 0.0, 0.0, 0.0, 0.0, 1.763226041300537E9, 0.0, 2025-11-15 12:00:41.300
26.0, 776.3097333023325, -143.76362424669787, -1154.0919874263927, -138.32954961108044, -0.03200000151991844, 0.20800000987946987, 0.7680000364780426, 0.0, 0.0, 0.0, 0.0, 0.0, 1.763226041300537E9, 0.0, 2025-11-15 12:00:41.300
27.0, 558.5073096328415, -371.2897878009826, -910.452464913018, 101.92162354243919, -0.03200000151991844, 0.20800000987946987, 0.7680000364780426, 0.0, 0.0, 0.0, 0.0, 0.0, 1.7632260413012233E9, 0.0, 2025-11-15 12:00:41.301
27.0, 337.7784142480232, -540.0340738017112, -1053.6906332159415, -56.721192677970976, -0.03200000151991844, 0.20800000987946987, 0.7680000364780426, 0.0, 0.0, 0.0, 0.0, 0.0, 1.7632260413012233E9, 0.0, 2025-11-15 12:00:41.301
28.0, 223.79748329846188, -671.4279789449647, -1184.0859850710258, -170.66846452793106, -0.03200000151991844, 0.20800000987946987, 0.7680000364780426, 0.0, 0.0, 0.0, 0.0, 0.0, 1.763226041331283E9, 0.0, 2025-11-15 12:00:41.331
28.0, 460.3012766963802, -470.83470492158085, -1005.4945424869657, 12.25378220481798, -0.03200000151991844, 0.20800000987946987, 0.7680000364780426, 0.0, 0.0, 0.0, 0.0, 0.0, 1.763226041331283E9, 0.0, 2025-11-15 12:00:41.331
29.0, 468.69735209690407, -438.97449719905853, -965.5000523608178, 30.964501683134586, -0.03200000151991844, 0.20800000987946987, 0.7680000364780426, 0.0, 0.0, 0.0, 0.0, 0.0, 1.7632260413319457E9, 0.0, 2025-11-15 12:00:41.331
29.0, 229.99075762508437, -663.6714264368638, -1178.9548423318192, -168.78355495026335, -0.03200000151991844, 0.20800000987946987, 0.7680000364780426, 0.0, 0.0, 0.0, 0.0, 0.0, 1.7632260413319457E9, 0.0, 2025-11-15 12:00:41.331
30.0, 352.8240317697637, -568.0795835694298, -1097.5409601964056, -79.69165820581838, -0.03200000151991844, 0.20800000987946987, 0.8960000425577164, 0.0, 0.0, 0.0, 0.0, 0.0, 1.7632260413326848E9, 0.0, 2025-11-15 12:00:41.332
30.0, 527.529718299862, -391.8517577573657, -924.7987211430445, 79.4261253089644, -0.03200000151991844, 0.20800000987946987, 0.8960000425577164, 0.0, 0.0, 0.0, 0.0, 0.0, 1.7632260413326848E9, 0.0, 2025-11-15 12:00:41.332
31.0, 729.4188676578924, -157.4292186847888, -1163.4866161150858, -156.41196589684114, -0.03200000151991844, 0.2400000113993883, 0.8960000425577164, 0.0, 0.0, 0.0, 0.0, 0.0, 1.763226041344989E9, 0.0, 2025-11-15 12:00:41.344
31.0, 768.837413190864, -144.20867234142497, -1152.2968354476616, -134.27549805911258, -0.03200000151991844, 0.2400000113993883, 0.8960000425577164, 0.0, 0.0, 0.0, 0.0, 0.0, 1.763226041344989E9, 0.0, 2025-11-15 12:00:41.344
32.0, 525.5887102228589, 85.39874553820118, -944.3097792118788, 70.51020381459966, -0.03200000151991844, 0.2400000113993883, 0.8960000425577164, 0.0, 0.0, 0.0, 0.0, 0.0, 1.7632260413605707E9, 0.0, 2025-11-15 12:00:41.360
32.0, 324.97673669969663, -75.80590215185657, -1083.7968278592452, -87.77732191001996, -0.03200000151991844, 0.2400000113993883, 0.8960000425577164, 0.0, 0.0, 0.0, 0.0, 0.0, 1.7632260413605707E9, 0.0, 2025-11-15 12:00:41.360
33.0, 243.0953670698218, -168.57038065278903, -1177.3990439502522, -161.97319713095203, -0.03200000151991844, 0.2400000113993883, 0.8960000425577164, 0.0, 0.0, 0.0, 0.0, 0.0, 1.7632260413612835E9, 0.0, 2025-11-15 12:00:41.361
33.0, 450.98518590675667, 12.448257002513856, -1015.1771434722468, 3.4350981093011796, -0.03200000151991844, 0.2400000113993883, 0.8960000425577164, 0.0, 0.0, 0.0, 0.0, 0.0, 1.7632260413612835E9, 0.0, 2025-11-15 12:00:41.361
34.0, 447.2378061511554, 29.730334697756916, -988.3807602897286, 8.023955354932696, -0.03200000151991844, 0.2400000113993883, 0.8960000425577164, 0.0, 0.0, 0.0, 0.0, 0.0, 1.7632260413748195E9, 0.0, 2025-11-15 12:00:41.374
34.0, 230.60036131786183, -174.48316248273477, -1179.029640330933, -170.32813363196328, -0.03200000151991844, 0.2400000113993883, 0.8960000425577164, 0.0, 0.0, 0.0, 0.0, 0.0, 1.7632260413748195E9, 0.0, 2025-11-15 12:00:41.374
35.0, 330.97927612857893, -97.61699869344011, -1119.497912836261, -101.79820684390143, -0.03200000151991844, 0.2400000113993883, 0.8960000425577164, 0.0, 0.0, 0.0, 0.0, 0.0, 1.7632260414069605E9, 0.0, 2025-11-15 12:00:41.406
35.0, 546.6181676737033, 107.10138498106971, -913.5565818762407, 88.71977669885382, -0.03200000151991844, 0.2400000113993883, 0.8960000425577164, 0.0, 0.0, 0.0, 0.0, 0.0, 1.7632260414069605E9, 0.0, 2025-11-15 12:00:41.406
36.0, 765.2845082329586, -124.3348439768888, -1137.060483028181, -134.74298555357382, -0.03200000151991844, 0.2400000113993883, 0.8960000425577164, 0.0, 0.0, 0.0, 0.0, 0.0, 1.763226041407657E9, 0.0, 2025-11-15 12:00:41.407
36.0, 748.6943120295182, -147.52596360212192, -1158.3143344763666, -141.17561347736046, -0.03200000151991844, 0.2400000113993883, 0.8960000425577164, 0.0, 0.0, 0.0, 0.0, 0.0, 1.763226041407657E9, 0.0, 2025-11-15 12:00:41.407
37.0, 536.6176751921885, -382.15793707221746, -921.9339577769861, 88.59262010036036, -0.03200000151991844, 0.2400000113993883, 0.8960000425577164, 0.0, 0.0, 0.0, 0.0, 0.0, 1.7632260414084556E9, 0.0, 2025-11-15 12:00:41.408
37.0, 351.34677128726617, -536.5896259425208, -1058.9975512530655, -64.16359358979389, -0.03200000151991844, 0.2400000113993883, 0.8960000425577164, 0.0, 0.0, 0.0, 0.0, 0.0, 1.7632260414084556E9, 0.0, 2025-11-15 12:00:41.408
38.0, 238.63740632263944, -659.0601297914982, -1177.6009985478595, -168.19265075726435, -0.03200000151991844, 0.2400000113993883, 0.8960000425577164, 0.0, 0.0, 0.0, 0.0, 0.0, 1.7632260414091456E9, 0.0, 2025-11-15 12:00:41.409
38.0, 464.9761516409926, -460.83421244006604, -995.8979592006654, 14.30324738053605, -0.03200000151991844, 0.2400000113993883, 0.8960000425577164, 0.0, 0.0, 0.0, 0.0, 0.0, 1.7632260414091456E9, 0.0, 2025-11-15 12:00:41.409
39.0, 466.70398542052135, -436.8838931238279, -962.3248772984371, 34.599684440065175, -0.03200000151991844, 0.2400000113993883, 0.8960000425577164, 0.0, 0.0, 0.0, 0.0, 0.0, 1.7632260414199088E9, 0.0, 2025-11-15 12:00:41.419
39.0, 229.0894417357631, -651.3110570833087, -1170.491448732093, -159.92747185518965, -0.03200000151991844, 0.2400000113993883, 0.8960000425577164, 0.0, 0.0, 0.0, 0.0, 0.0, 1.7632260414199088E9, 0.0, 2025-11-15 12:00:41.419
40.0, 348.76624031784013, -561.0149125531316, -1091.4898020680994, -77.52625613147393, -0.03200000151991844, 0.2400000113993883, 0.944000044837594, 0.0, 0.0, 0.0, 0.0, 0.0, 1.7632260414348607E9, 0.0, 2025-11-15 12:00:41.434
40.0, 554.0194296860136, -364.93195787630975, -899.3374822447076, 101.64861084567383, -0.03200000151991844, 0.2400000113993883, 0.944000044837594, 0.0, 0.0, 0.0, 0.0, 0.0, 1.7632260414348607E9, 0.0, 2025-11-15 12:00:41.434
41.0, 758.5900873122737, -131.28357809456065, -1132.3968277834356, -126.41796825220808, -0.03200000151991844, 0.25600001215934753, 0.944000044837594, 0.0, 0.0, 0.0, 0.0, 0.0, 1.7632260414505467E9, 0.0, 2025-11-15 12:00:41.450
41.0, 751.2748429989442, -144.7135588354431, -1156.5640612971038, -144.4181067389436, -0.03200000151991844, 0.25600001215934753, 0.944000044837594, 0.0, 0.0, 0.0, 0.0, 0.0, 1.7632260414505467E9, 0.0, 2025-11-15 12:00:41.450
42.0, 551.2107648192905, -372.66981088463217, -1399.6332490672357, 99.4719890714623, -0.03200000151991844, 0.25600001215934753, 0.944000044837594, 0.0, 0.0, 0.0, 0.0, 0.0, 1.7632260414512696E9, 0.0, 2025-11-15 12:00:41.451
42.0, 359.61569008929655, -539.7535813050345, -1550.6504092779942, -56.95306647522375, -0.03200000151991844, 0.25600001215934753, 0.944000044837594, 0.0, 0.0, 0.0, 0.0, 0.0, 1.7632260414512696E9, 0.0, 2025-11-15 12:00:41.451
43.0, 233.93261217838153, -657.0181444156915, -1667.3315479955636, -152.7169447406195, -0.03200000151991844, 0.25600001215934753, 0.944000044837594, 0.0, 0.0, 0.0, 0.0, 0.0, 1.7632260414649346E9, 0.0, 2025-11-15 12:00:41.464
43.0, 459.0184910115786, -464.043046602048, -1497.2184586110525, -0.7461100411601365, -0.03200000151991844, 0.25600001215934753, 0.944000044837594, 0.0, 0.0, 0.0, 0.0, 0.0, 1.7632260414649346E9, 0.0, 2025-11-15 12:00:41.464
44.0, 473.66393923806027, -430.3203687015921, -1443.9847226417623, 51.32451704191044, -0.03200000151991844, 0.25600001215934753, 0.944000044837594, 0.0, 0.0, 0.0, 0.0, 0.0, 1.7632260414805388E9, 0.0, 2025-11-15 12:00:41.480
44.0, 240.29418200301006, -644.3099643662572, -1642.3452763915993, -107.2921198788099, -0.03200000151991844, 0.25600001215934753, 0.944000044837594, 0.0, 0.0, 0.0, 0.0, 0.0, 1.7632260414805388E9, 0.0, 2025-11-15 12:00:41.480
45.0, 342.71508218953386, -564.0928502166644, -1582.914526195731, -101.52893404709175, -0.03200000151991844, 0.25600001215934753, 0.944000044837594, 0.0, 0.0, 0.0, 0.0, 0.0, 1.7632260414812424E9, 0.0, 2025-11-15 12:00:41.481
45.0, 550.698398525361, -370.1117193149403, -1392.2095476551913, 89.46027689008042, -0.03200000151991844, 0.25600001215934753, 0.944000044837594, 0.0, 0.0, 0.0, 0.0, 0.0, 1.7632260414812424E9, 0.0, 2025-11-15 12:00:41.481
46.0, 760.3366205915809, -126.81065774755552, -1620.9268693453632, -134.16330106044188, -0.03200000151991844, 0.25600001215934753, 0.944000044837594, 0.0, 0.0, 0.0, 0.0, 0.0, 1.763226041494946E9, 0.0, 2025-11-15 12:00:41.494
46.0, 761.3389137797058, -136.0818697377108, -1635.2020674762316, -135.80137724103406, -0.03200000151991844, 0.25600001215934753, 0.944000044837594, 0.0, 0.0, 0.0, 0.0, 0.0, 1.763226041494946E9, 0.0, 2025-11-15 12:00:41.494
47.0, 564.6295258603059, -361.15091902110726, -1393.417535340879, 100.21996906260028, -0.03200000151991844, 0.25600001215934753, 0.944000044837594, 0.0, 0.0, 0.0, 0.0, 0.0, 1.7632260415105405E9, 0.0, 2025-11-15 12:00:41.510
47.0, 361.0405919724144, -523.5972134964541, -1532.549293492455, -53.890088411513716, -0.03200000151991844, 0.25600001215934753, 0.944000044837594, 0.0, 0.0, 0.0, 0.0, 0.0, 1.7632260415105405E9, 0.0, 2025-11-15 12:00:41.510
48.0, 245.93021123623475, -645.5441313516349, -1653.1274079638533, -151.56131565431133, -0.03200000151991844, 0.25600001215934753, 0.944000044837594, 0.0, 0.0, 0.0, 0.0, 0.0, 1.7632260415112503E9, 0.0, 2025-11-15 12:00:41.511
48.0, 472.7327041490935, -447.53512819763273, -1482.6590280835517, 22.886317778844386, -0.03200000151991844, 0.25600001215934753, 0.944000044837594, 0.0, 0.0, 0.0, 0.0, 0.0, 1.7632260415112503E9, 0.0, 2025-11-15 12:00:41.511
49.0, 471.6817922615446, -426.8684410424903, -1448.3641454898752, 32.9242092599161, -0.03200000151991844, 0.25600001215934753, 0.944000044837594, 0.0, 0.0, 0.0, 0.0, 0.0, 1.7632260415249045E9, 0.0, 2025-11-15 12:00:41.524
49.0, 713.419575647451, -665.6423537135124, -1669.8933794652112, -181.48425519978628, -0.03200000151991844, 0.25600001215934753, 0.944000044837594, 0.0, 0.0, 0.0, 0.0, 0.0, 1.7632260415249045E9, 0.0, 2025-11-15 12:00:41.524
50.0, 846.4141579717398, -560.0761976642534, -1578.415426549036, -80.98566359048709, -0.03200000151991844, 0.25600001215934753, 0.9760000463575125, 0.0, 0.0, 0.0, 0.0, 0.0, 1.7632260415405927E9, 0.0, 2025-11-15 12:00:41.540
50.0, 1042.3175974506885, -366.67849115561694, -1390.2012213789858, 81.46811068477109, -0.03200000151991844, 0.25600001215934753, 0.9760000463575125, 0.0, 0.0, 0.0, 0.0, 0.0, 1.7632260415405927E9, 0.0, 2025-11-15 12:00:41.540
51.0, 1213.4198903734796, -166.44611747795716, -1163.8755657104775, 319.4211153155193, -0.03200000151991844, 0.27200001291930676, 0.9760000463575125, 0.0, 0.0, 0.0, 0.0, 0.0, 1.763226041541247E9, 0.0, 2025-11-15 12:00:41.541
51.0, 1220.1741496934555, -174.00445528840646, -1186.4982205424458, 314.79111917037517, -0.03200000151991844, 0.27200001291930676, 0.9760000463575125, 0.0, 0.0, 0.0, 0.0, 0.0, 1.763226041541247E9, 0.0, 2025-11-15 12:00:41.541
52.0, 1042.5906101474538, -386.76549381762743, -1417.925099750515, 73.6853788769804, -0.03200000151991844, 0.27200001291930676, 0.9760000463575125, 0.0, 0.0, 0.0, 0.0, 0.0, 1.7632260415548952E9, 0.0, 2025-11-15 12:00:41.554
52.0, 802.3356970939785, -584.5127039747313, -1589.825861313846, -101.73088864469901, -0.03200000151991844, 0.27200001291930676, 0.9760000463575125, 0.0, 0.0, 0.0, 0.0, 0.0, 1.7632260415548952E9, 0.0, 2025-11-15 12:00:41.554
53.0, 670.556582255289, -712.4659011587501, -1718.2203666926362, -205.0792840202339, -0.03200000151991844, 0.27200001291930676, 0.9760000463575125, 0.0, 0.0, 0.0, 0.0, 0.0, 1.76322604157065E9, 0.0, 2025-11-15 12:00:41.570
53.0, 436.1078638830222, -497.9714190000668, -1521.8830988188274, -13.50290879001841, -0.03200000151991844, 0.27200001291930676, 0.9760000463575125, 0.0, 0.0, 0.0, 0.0, 0.0, 1.76322604157065E9, 0.0, 2025-11-15 12:00:41.570
54.0, 420.61345836659893, -488.50947211217135, -1498.5536028952338, -3.734290105756372, -0.03200000151991844, 0.27200001291930676, 0.9760000463575125, 0.0, 0.0, 0.0, 0.0, 0.0, 1.763226041571248E9, 0.0, 2025-11-15 12:00:41.571
54.0, 183.89649067120627, -715.3867630241439, -1715.9876464190893, -203.3364906408824, -0.03200000151991844, 0.27200001291930676, 0.9760000463575125, 0.0, 0.0, 0.0, 0.0, 0.0, 1.763226041571248E9, 0.0, 2025-11-15 12:00:41.571
55.0, 299.73615189874545, -616.7319420929998, -1637.6891009467654, -121.74683320755139, -0.03200000151991844, 0.27200001291930676, 0.9760000463575125, 0.0, 0.0, 0.0, 0.0, 0.0, 1.7632260415848796E9, 0.0, 2025-11-15 12:00:41.584
55.0, 531.12376215728, -394.7875792225823, -1421.3471082099713, 73.47220457950607, -0.03200000151991844, 0.27200001291930676, 0.9760000463575125, 0.0, 0.0, 0.0, 0.0, 0.0, 1.7632260415848796E9, 0.0, 2025-11-15 12:00:41.584
56.0, 687.0009223604575, -205.84222361119464, -1210.194226661697, 291.648618244566, -0.03200000151991844, 0.27200001291930676, 0.9760000463575125, 0.0, 0.0, 0.0, 0.0, 0.0, 1.7632260416006184E9, 0.0, 2025-11-15 12:00:41.600
56.0, 710.3790369834751, -211.72134634153917, -1220.4826914398, 292.7743281312287, -0.03200000151991844, 0.27200001291930676, 0.9760000463575125, 0.0, 0.0, 0.0, 0.0, 0.0, 1.7632260416006184E9, 0.0, 2025-11-15 12:00:41.600
57.0, 556.8393142526038, -389.1178908897564, -1423.1086010891013, 80.67899179412052, -0.03200000151991844, 0.27200001291930676, 0.9760000463575125, 0.0, 0.0, 0.0, 0.0, 0.0, 1.763226041601252E9, 0.0, 2025-11-15 12:00:41.601
57.0, 318.7161441738717, -580.1968594258651, -1583.359574290458, -71.76681019971147, -0.03200000151991844, 0.27200001291930676, 0.9760000463575125, 0.0, 0.0, 0.0, 0.0, 0.0, 1.763226041601252E9, 0.0, 2025-11-15 12:00:41.601
58.0, 185.3326122541912, -716.3927961122245, -1720.827076961752, -202.58851064974442, -0.03200000151991844, 0.27200001291930676, 0.9760000463575125, 0.0, 0.0, 0.0, 0.0, 0.0, 1.7632260416149487E9, 0.0, 2025-11-15 12:00:41.614
58.0, -54.60253935307264, -496.69611311517656, -1530.6008056155406, -21.715729092713445, -0.03200000151991844, 0.27200001291930676, 0.9760000463575125, 0.0, 0.0, 0.0, 0.0, 0.0, 1.7632260416149487E9, 0.0, 2025-11-15 12:00:41.614
59.0, -57.2129895221442, -478.2920654332265, -1492.2219522702508, 8.027695254888386, -0.03200000151991844, 0.27200001291930676, 0.9760000463575125, 0.0, 0.0, 0.0, 0.0, 0.0, 1.7632260416305788E9, 0.0, 2025-11-15 12:00:41.630
59.0, 180.26878771418706, -718.6666552852839, -1715.2134871282615, -191.7016618787311, -0.03200000151991844, 0.27200001291930676, 0.9760000463575125, 0.0, 0.0, 0.0, 0.0, 0.0, 1.7632260416305788E9, 0.0, 2025-11-15 12:00:41.630
60.0, 332.9090645057149, -599.917351892218, -1614.524160621222, -104.70784900942817, -0.03200000151991844, 0.27200001291930676, 0.9920000471174717, 0.0, 0.0, 0.0, 0.0, 0.0, 1.7632260416312487E9, 0.0, 2025-11-15 12:00:41.631
60.0, 554.0194296860136, -378.72096901293844, -1400.0483779623173, 92.30260085640475, -0.03200000151991844, 0.27200001291930676, 0.9920000471174717, 0.0, 0.0, 0.0, 0.0, 0.0, 1.7632260416312487E9, 0.0, 2025-11-15 12:00:41.631
61.0, 732.8072170177475, -157.67231218190864, -1158.9201982691884, -130.98812599806115, -0.03200000151991844, 0.27200001291930676, 0.9920000471174717, 0.0, 0.0, 0.0, 0.0, 0.0, 1.7632260416448972E9, 0.0, 2025-11-15 12:00:41.644
61.0, 724.1082097208127, -198.02209280384704, -1205.2351193204522, -166.49847607733682, -0.03200000151991844, 0.27200001291930676, 0.9920000471174717, 0.0, 0.0, 0.0, 0.0, 0.0, 1.7632260416448972E9, 0.0, 2025-11-15 12:00:41.644
62.0, 556.6149202552624, -398.9650474730879, -1428.6025141240098, 78.16951892385259, -0.03200000151991844, 0.27200001291930676, 0.9920000471174717, 0.0, 0.0, 0.0, 0.0, 0.0, 1.76322604166053E9, 0.0, 2025-11-15 12:00:41.660
62.0, 791.1346967266873, -592.7442237772048, -1595.8508401424624, -85.63809913536534, -0.03200000151991844, 0.27200001291930676, 0.9920000471174717, 0.0, 0.0, 0.0, 0.0, 0.0, 1.76322604166053E9, 0.0, 2025-11-15 12:00:41.660
63.0, 697.173450239934, -703.9800681592897, -1701.4506552913226, -176.15863766288385, -0.03200000151991844, 0.27200001291930676, 0.9920000471174717, 0.0, 0.0, 0.0, 0.0, 0.0, 1.7632260416612225E9, 0.0, 2025-11-15 12:00:41.661
63.0, 462.36944137187675, -474.35021087992936, -1499.3165424861945, 17.97956903697923, -0.03200000151991844, 0.27200001291930676, 0.9920000471174717, 0.0, 0.0, 0.0, 0.0, 0.0, 1.7632260416612225E9, 0.0, 2025-11-15 12:00:41.661
64.0, 446.3851089612581, -468.72166144661605, -1485.175980753731, 20.604978805873543, -0.03200000151991844, 0.27200001291930676, 0.9920000471174717, 0.0, 0.0, 0.0, 0.0, 0.0, 1.763226041674906E9, 0.0, 2025-11-15 12:00:41.674
64.0, 679.8128346456215, -710.091064686887, -1715.8791893203743, -196.45881462236866, -0.03200000151991844, 0.27200001291930676, 0.9920000471174717, 0.0, 0.0, 0.0, 0.0, 0.0, 1.763226041674906E9, 0.0, 2025-11-15 12:00:41.674
65.0, 808.7234462182969, -609.8954049739987, -1625.2651532939635, -103.36896482529119, -0.03200000151991844, 0.27200001291930676, 0.9920000471174717, 0.0, 0.0, 0.0, 0.0, 0.0, 1.76322604169053E9, 0.0, 2025-11-15 12:00:41.690
65.0, 1045.096343117766, -382.46086896862835, -1406.6268619843759, 101.30454004975036, -0.03200000151991844, 0.27200001291930676, 0.9920000471174717, 0.0, 0.0, 0.0, 0.0, 0.0, 1.76322604169053E9, 0.0, 2025-11-15 12:00:41.690
66.0, 1191.6536726313643, -195.95766802830622, -1198.5219988999888, 315.4156824629754, -0.03200000151991844, 0.27200001291930676, 0.9920000471174717, 0.0, 0.0, 0.0, 0.0, 0.0, 1.763226041691232E9, 0.0, 2025-11-15 12:00:41.691
66.0, 1228.405669495929, -179.82747951941565, -1191.3974894843996, 341.856775149703, -0.03200000151991844, 0.27200001291930676, 0.9920000471174717, 0.0, 0.0, 0.0, 0.0, 0.0, 1.763226041691232E9, 0.0, 2025-11-15 12:00:41.691
67.0, 1019.769740617834, -422.1262478986755, -959.9799600262195, 547.7607071101665, -0.03200000151991844, 0.27200001291930676, 0.9920000471174717, 0.0, 0.0, 0.0, 0.0, 0.0, 1.7632260417048657E9, 0.0, 2025-11-15 12:00:41.704
67.0, 819.6551737887785, -586.3415150530636, -1097.4811217971146, 417.380314854905, -0.03200000151991844, 0.27200001291930676, 0.9920000471174717, 0.0, 0.0, 0.0, 0.0, 0.0, 1.7632260417048657E9, 0.0, 2025-11-15 12:00:41.704
68.0, 682.038075119257, -720.2785521661863, -1232.2858156999573, 288.7314962791279, -0.03200000151991844, 0.27200001291930676, 0.9920000471174717, 0.0, 0.0, 0.0, 0.0, 0.0, 1.763226041720554E9, 0.0, 2025-11-15 12:00:41.720
68.0, 452.1557745928876, -501.5430234577507, -1039.0713642891496, 475.0682716714218, -0.03200000151991844, 0.27200001291930676, 0.9920000471174717, 0.0, 0.0, 0.0, 0.0, 0.0, 1.763226041720554E9, 0.0, 2025-11-15 12:00:41.720
69.0, 435.8984294855036, -495.9107341244817, -1021.3442384991795, 476.8896029498428, -0.03200000151991844, 0.27200001291930676, 0.9920000471174717, 0.0, 0.0, 0.0, 0.0, 0.0, 1.7632260417212584E9, 0.0, 2025-11-15 12:00:41.721
69.0, 206.86695619905367, -708.6624229038134, -1219.300883053802, 296.6563442852348, -0.03200000151991844, 0.27200001291930676, 0.9920000471174717, 0.0, 0.0, 0.0, 0.0, 0.0, 1.7632260417212584E9, 0.0, 2025-11-15 12:00:41.721
70.0, 307.5749822058715, -616.163477299735, -1141.0135572813451, 385.142377236858, -0.03200000151991844, 0.27200001291930676, 0.9920000471174717, 0.0, 0.0, 0.0, 0.0, 0.0, 1.7632260417349484E9, 0.0, 2025-11-15 12:00:41.734
70.0, 550.4852242278866, -392.1098108543083, -928.7480554962531, 578.6373211443424, -0.03200000151991844, 0.27200001291930676, 0.9920000471174717, 0.0, 0.0, 0.0, 0.0, 0.0, 1.7632260417349484E9, 0.0, 2025-11-15 12:00:41.734
71.0, 730.5071785449982, -189.19966880837455, -706.8354817754589, 814.776474296581, -0.03200000151991844, 0.27200001291930676, 0.9920000471174717, 0.0, 0.0, 0.0, 0.0, 0.0, 1.7632260417505283E9, 0.0, 2025-11-15 12:00:41.750
71.0, 691.8927115024999, -231.5353363067843, -747.3685174952261, 780.1823997064494, -0.03200000151991844, 0.27200001291930676, 0.9920000471174717, 0.0, 0.0, 0.0, 0.0, 0.0, 1.7632260417505283E9, 0.0, 2025-11-15 12:00:41.750
72.0, 547.489564363379, -404.4888797076419, -949.6802755482495, 560.5436851587147, -0.03200000151991844, 0.27200001291930676, 0.9920000471174717, 0.0, 0.0, 0.0, 0.0, 0.0, 1.763226041751232E9, 0.0, 2025-11-15 12:00:41.751
72.0, 309.48233118327335, -601.0056627793238, -1114.9950732896104, 390.8793837688863, -0.03200000151991844, 0.27200001291930676, 0.9920000471174717, 0.0, 0.0, 0.0, 0.0, 0.0, 1.763226041751232E9, 0.0, 2025-11-15 12:00:41.751
73.0, 181.45433600014076, -732.7810377180576, -1244.6424451535568, 282.313827955164, -0.03200000151991844, 0.27200001291930676, 0.9920000471174717, 0.0, 0.0, 0.0, 0.0, 0.0, 1.7632260417649324E9, 0.0, 2025-11-15 12:00:41.764
73.0, -62.542346959002316, -510.6459399498999, -1046.9139344962314, 468.06343905441463, -0.03200000151991844, 0.27200001291930676, 0.9920000471174717, 0.0, 0.0, 0.0, 0.0, 0.0, 1.7632260417649324E9, 0.0, 2025-11-15 12:00:41.764
74.0, -34.22756439447403, -475.8648703619838, -999.4807833582163, 506.3861939003691, -0.03200000151991844, 0.27200001291930676, 0.9920000471174717, 0.0, 0.0, 0.0, 0.0, 0.0, 1.763226041780534E9, 0.0, 2025-11-15 12:00:41.780
74.0, 175.20496317418292, -244.89425894850865, -1241.7028837883845, 272.0253631770611, -0.03200000151991844, 0.27200001291930676, 0.9920000471174717, 0.0, 0.0, 0.0, 0.0, 0.0, 1.763226041780534E9, 0.0, 2025-11-15 12:00:41.780
75.0, 294.54143086029217, -143.2699574525468, -1155.8347808057442, 366.89540535304695, -0.03200000151991844, 0.27200001291930676, 0.9920000471174717, 0.0, 0.0, 0.0, 0.0, 0.0, 1.7632260417812307E9, 0.0, 2025-11-15 12:00:41.781
75.0, 530.0653704698198, 81.03802218986675, -948.2441539652646, 557.8285177908838, -0.03200000151991844, 0.27200001291930676, 0.9920000471174717, 0.0, 0.0, 0.0, 0.0, 0.0, 1.7632260417812307E9, 0.0, 2025-11-15 12:00:41.781
76.0, 701.0517264939845, 292.79302763100713, -707.9163128626533, 321.72115378826857, -0.03200000151991844, 0.27200001291930676, 0.9920000471174717, 0.0, 0.0, 0.0, 0.0, 0.0, 1.7632260417948875E9, 0.0, 2025-11-15 12:00:41.794
76.0, 710.2892793845385, 277.9082258073613, -723.3882789793424, 310.5874716201797, -0.03200000151991844, 0.27200001291930676, 0.9920000471174717, 0.0, 0.0, 0.0, 0.0, 0.0, 1.7632260417948875E9, 0.0, 2025-11-15 12:00:41.794
77.0, 542.713712119963, 88.47294330177829, -945.9628149922937, 552.7198144514114, -0.03200000151991844, 0.27200001291930676, 0.9920000471174717, 0.0, 0.0, 0.0, 0.0, 0.0, 1.7632260418105495E9, 0.0, 2025-11-15 12:00:41.810
77.0, 318.8657401720993, -94.67743732826784, -1100.9779282556847, 402.3833160325885, -0.03200000151991844, 0.27200001291930676, 0.9920000471174717, 0.0, 0.0, 0.0, 0.0, 0.0, 1.7632260418105495E9, 0.0, 2025-11-15 12:00:41.810
78.0, 188.32453221874312, -228.96228513726965, -1238.5576279256493, 281.6593454629183, -0.03200000151991844, 0.27200001291930676, 0.9920000471174717, 0.0, 0.0, 0.0, 0.0, 0.0, 1.763226041811231E9, 0.0, 2025-11-15 12:00:41.811
78.0, -33.00087720900774, 2.5487418198026717, -1031.6888017766178, 482.7874251799658, -0.03200000151991844, 0.27200001291930676, 0.9920000471174717, 0.0, 0.0, 0.0, 0.0, 0.0, 1.763226041811231E9, 0.0, 2025-11-15 12:00:41.811
79.0, -30.61482103727758, 27.90526351938024, -985.5571358231828, 513.6752589140087, -0.03200000151991844, 0.27200001291930676, 0.9920000471174717, 0.0, 0.0, 0.0, 0.0, 0.0, 1.7632260418249967E9, 0.0, 2025-11-15 12:00:41.824
79.0, 172.8787454017438, 245.76752558816224, -754.5117264105938, 271.0604689884931, -0.03200000151991844, 0.27200001291930676, 0.9920000471174717, 0.0, 0.0, 0.0, 0.0, 0.0, 1.7632260418249967E9, 0.0, 2025-11-15 12:00:41.824
80.0, 317.75124998530373, 370.1341587146744, -645.6881174999289, 387.20306211244315, -0.03200000151991844, 0.27200001291930676, 1.008000047877431, 0.0, 0.0, 0.0, 0.0, 0.0, 1.7632260418405871E9, 0.0, 2025-11-15 12:00:41.840
80.0, 77.56552508100867, 610.1347585711628, -413.94521674560383, 593.1556127723306, -0.03200000151991844, 0.27200001291930676, 1.008000047877431, 0.0, 0.0, 0.0, 0.0, 0.0, 1.7632260418405871E9, 0.0, 2025-11-15 12:00:41.840
81.0, 214.91896080365404, 784.5431230547838, -213.07332017552108, 805.393065307755, -0.03200000151991844, 0.27200001291930676, 1.008000047877431, 0.0, 0.0, 0.0, 0.0, 0.0, 1.763226041841286E9, 0.0, 2025-11-15 12:00:41.841
81.0, 229.500830730889, 775.5898025608622, -233.4408153342083, 787.4639849201776, -0.03200000151991844, 0.27200001291930676, 1.008000047877431, 0.0, 0.0, 0.0, 0.0, 0.0, 1.763226041841286E9, 0.0, 2025-11-15 12:00:41.841
82.0, 81.52607913408428, 598.6794450068846, -437.0764979715459, 571.4567132294178, -0.03200000151991844, 0.27200001291930676, 1.008000047877431, 0.0, 0.0, 0.0, 0.0, 0.0, 1.7632260418549714E9, 0.0, 2025-11-15 12:00:41.854
82.0, -160.98399359267205, 410.8579293321818, -598.2961052614264, 415.07279658224434, -0.03200000151991844, 0.27200001291930676, 1.008000047877431, 0.0, 0.0, 0.0, 0.0, 0.0, 1.7632260418549714E9, 0.0, 2025-11-15 12:00:41.854
83.0, -308.1415770491585, 255.6782604707405, -743.2060088445432, 282.62797955144197, -0.03200000151991844, 0.27200001291930676, 1.008000047877431, 0.0, 0.0, 0.0, 0.0, 0.0, 1.763226041870589E9, 0.0, 2025-11-15 12:00:41.870
83.0, -533.5135582289658, 481.66171529330313, -544.0488564041443, 467.05740596633404, -0.03200000151991844, 0.27200001291930676, 1.008000047877431, 0.0, 0.0, 0.0, 0.0, 0.0, 1.763226041870589E9, 0.0, 2025-11-15 12:00:41.870
84.0, -511.440668690484, 526.2525424649939, -491.4060246278532, 514.6177137028426, -0.03200000151991844, 0.27200001291930676, 1.008000047877431, 0.0, 0.0, 0.0, 0.0, 0.0, 1.7632260418712893E9, 0.0, 2025-11-15 12:00:41.871
84.0, -306.01731387432665, 756.7332269842736, -247.64495536591858, 290.3284335602075, -0.03200000151991844, 0.27200001291930676, 1.008000047877431, 0.0, 0.0, 0.0, 0.0, 0.0, 1.7632260418712893E9, 0.0, 2025-11-15 12:00:41.871
85.0, -181.4225468505174, 854.4156739269383, -162.61832987330854, 376.27507444191724, -0.03200000151991844, 0.27200001291930676, 1.008000047877431, 0.0, 0.0, 0.0, 0.0, 0.0, 1.7632260418848877E9, 0.0, 2025-11-15 12:00:41.884
85.0, -417.75243490049616, 1099.1435073274188, 75.17946890927851, 588.9482253221795, -0.03200000151991844, 0.27200001291930676, 1.008000047877431, 0.0, 0.0, 0.0, 0.0, 0.0, 1.7632260418848877E9, 0.0, 2025-11-15 12:00:41.884
86.0, -274.9537048423663, 1281.5066390167922, 286.1116963601671, 818.5462934519164, -0.03200000151991844, 0.27200001291930676, 1.008000047877431, 0.0, 0.0, 0.0, 0.0, 0.0, 1.763226041900598E9, 0.0, 2025-11-15 12:00:41.900
86.0, -262.7167521873489, 1274.6925412975252, 268.08537857374176, 805.1237925109453, -0.03200000151991844, 0.27200001291930676, 1.008000047877431, 0.0, 0.0, 0.0, 0.0, 0.0, 1.763226041900598E9, 0.0, 2025-11-15 12:00:41.900
87.0, -430.38207705086097, 1079.5613911594264, 46.464517049491405, 1048.2883477299474, -0.03200000151991844, 0.27200001291930676, 1.008000047877431, 0.0, 0.0, 0.0, 0.0, 0.0, 1.7632260419012792E9, 0.0, 2025-11-15 12:00:41.901
87.0, -665.3487715669908, 891.4369435883127, -111.31812218111008, 890.2626150022261, -0.03200000151991844, 0.27200001291930676, 1.008000047877431, 0.0, 0.0, 0.0, 0.0, 0.0, 1.7632260419012792E9, 0.0, 2025-11-15 12:00:41.901
88.0, -802.8910722373985, 746.1717495094053, -263.4983912780881, 764.6954739899375, -0.03200000151991844, 0.27200001291930676, 1.008000047877431, 0.0, 0.0, 0.0, 0.0, 0.0, 1.7632260419148664E9, 0.0, 2025-11-15 12:00:41.914
88.0, -1021.7743269940838, 981.1945425248705, -53.20007686968893, 960.6924109677784, -0.03200000151991844, 0.27200001291930676, 1.008000047877431, 0.0, 0.0, 0.0, 0.0, 0.0, 1.7632260419148664E9, 0.0, 2025-11-15 12:00:41.914
89.0, -998.1194597743452, 1027.5468625756912, 6.84401691891253, 1012.4301869547926, -0.03200000151991844, 0.27200001291930676, 1.008000047877431, 0.0, 0.0, 0.0, 0.0, 0.0, 1.7632260419306488E9, 0.0, 2025-11-15 12:00:41.930
89.0, -806.7057701922022, 1231.8220681054518, 231.65501310536638, 1250.7459618812427, -0.03200000151991844, 0.27200001291930676, 1.008000047877431, 0.0, 0.0, 0.0, 0.0, 0.0, 1.7632260419306488E9, 0.0, 2025-11-15 12:00:41.930
90.0, -667.5366130410694, 1342.208955197595, 321.4313115417026, 1342.1902556978166, -0.03200000151991844, 0.27200001291930676, 1.008000047877431, 0.0, 0.0, 0.0, 0.0, 0.0, 1.7632260419312987E9, 0.0, 2025-11-15 12:00:41.931
90.0, -891.3116569397971, 1115.2362968367524, 87.2630856661126, 1580.9155496694148, -0.03200000151991844, 0.27200001291930676, 1.008000047877431, 0.0, 0.0, 0.0, 0.0, 0.0, 1.7632260419312987E9, 0.0, 2025-11-15 12:00:41.931
91.0, -762.8891023113392, 1289.5362042216584, 292.1142357890494, 1793.975780195091, -0.03200000151991844, 0.27200001291930676, 1.008000047877431, 0.0, 0.0, 0.0, 0.0, 0.0, 1.763226041944866E9, 0.0, 2025-11-15 12:00:41.944
91.0, -757.9748737695627, 1265.2343343095854, 257.7370753963478, 1776.4431292028166, -0.03200000151991844, 0.27200001291930676, 1.008000047877431, 0.0, 0.0, 0.0, 0.0, 0.0, 1.763226041944866E9, 0.0, 2025-11-15 12:00:41.944
92.0, -911.1181671051309, 1078.3421837738715, 43.59601378347725, 1545.4762576892972, -0.03200000151991844, 0.27200001291930676, 1.008000047877431, 0.0, 0.0, 0.0, 0.0, 0.0, 1.7632260419606583E9, 0.0, 2025-11-15 12:00:41.960
92.0, -677.985893517267, 874.162345692981, -127.90831838455051, 1372.4236069396138, -0.03200000151991844, 0.27200001291930676, 1.008000047877431, 0.0, 0.0, 0.0, 0.0, 0.0, 1.7632260419606583E9, 0.0, 2025-11-15 12:00:41.960
93.0, -804.9442773130722, 739.1631769924425, -265.1215078588575, 1254.1268314411864, -0.03200000151991844, 0.27200001291930676, 1.008000047877431, 0.0, 0.0, 0.0, 0.0, 0.0, 1.763226041961332E9, 0.0, 2025-11-15 12:00:41.961
93.0, -1033.3306178571656, 964.5856468216516, -62.8452788554132, 1451.0849227076396, -0.03200000151991844, 0.27200001291930676, 1.008000047877431, 0.0, 0.0, 0.0, 0.0, 0.0, 1.763226041961332E9, 0.0, 2025-11-15 12:00:41.961
94.0, -993.7587364260107, 1024.558682511095, 3.653882256709039, 1499.5802054330707, -0.03200000151991844, 0.27200001291930676, 1.008000047877431, 0.0, 0.0, 0.0, 0.0, 0.0, 1.7632260419748456E9, 0.0, 2025-11-15 12:00:41.974
94.0, -821.7139887143858, 1223.0594825092703, 221.61712162429467, 1734.660966897849, -0.03200000151991844, 0.27200001291930676, 1.008000047877431, 0.0, 0.0, 0.0, 0.0, 0.0, 1.7632260419748456E9, 0.0, 2025-11-15 12:00:41.974
95.0, -667.7834464381449, 1349.5391591107473, 330.0181218399666, 1840.7955877403729, -0.03200000151991844, 0.27200001291930676, 1.008000047877431, 0.0, 0.0, 0.0, 0.0, 0.0, 1.7632260419905682E9, 0.0, 2025-11-15 12:00:41.990
95.0, -907.6363202463835, 1586.6188971018419, 554.1727655841969, 2045.9777190093882, -0.03200000151991844, 0.27200001291930676, 1.008000047877431, 0.0, 0.0, 0.0, 0.0, 0.0, 1.7632260419905682E9, 0.0, 2025-11-15 12:00:41.990
96.0, -764.8263704883866, 1776.3571115038358, 778.4003373775631, 2281.342712870799, -0.03200000151991844, 0.27200001291930676, 1.008000047877431, 0.0, 0.0, 0.0, 0.0, 0.0, 1.7632260419912875E9, 0.0, 2025-11-15 12:00:41.991
96.0, -769.187093836721, 1757.1714247311465, 748.1183674363419, 2263.854940677993, -0.03200000151991844, 0.27200001291930676, 1.008000047877431, 0.0, 0.0, 0.0, 0.0, 0.0, 1.7632260419912875E9, 0.0, 2025-11-15 12:00:41.991
97.0, -907.6699793459848, 1581.1997820660472, 545.1558667910285, 2039.2197197894566, -0.03200000151991844, 0.27200001291930676, 1.008000047877431, 0.0, 0.0, 0.0, 0.0, 0.0, 1.7632260420212874E9, 0.0, 2025-11-15 12:00:42.021
97.0, -681.2919650780968, 1365.306577323936, 360.6366827771999, 1856.7051221518777, -0.03200000151991844, 0.27200001291930676, 1.008000047877431, 0.0, 0.0, 0.0, 0.0, 0.0, 1.7632260420212874E9, 0.0, 2025-11-15 12:00:42.021
98.0, -790.2950891866349, 1236.8671931456774, 232.47031129570678, 1747.8740334413014, -0.03200000151991844, 0.27200001291930676, 1.008000047877431, 0.0, 0.0, 0.0, 0.0, 0.0, 1.7632260420219564E9, 0.0, 2025-11-15 12:00:42.021
98.0, -1020.5700792083517, 1466.4596514254808, 436.57909127743915, 1945.2061147033237, -0.03200000151991844, 0.27200001291930676, 1.008000047877431, 0.0, 0.0, 0.0, 0.0, 0.0, 1.7632260420219564E9, 0.0, 2025-11-15 12:00:42.021
99.0, -1012.847185799852, 1507.0113866450265, 493.145078107249, 1988.222443993669, -0.03200000151991844, 0.27200001291930676, 1.008000047877431, 0.0, 0.0, 0.0, 0.0, 0.0, 1.7632260420226903E9, 0.0, 2025-11-15 12:00:42.022
99.0, -811.9042311306112, 1727.70101308031, 725.4770131045952, 1745.3757802709006, -0.03200000151991844, 0.27200001291930676, 1.008000047877431, 0.0, 0.0, 0.0, 0.0, 0.0, 1.7632260420226903E9, 0.0, 2025-11-15 12:00:42.022
100.0, -645.53104170179, 1847.643344559241, 826.4580518081784, 1845.19744998822, -0.03200000151991844, 0.27200001291930676, 1.008000047877431, 0.0, 0.0, 0.0, 0.0, 0.0, 1.7632260420355997E9, 0.0, 2025-11-15 12:00:42.035
100.0, -424.39075732184574, 2074.913324966561, 1048.6006293762475, 2058.7494773580693, -0.03200000151991844, 0.27200001291930676, 1.008000047877431, 0.0, 0.0, 0.0, 0.0, 0.0, 1.7632260420355997E9, 0.0, 2025-11-15 12:00:42.035
0.0, -275.4193223868497, -190.89571343827993, -206.71736020082608, -173.5481874938123, -0.03200000151991844, 0.27200001291930676, 1.008000047877431, 0.0, 0.0, 0.0, 0.0, 0.0, 1.7632260420362685E9, 0.0, 2025-11-15 12:00:42.036
1.0, -280.5504651260562, -218.08852601610124, -239.5050631123595, -193.56787195662037, -0.03200000151991844, 0.27200001291930676, 1.008000047877431, 0.0, 0.0, 0.0, 0.0, 0.0, 1.7632260420499032E9, 0.0, 2025-11-15 12:00:42.049
1.0, -413.29260420333594, -375.73839879827574, -433.52172306366265, -406.7889181803912, -0.03200000151991844, 0.27200001291930676, 1.008000047877431, 0.0, 0.0, 0.0, 0.0, 0.0, 1.7632260420499032E9, 0.0, 2025-11-15 12:00:42.049
2.0, -643.1805145796388, -565.7290564472787, -592.6357666784897, -558.886909478344, -0.03200000151991844, 0.27200001291930676, 1.008000047877431, 0.0, 0.0, 0.0, 0.0, 0.0, 1.7632260420655415E9, 0.0, 2025-11-15 12:00:42.065
2.0, -787.230241172947, -717.3221612512134, -747.490064243786, -699.5183675121516, -0.03200000151991844, 0.27200001291930676, 1.008000047877431, 0.0, 0.0, 0.0, 0.0, 0.0, 1.7632260420655415E9, 0.0, 2025-11-15 12:00:42.065
3.0, -1015.7549580154009, -488.1074328669347, -541.350518586114, -499.2018460854888, -0.03200000151991844, 0.27200001291930676, 1.008000047877431, 0.0, 0.0, 0.0, 0.0, 0.0, 1.7632260420662572E9, 0.0, 2025-11-15 12:00:42.066
3.0, -971.0444540451281, -432.38292352715507, -474.2267941813916, -449.79028787091374, -0.03200000151991844, 0.27200001291930676, 1.008000047877431, 0.0, 0.0, 0.0, 0.0, 0.0, 1.7632260420662572E9, 0.0, 2025-11-15 12:00:42.066
4.0, -802.3506566938013, -218.45503621175885, -244.22855675639585, -681.1105799302459, -0.03200000151991844, 0.27200001291930676, 1.008000047877431, 0.0, 0.0, 0.0, 0.0, 0.0, 1.7632260420799196E9, 0.0, 2025-11-15 12:00:42.079
4.0, -666.7007454009727, -118.25937649887055, -165.82155418535694, -610.759321863763, -0.03200000151991844, 0.27200001291930676, 1.008000047877431, 0.0, 0.0, 0.0, 0.0, 0.0, 1.7632260420799196E9, 0.0, 2025-11-15 12:00:42.079
5.0, -882.8725726897828, -349.83959160512313, -408.50927216000855, -389.8845703806728, -0.03200000151991844, 0.27200001291930676, 1.008000047877431, 0.0, 0.0, 0.0, 0.0, 0.0, 1.7632260420955515E9, 0.0, 2025-11-15 12:00:42.095
5.0, -749.4385521207005, -173.84176964033395, -197.46110781049356, -169.63625214016065, -0.03200000151991844, 0.27200001291930676, 1.008000047877431, 0.0, 0.0, 0.0, 0.0, 0.0, 1.7632260420955515E9, 0.0, 2025-11-15 12:00:42.095
6.0, -758.7770823100582, -198.23339715134352, -227.6084413533099, -181.48799509974197, -0.03200000151991844, 0.27200001291930676, 1.008000047877431, 0.0, 0.0, 0.0, 0.0, 0.0, 1.763226042096254E9, 0.0, 2025-11-15 12:00:42.096
6.0, -909.2613067771308, -380.40953384293243, -436.56600162759423, -411.32541682664305, -0.03200000151991844, 0.27200001291930676, 1.008000047877431, 0.0, 0.0, 0.0, 0.0, 0.0, 1.763226042096254E9, 0.0, 2025-11-15 12:00:42.096
7.0, -1126.5008755032904, -555.7884023650549, -580.0809225272387, -551.7063015634194, -0.03200000151991844, 0.27200001291930676, 1.008000047877431, 0.0, 0.0, 0.0, 0.0, 0.0, 1.763226042109907E9, 0.0, 2025-11-15 12:00:42.109
7.0, -1276.3063081284054, -711.1924652238376, -735.9075940810144, -693.3662320850417, -0.03200000151991844, 0.27200001291930676, 1.008000047877431, 0.0, 0.0, 0.0, 0.0, 0.0, 1.763226042109907E9, 0.0, 2025-11-15 12:00:42.109
8.0, -1512.9802669743076, -489.6931504481472, -542.5024077724665, -504.48632472287863, -0.03200000151991844, 0.27200001291930676, 1.008000047877431, 0.0, 0.0, 0.0, 0.0, 0.0, 1.7632260421255512E9, 0.0, 2025-11-15 12:00:42.125
8.0, -1467.6115406118333, -428.2204148764722, -469.1068711420521, -450.27647486515343, -0.03200000151991844, 0.27200001291930676, 1.008000047877431, 0.0, 0.0, 0.0, 0.0, 0.0, 1.7632260421255512E9, 0.0, 2025-11-15 12:00:42.125
9.0, -1263.1979587837122, -200.14448602870107, -233.74187728064135, -687.0383213600144, -0.03200000151991844, 0.27200001291930676, 1.008000047877431, 0.0, 0.0, 0.0, 0.0, 0.0, 1.7632260421262672E9, 0.0, 2025-11-15 12:00:42.126
9.0, -1139.6129647479393, -97.70862624235451, -143.3784145512618, -593.6417997665703, -0.03200000151991844, 0.27200001291930676, 1.008000047877431, 0.0, 0.0, 0.0, 0.0, 0.0, 1.7632260421262672E9, 0.0, 2025-11-15 12:00:42.126
10.0, -1363.0775969503447, -339.45014952821657, 91.3938051671721, -379.71952230110765, -0.03200000151991844, 0.27200001291930676, 1.008000047877431, 0.0, 0.0, 0.0, 0.0, 0.0, 1.7632260421399145E9, 0.0, 2025-11-15 12:00:42.139
10.0, -1220.0095940954052, -155.69203515537083, 312.80149239394814, -148.3861405919306, -0.03200000151991844, 0.27200001291930676, 1.008000047877431, 0.0, 0.0, 0.0, 0.0, 0.0, 1.7632260421399145E9, 0.0, 2025-11-15 12:00:42.139
11.0, -1248.473972658161, -200.03976882994175, 264.6876794639975, -181.45433600014076, -0.03200000151991844, 0.27200001291930676, 1.008000047877431, 0.0, 0.0, 0.0, 0.0, 0.0, 1.7632260421555803E9, 0.0, 2025-11-15 12:00:42.155
11.0, -1393.105253694579, -377.7242856747471, 60.68922653095797, -407.3835622733459, -0.03200000151991844, 0.27200001291930676, 1.008000047877431, 0.0, 0.0, 0.0, 0.0, 0.0, 1.7632260421555803E9, 0.0, 2025-11-15 12:00:42.155
12.0, -1608.8600821383297, -548.080468556378, -87.16023841733113, -558.3184446850792, -0.03200000151991844, 0.27200001291930676, 1.008000047877431, 0.0, 0.0, 0.0, 0.0, 0.0, 1.7632260421562455E9, 0.0, 2025-11-15 12:00:42.156
12.0, -1743.9789276374504, -691.5505106565543, -223.8236625981517, -677.0340889785439, -0.03200000151991844, 0.27200001291930676, 1.008000047877431, 0.0, 0.0, 0.0, 0.0, 0.0, 1.7632260421562455E9, 0.0, 2025-11-15 12:00:42.156
13.0, -1502.2392743015662, -483.42133822245523, -41.503539758268744, -506.1393605032936, -0.03200000151991844, 0.27200001291930676, 1.008000047877431, 0.0, 0.0, 0.0, 0.0, 0.0, 1.7632260421699004E9, 0.0, 2025-11-15 12:00:42.169
13.0, -1473.1914713457227, -433.64326981222257, 17.47842244291678, -462.2927734227851, -0.03200000151991844, 0.27200001291930676, 1.008000047877431, 0.0, 0.0, 0.0, 0.0, 0.0, 1.7632260421699004E9, 0.0, 2025-11-15 12:00:42.169
14.0, -1258.3921873406507, -191.69605202879757, -212.4132278333418, -673.5821613194421, -0.03200000151991844, 0.27200001291930676, 1.008000047877431, 0.0, 0.0, 0.0, 0.0, 0.0, 1.7632260421855452E9, 0.0, 2025-11-15 12:00:42.185
14.0, -1131.463722744491, -97.67122724279761, -134.79908405290917, -595.9455781392753, -0.03200000151991844, 0.27200001291930676, 1.008000047877431, 0.0, 0.0, 0.0, 0.0, 0.0, 1.7632260421855452E9, 0.0, 2025-11-15 12:00:42.185
15.0, -1348.7126412205398, -320.92268514772877, -367.3591529475525, -836.9204219342209, -0.03200000151991844, 0.27200001291930676, 1.008000047877431, 0.0, 0.0, 0.0, 0.0, 0.0, 1.7632260421862447E9, 0.0, 2025-11-15 12:00:42.186
15.0, -1224.6582897403277, -153.24988048430532, -172.49353570630774, -637.9371748417616, -0.03200000151991844, 0.27200001291930676, 1.008000047877431, 0.0, 0.0, 0.0, 0.0, 0.0, 1.7632260421862447E9, 0.0, 2025-11-15 12:00:42.186
16.0, -1225.2417141334154, -175.3078104229644, -203.72918013622984, -656.7862706184387, -0.03200000151991844, 0.27200001291930676, 1.008000047877431, 0.0, 0.0, 0.0, 0.0, 0.0, 1.7632260421999068E9, 0.0, 2025-11-15 12:00:42.199
16.0, -1376.7731105880812, -365.2965981219895, -422.14494739845395, -893.9800755581819, -0.03200000151991844, 0.27200001291930676, 1.008000047877431, 0.0, 0.0, 0.0, 0.0, 0.0, 1.7632260421999068E9, 0.0, 2025-11-15 12:00:42.199
17.0, -1589.681875165552, -535.9818921997212, -559.0252857767045, -1029.9665778470226, -0.03200000151991844, 0.27200001291930676, 1.008000047877431, 0.0, 0.0, 0.0, 0.0, 0.0, 1.7632260422155504E9, 0.0, 2025-11-15 12:00:42.215
17.0, -1755.3295240029693, -698.2524113771506, -721.6697949497029, -1169.3414294957183, -0.03200000151991844, 0.27200001291930676, 1.008000047877431, 0.0, 0.0, 0.0, 0.0, 0.0, 1.7632260422155504E9, 0.0, 2025-11-15 12:00:42.215
18.0, -1992.9160184380598, -481.67480494314805, -530.1008995193988, -983.7301946948282, -0.03200000151991844, 0.27200001291930676, 1.008000047877431, 0.0, 0.0, 0.0, 0.0, 0.0, 1.7632260422162497E9, 0.0, 2025-11-15 12:00:42.216
18.0, -1926.7684079217725, -403.2902417718433, -437.1307265209034, -901.781506865751, -0.03200000151991844, 0.27200001291930676, 1.008000047877431, 0.0, 0.0, 0.0, 0.0, 0.0, 1.7632260422162497E9, 0.0, 2025-11-15 12:00:42.216
19.0, -1739.3489314923063, -182.61557493638247, -197.83135790610686, -1141.6250309241004, -0.03200000151991844, 0.27200001291930676, 1.008000047877431, 0.0, 0.0, 0.0, 0.0, 0.0, 1.7632260422299144E9, 0.0, 2025-11-15 12:00:42.229
19.0, -1647.1304783849046, -116.69609831739217, -149.9419389734976, -1089.5581437409855, -0.03200000151991844, 0.27200001291930676, 1.008000047877431, 0.0, 0.0, 0.0, 0.0, 0.0, 1.7632260422299144E9, 0.0, 2025-11-15 12:00:42.229
20.0, -1845.3844449860044, -333.05492060398683, -373.53372777439654, -857.3028766927309, -0.03200000151991844, 0.27200001291930676, 1.008000047877431, 0.0, 0.0, 0.0, 0.0, 0.0, 1.7632260422456007E9, 0.0, 2025-11-15 12:00:42.245
20.0, -1707.6196202682331, -144.1432240922004, -162.70247762231156, -632.469441106543, -0.03200000151991844, 0.27200001291930676, 1.008000047877431, 0.0, 0.0, 0.0, 0.0, 0.0, 1.7632260422456007E9, 0.0, 2025-11-15 12:00:42.245
21.0, -1712.8853994058445, -173.55005744379014, -203.54218513844535, -657.0069247158244, -0.03200000151991844, 0.27200001291930676, 1.008000047877431, 0.0, 0.0, 0.0, 0.0, 0.0, 1.7632260422463055E9, 0.0, 2025-11-15 12:00:42.246
21.0, -1867.9697008184157, -353.53461276134476, -411.9350205194205, -886.9789828411303, -0.03200000151991844, 0.27200001291930676, 1.008000047877431, 0.0, 0.0, 0.0, 0.0, 0.0, 1.7632260422463055E9, 0.0, 2025-11-15 12:00:42.246
22.0, -2082.8680921723135, -538.1398144741543, -559.1113034756854, -1032.9734574113972, -0.03200000151991844, 0.27200001291930676, 1.008000047877431, 0.0, 0.0, 0.0, 0.0, 0.0, 1.7632260422598877E9, 0.0, 2025-11-15 12:00:42.259
22.0, -2236.3161873542704, -692.1301951496862, -711.9610146647319, -1159.4830532125197, -0.03200000151991844, 0.27200001291930676, 1.008000047877431, 0.0, 0.0, 0.0, 0.0, 0.0, 1.7632260422598877E9, 0.0, 2025-11-15 12:00:42.259
23.0, -1998.1780576757155, -482.30310813570395, -526.2076636655256, -984.3023993880488, -0.03200000151991844, 0.27200001291930676, 1.008000047877431, 0.0, 0.0, 0.0, 0.0, 0.0, 1.763226042275672E9, 0.0, 2025-11-15 12:00:42.275
23.0, -1942.7340408326127, -406.140045538079, -443.26790234819055, -909.403422975447, -0.03200000151991844, 0.27200001291930676, 1.008000047877431, 0.0, 0.0, 0.0, 0.0, 0.0, 1.763226042275672E9, 0.0, 2025-11-15 12:00:42.275
24.0, -1748.6687621818855, -190.37960724439472, -209.5671639670618, -1153.52165268315, -0.03200000151991844, 0.27200001291930676, 1.008000047877431, 0.0, 0.0, 0.0, 0.0, 0.0, 1.7632260422763069E9, 0.0, 2025-11-15 12:00:42.276
24.0, -1631.0152494758368, -106.93495943304151, -142.5294572613202, -1092.0414373115636, -0.03200000151991844, 0.27200001291930676, 1.008000047877431, 0.0, 0.0, 0.0, 0.0, 0.0, 1.7632260422763069E9, 0.0, 2025-11-15 12:00:42.276
25.0, -1837.4745565797202, -319.59502066345885, -370.01448191609234, -851.0011452673934, -0.03200000151991844, 0.27200001291930676, 1.008000047877431, 0.0, 0.0, 0.0, 0.0, 0.0, 1.7632260422898762E9, 0.0, 2025-11-15 12:00:42.289
25.0, -1719.0001358333975, -160.46414749883115, -174.42332408344373, -642.937421082519, -0.03200000151991844, 0.27200001291930676, 1.008000047877431, 0.0, 0.0, 0.0, 0.0, 0.0, 1.7632260422898762E9, 0.0, 2025-11-15 12:00:42.289
26.0, -1730.8780580926687, -191.74093082826585, -212.92559412727132, -672.5499489316717, -0.03200000151991844, 0.27200001291930676, 1.008000047877431, 0.0, 0.0, 0.0, 0.0, 0.0, 1.7632260423056056E9, 0.0, 2025-11-15 12:00:42.305
26.0, -1876.7509859143756, -365.9398609143682, -423.9363594772294, -888.4151044241153, -0.03200000151991844, 0.27200001291930676, 1.008000047877431, 0.0, 0.0, 0.0, 0.0, 0.0, 1.7632260423056056E9, 0.0, 2025-11-15 12:00:42.305
27.0, -2074.333640473429, -518.1163901113905, -541.133604388684, -1007.8974282084964, -0.03200000151991844, 0.27200001291930676, 1.008000047877431, 0.0, 0.0, 0.0, 0.0, 0.0, 1.7632260423063257E9, 0.0, 2025-11-15 12:00:42.306
27.0, -2226.947737965267, -684.7364129372872, -704.6644698511809, -1154.8081782679074, -0.03200000151991844, 0.27200001291930676, 1.008000047877431, 0.0, 0.0, 0.0, 0.0, 0.0, 1.7632260423063257E9, 0.0, 2025-11-15 12:00:42.306
28.0, -2002.1236521289684, -481.2447164482437, -522.8230542056262, -969.8813451589085, -0.03200000151991844, 0.27200001291930676, 1.008000047877431, 0.0, 0.0, 0.0, 0.0, 0.0, 1.763226042319906E9, 0.0, 2025-11-15 12:00:42.319
28.0, -1951.750939625781, -415.5421540266834, -444.4272713344544, -918.7830920643173, -0.03200000151991844, 0.27200001291930676, 1.008000047877431, 0.0, 0.0, 0.0, 0.0, 0.0, 1.763226042319906E9, 0.0, 2025-11-15 12:00:42.319
29.0, -1770.6668537212536, -207.19419744517654, -222.8625083095394, -694.1852701753378, -0.03200000151991844, 0.27200001291930676, 1.008000047877431, 0.0, 0.0, 0.0, 0.0, 0.0, 1.7632260423356009E9, 0.0, 2025-11-15 12:00:42.335
29.0, -1643.929124022834, -104.50402446184307, -138.65118100726977, -595.5566285438836, -0.03200000151991844, 0.27200001291930676, 1.008000047877431, 0.0, 0.0, 0.0, 0.0, 0.0, 1.7632260423356009E9, 0.0, 2025-11-15 12:00:42.335
30.0, -1851.5851991125382, -328.2154900613241, -378.7060094131157, -366.0539278630167, -0.03200000151991844, 0.27200001291930676, 1.008000047877431, 0.0, 0.0, 0.0, 0.0, 0.0, 1.7632260423363082E9, 0.0, 2025-11-15 12:00:42.336
30.0, -1703.905899612233, -142.35181201342493, -153.67435912927613, -130.49445920391008, -0.03200000151991844, 0.27200001291930676, 1.008000047877431, 0.0, 0.0, 0.0, 0.0, 0.0, 1.7632260423363082E9, 0.0, 2025-11-15 12:00:42.336
31.0, -1740.1642296826467, -206.48361645359546, -230.19645212264732, -197.26663301279768, -0.03200000151991844, 0.25600001215934753, 1.008000047877431, 0.0, 0.0, 0.0, 0.0, 0.0, 1.7632260423498623E9, 0.0, 2025-11-15 12:00:42.349
31.0, -1867.2628597267903, -365.02732532517985, -423.99245797656476, -402.58527063019574, -0.03200000151991844, 0.25600001215934753, 1.008000047877431, 0.0, 0.0, 0.0, 0.0, 0.0, 1.7632260423498623E9, 0.0, 2025-11-15 12:00:42.349
32.0, -2091.110831674654, -549.9317190344445, -573.2892642077059, -550.9957205718383, -0.03200000151991844, 0.25600001215934753, 1.008000047877431, 0.0, 0.0, 0.0, 0.0, 0.0, 1.763226042381936E9, 0.0, 2025-11-15 12:00:42.381
32.0, -2246.7243289309554, -694.4489331222139, -707.8807838130742, -663.5405299384147, -0.03200000151991844, 0.25600001215934753, 1.008000047877431, 0.0, 0.0, 0.0, 0.0, 0.0, 1.763226042381936E9, 0.0, 2025-11-15 12:00:42.381
33.0, -2017.8536713426001, -498.9980215379037, -545.9767748313025, -523.4737967979163, -0.03200000151991844, 0.25600001215934753, 1.008000047877431, 0.0, 0.0, 0.0, 0.0, 0.0, 1.7632260423826373E9, 0.0, 2025-11-15 12:00:42.382
33.0, -1925.074233241845, -385.30132298497483, -421.3857477074489, -412.81015710905194, -0.03200000151991844, 0.25600001215934753, 1.008000047877431, 0.0, 0.0, 0.0, 0.0, 0.0, 1.7632260423826373E9, 0.0, 2025-11-15 12:00:42.382
34.0, -1747.9095624908805, -192.3879335206002, -212.55534403165802, -184.12462456850335, -0.03200000151991844, 0.25600001215934753, 1.008000047877431, 0.0, 0.0, 0.0, 0.0, 0.0, 1.763226042383375E9, 0.0, 2025-11-15 12:00:42.383
34.0, -1636.838273706846, -110.62998058926314, -140.2331586885266, -105.71388209750876, -0.03200000151991844, 0.25600001215934753, 1.008000047877431, 0.0, 0.0, 0.0, 0.0, 0.0, 1.763226042383375E9, 0.0, 2025-11-15 12:00:42.383
35.0, -1837.5717939785682, -327.239376172889, -373.9114576699212, 130.80113100027665, -0.03200000151991844, 0.25600001215934753, 1.008000047877431, 0.0, 0.0, 0.0, 0.0, 0.0, 1.7632260423841481E9, 0.0, 2025-11-15 12:00:42.384
35.0, -1719.7331562247127, -155.39658305887133, -175.86318556638435, 339.87836807314306, -0.03200000151991844, 0.25600001215934753, 1.008000047877431, 0.0, 0.0, 0.0, 0.0, 0.0, 1.7632260423841481E9, 0.0, 2025-11-15 12:00:42.384
36.0, -1741.4096163678914, -202.6876179985702, -225.32336248038337, 312.3975831987336, -0.03200000151991844, 0.25600001215934753, 1.008000047877431, 0.0, 0.0, 0.0, 0.0, 0.0, 1.7632260423949485E9, 0.0, 2025-11-15 12:00:42.394
36.0, -1887.5443371864967, -382.95266581280157, -434.3931197533384, 74.51937656709924, -0.03200000151991844, 0.25600001215934753, 1.008000047877431, 0.0, 0.0, 0.0, 0.0, 0.0, 1.7632260423949485E9, 0.0, 2025-11-15 12:00:42.394
37.0, -2096.12977741519, -544.6360206971876, -568.5769902635366, -56.60899567930028, -0.03200000151991844, 0.25600001215934753, 1.008000047877431, 0.0, 0.0, 0.0, 0.0, 0.0, 1.7632260424099112E9, 0.0, 2025-11-15 12:00:42.409
37.0, -2254.305106141139, -706.9177595744841, -725.6939273020253, -205.5205922150053, -0.03200000151991844, 0.25600001215934753, 1.008000047877431, 0.0, 0.0, 0.0, 0.0, 0.0, 1.7632260424099112E9, 0.0, 2025-11-15 12:00:42.409
38.0, -2018.3809972363524, -505.9953743549995, -546.2161284284666, -24.113004964310676, -0.03200000151991844, 0.25600001215934753, 1.008000047877431, 0.0, 0.0, 0.0, 0.0, 0.0, 1.763226042441955E9, 0.0, 2025-11-15 12:00:42.441
38.0, -1952.0912705217488, -421.42127675702795, -462.8462786162272, 41.454921058844775, -0.03200000151991844, 0.25600001215934753, 1.008000047877431, 0.0, 0.0, 0.0, 0.0, 0.0, 1.763226042441955E9, 0.0, 2025-11-15 12:00:42.441
39.0, -1770.1993662267923, -212.77412817906588, -228.28162334533408, -197.6705422080122, -0.03200000151991844, 0.25600001215934753, 1.008000047877431, 0.0, 0.0, 0.0, 0.0, 0.0, 1.763226042442654E9, 0.0, 2025-11-15 12:00:42.442
39.0, -1654.3148261997849, -123.24092323984951, -158.053781977389, -122.86880319425836, -0.03200000151991844, 0.25600001215934753, 1.008000047877431, 0.0, 0.0, 0.0, 0.0, 0.0, 1.763226042442654E9, 0.0, 2025-11-15 12:00:42.442
40.0, -1864.1176038640551, -349.12901061354205, -397.87299668602645, 105.15289710415527, -0.03200000151991844, 0.25600001215934753, 1.008000047877431, 0.0, 0.0, 0.0, 0.0, 0.0, 1.7632260424434931E9, 0.0, 2025-11-15 12:00:42.443
40.0, -1725.0812131613493, -162.35279697645456, -179.135598027613, 340.43561316654086, -0.03200000151991844, 0.25600001215934753, 1.008000047877431, 0.0, 0.0, 0.0, 0.0, 0.0, 1.7632260424434931E9, 0.0, 2025-11-15 12:00:42.443
41.0, -1747.7375270929188, -203.95544408354908, -229.32879533292726, 299.3228929536417, -0.03200000151991844, 0.25600001215934753, 1.008000047877431, 0.0, 0.0, 0.0, 0.0, 0.0, 1.7632260424441109E9, 0.0, 2025-11-15 12:00:42.444
41.0, -1904.9124325807206, -401.74192319018766, -458.0666864728555, 55.26263169525191, -0.03200000151991844, 0.25600001215934753, 1.008000047877431, 0.0, 0.0, 0.0, 0.0, 0.0, 1.7632260424441109E9, 0.0, 2025-11-15 12:00:42.444
42.0, -2095.321959024761, -543.2746971133165, -567.1558282803744, -55.61044239113107, -0.03200000151991844, 0.25600001215934753, 1.008000047877431, 0.0, 0.0, 0.0, 0.0, 0.0, 1.763226042454896E9, 0.0, 2025-11-15 12:00:42.454
42.0, -2291.9771183948033, -737.5176210119389, -756.282569039613, -234.7927891681902, -0.03200000151991844, 0.25600001215934753, 1.008000047877431, 0.0, 0.0, 0.0, 0.0, 0.0, 1.763226042454896E9, 0.0, 2025-11-15 12:00:42.454
43.0, -2506.753963000141, -499.6263247304596, -549.9709879839793, -16.988495548721403, -0.03200000151991844, 0.25600001215934753, 1.008000047877431, 0.0, 0.0, 0.0, 0.0, 0.0, 1.763226042469938E9, 0.0, 2025-11-15 12:00:42.469
43.0, -2439.480642597191, -421.82892585219815, -455.1458246074617, 57.207379672210664, -0.03200000151991844, 0.25600001215934753, 1.008000047877431, 0.0, 0.0, 0.0, 0.0, 0.0, 1.763226042469938E9, 0.0, 2025-11-15 12:00:42.469
44.0, -2269.391862562392, -224.2967599425465, -242.6503189750947, 279.6884181862697, -0.03200000151991844, 0.25600001215934753, 1.008000047877431, 0.0, 0.0, 0.0, 0.0, 0.0, 1.76322604248556E9, 0.0, 2025-11-15 12:00:42.485
44.0, -2149.8160412791185, -128.99288937170058, -165.3540666908957, 363.1704649971798, -0.03200000151991844, 0.25600001215934753, 1.008000047877431, 0.0, 0.0, 0.0, 0.0, 0.0, 1.76322604248556E9, 0.0, 2025-11-15 12:00:42.485
45.0, -2362.2367489123717, -360.6404226771556, 76.81567513989285, 589.5204300154, -0.03200000151991844, 0.25600001215934753, 1.008000047877431, 0.0, 0.0, 0.0, 0.0, 0.0, 1.7632260424862616E9, 0.0, 2025-11-15 12:00:42.486
45.0, -2217.6914855749346, -166.62750262580812, 303.23856820724905, 823.086531998124, -0.03200000151991844, 0.25600001215934753, 1.008000047877431, 0.0, 0.0, 0.0, 0.0, 0.0, 1.7632260424862616E9, 0.0, 2025-11-15 12:00:42.486
46.0, -2198.2402659053914, -167.0014926213771, 291.6299187447876, 827.2303411490284, -0.03200000151991844, 0.25600001215934753, 1.008000047877431, 0.0, 0.0, 0.0, 0.0, 0.0, 1.7632260424999063E9, 0.0, 2025-11-15 12:00:42.499
46.0, -2384.1039439532906, -379.47455885400996, 60.43865323392674, 1071.2139344583265, -0.03200000151991844, 0.25600001215934753, 1.008000047877431, 0.0, 0.0, 0.0, 0.0, 0.0, 1.7632260424999063E9, 0.0, 2025-11-15 12:00:42.499
47.0, -2586.0585415605456, -541.3224693364464, -73.0533357844688, 932.0933960066177, -0.03200000151991844, 0.25600001215934753, 1.008000047877431, 0.0, 0.0, 0.0, 0.0, 0.0, 1.763226042515627E9, 0.0, 2025-11-15 12:00:42.515
47.0, -2741.20081142243, -703.0245237206109, -238.73090382153168, 777.6205682368018, -0.03200000151991844, 0.25600001215934753, 1.008000047877431, 0.0, 0.0, 0.0, 0.0, 0.0, 1.763226042515627E9, 0.0, 2025-11-15 12:00:42.515
48.0, -2509.719703665003, -497.34872565744445, -53.957406610716134, 963.904985029716, -0.03200000151991844, 0.25600001215934753, 1.008000047877431, 0.0, 0.0, 0.0, 0.0, 0.0, 1.7632260425163133E9, 0.0, 2025-11-15 12:00:42.516
48.0, -2426.417172051966, -402.2468096842058, 53.478699416387826, 1048.1686709313653, -0.03200000151991844, 0.25600001215934753, 1.008000047877431, 0.0, 0.0, 0.0, 0.0, 0.0, 1.7632260425163133E9, 0.0, 2025-11-15 12:00:42.516
49.0, -2258.501273891423, -217.59485922195017, 264.84849516209215, 1277.4600672647357, -0.03200000151991844, 0.25600001215934753, 1.008000047877431, 0.0, 0.0, 0.0, 0.0, 0.0, 1.7632260425299025E9, 0.0, 2025-11-15 12:00:42.529
49.0, -2114.8255372936837, -102.37602138705552, 354.1647859038785, 1371.6457077488303, -0.03200000151991844, 0.25600001215934753, 1.008000047877431, 0.0, 0.0, 0.0, 0.0, 0.0, 1.7632260425299025E9, 0.0, 2025-11-15 12:00:42.529
50.0, -2330.5560563877225, -319.1050937692635, 121.18210831424221, 1129.1075857724063, -0.03200000151991844, 0.25600001215934753, 1.008000047877431, 0.0, 0.0, 0.0, 0.0, 0.0, 1.7632260425456269E9, 0.0, 2025-11-15 12:00:42.545
50.0, -2209.4562258725055, -148.72086163796484, 317.4501880388707, 1329.1903634518385, -0.03200000151991844, 0.25600001215934753, 1.008000047877431, 0.0, 0.0, 0.0, 0.0, 0.0, 1.7632260425456269E9, 0.0, 2025-11-15 12:00:42.545
51.0, -2226.5924474694766, -193.39396660868078, 268.9698649132624, 1288.9079010291025, -0.03200000151991844, 0.25600001215934753, 1.008000047877431, 0.0, 0.0, 0.0, 0.0, 0.0, 1.7632260425463123E9, 0.0, 2025-11-15 12:00:42.546
51.0, -2370.0905388193205, -369.017798577901, 61.960792515892535, 1063.2554273526184, -0.03200000151991844, 0.25600001215934753, 1.008000047877431, 0.0, 0.0, 0.0, 0.0, 0.0, 1.7632260425463123E9, 0.0, 2025-11-15 12:00:42.546
52.0, -2549.788991790265, -515.3339045443572, -50.337183453608304, 948.3619608138688, -0.03200000151991844, 0.25600001215934753, 1.008000047877431, 0.0, 0.0, 0.0, 0.0, 0.0, 1.7632260425599248E9, 0.0, 2025-11-15 12:00:42.559
52.0, -2739.7609499394894, -695.8775749052875, -225.50287767825648, 795.3065551272593, -0.03200000151991844, 0.25600001215934753, 1.008000047877431, 0.0, 0.0, 0.0, 0.0, 0.0, 1.7632260425599248E9, 0.0, 2025-11-15 12:00:42.559
53.0, -2502.0342092560604, -496.4399299682118, -44.93302801763639, 974.4328034049831, -0.03200000151991844, 0.25600001215934753, 1.008000047877431, 0.0, 0.0, 0.0, 0.0, 0.0, 1.7632260425760193E9, 0.0, 2025-11-15 12:00:42.576
53.0, -2409.0453367577866, -393.03543609334156, 58.778137653600425, 1060.82449238142, -0.03200000151991844, 0.25600001215934753, 1.008000047877431, 0.0, 0.0, 0.0, 0.0, 0.0, 1.7632260425760193E9, 0.0, 2025-11-15 12:00:42.576
54.0, -2243.377118470613, -207.18671764526516, 270.1628929991275, 1275.0216524936259, -0.03200000151991844, 0.25600001215934753, 1.008000047877431, 0.0, 0.0, 0.0, 0.0, 0.0, 1.7632260425905614E9, 0.0, 2025-11-15 12:00:42.590
54.0, -2140.7617434863932, -121.42333186138421, 336.44140001386404, 1353.2154807671905, -0.03200000151991844, 0.25600001215934753, 1.008000047877431, 0.0, 0.0, 0.0, 0.0, 0.0, 1.7632260425905614E9, 0.0, 2025-11-15 12:00:42.590
55.0, -2331.4498924771324, -333.245655501727, 104.86118490761146, 1587.9054226865992, -0.03200000151991844, 0.25600001215934753, 1.008000047877431, 0.0, 0.0, 0.0, 0.0, 0.0, 1.7632260425912695E9, 0.0, 2025-11-15 12:00:42.591
55.0, -2192.768792270217, -147.94296244718134, 320.61414340138435, 1813.3783811652102, -0.03200000151991844, 0.25600001215934753, 1.008000047877431, 0.0, 0.0, 0.0, 0.0, 0.0, 1.7632260425912695E9, 0.0, 2025-11-15 12:00:42.591
56.0, -2219.3819203549065, -195.43595198448747, 271.9917040774599, 1779.6968421642669, -0.03200000151991844, 0.25600001215934753, 1.008000047877431, 0.0, 0.0, 0.0, 0.0, 0.0, 1.7632260426056314E9, 0.0, 2025-11-15 12:00:42.605
56.0, -2366.537633861415, -369.7582987691276, 66.37013456365094, 1560.9781430056319, -0.03200000151991844, 0.25600001215934753, 1.008000047877431, 0.0, 0.0, 0.0, 0.0, 0.0, 1.7632260426056314E9, 0.0, 2025-11-15 12:00:42.605
57.0, -2570.291123347357, -531.8680022484623, -67.23031155345961, 1427.3515175888315, -0.03200000151991844, 0.25600001215934753, 1.008000047877431, 0.0, 0.0, 0.0, 0.0, 0.0, 1.7632260426063545E9, 0.0, 2025-11-15 12:00:42.606
57.0, -2741.017556324601, -703.2152586183511, -238.244716827292, 1271.390209636651, -0.03200000151991844, 0.25600001215934753, 1.008000047877431, 0.0, 0.0, 0.0, 0.0, 0.0, 1.7632260426063545E9, 0.0, 2025-11-15 12:00:42.606
58.0, -2503.3955328399315, -499.75348132895306, -57.6748671666719, 1447.449739950709, -0.03200000151991844, 0.25600001215934753, 1.008000047877431, 0.0, 0.0, 0.0, 0.0, 0.0, 1.7632260426199093E9, 0.0, 2025-11-15 12:00:42.619
58.0, -2402.8333629313856, -387.9790913532488, 68.311142640654, 1559.7925947196782, -0.03200000151991844, 0.25600001215934753, 1.008000047877431, 0.0, 0.0, 0.0, 0.0, 0.0, 1.7632260426199093E9, 0.0, 2025-11-15 12:00:42.619
59.0, -2231.244883014355, -192.44029211997986, 275.8400611318648, 1786.1519094877876, -0.03200000151991844, 0.25600001215934753, 1.008000047877431, 0.0, 0.0, 0.0, 0.0, 0.0, 1.7632260426356094E9, 0.0, 2025-11-15 12:00:42.635
59.0, -2153.4961028355174, -130.71698325127363, 320.7375600999221, 1833.461643927265, -0.03200000151991844, 0.25600001215934753, 1.008000047877431, 0.0, 0.0, 0.0, 0.0, 0.0, 1.7632260426356094E9, 0.0, 2025-11-15 12:00:42.635
60.0, -2343.1595192383975, -335.4671560754068, 97.52724109450355, 1588.6571425776929, -0.03200000151991844, 0.25600001215934753, 1.008000047877431, 0.0, 0.0, 0.0, 0.0, 0.0, 1.76322604263633E9, 0.0, 2025-11-15 12:00:42.636
60.0, -2186.2763259471394, -137.61335876956582, 333.17272745259106, 1829.407592375297, -0.03200000151991844, 0.25600001215934753, 1.008000047877431, 0.0, 0.0, 0.0, 0.0, 0.0, 1.76322604263633E9, 0.0, 2025-11-15 12:00:42.636
61.0, -2211.307476350572, -185.33074230421335, 279.1723119923845, 1794.4657070892863, -0.03200000151991844, 0.25600001215934753, 1.008000047877431, 0.0, 0.0, 0.0, 0.0, 0.0, 1.7632260426498947E9, 0.0, 2025-11-15 12:00:42.649
61.0, -2383.6327165588737, -392.9755976940505, 44.39448242401704, 2035.4050218346529, -0.03200000151991844, 0.25600001215934753, 1.008000047877431, 0.0, 0.0, 0.0, 0.0, 0.0, 1.7632260426498947E9, 0.0, 2025-11-15 12:00:42.649
62.0, -2563.6415812261403, -520.8165978793986, -60.412473934236914, 1923.312740362715, -0.03200000151991844, 0.25600001215934753, 1.008000047877431, 0.0, 0.0, 0.0, 0.0, 0.0, 1.7632260426656027E9, 0.0, 2025-11-15 12:00:42.665
62.0, -2740.3593339323997, -700.9189600455575, -240.62703309906647, 1760.5448144911788, -0.03200000151991844, 0.25600001215934753, 1.008000047877431, 0.0, 0.0, 0.0, 0.0, 0.0, 1.7632260426656027E9, 0.0, 2025-11-15 12:00:42.665
63.0, -2514.6114928070456, -514.2942123566754, -71.08614840777591, 1925.7287157340907, -0.03200000151991844, 0.25600001215934753, 1.008000047877431, 0.0, 0.0, 0.0, 0.0, 0.0, 1.7632260426663048E9, 0.0, 2025-11-15 12:00:42.666
63.0, -2405.286737302318, -388.6186142456718, 60.820123029407114, 2040.517465074081, -0.03200000151991844, 0.25600001215934753, 1.008000047877431, 0.0, 0.0, 0.0, 0.0, 0.0, 1.7632260426663048E9, 0.0, 2025-11-15 12:00:42.666
64.0, -2252.1509237666614, -201.59930711146444, 264.4857248663902, 2263.398672883399, -0.03200000151991844, 0.25600001215934753, 1.008000047877431, 0.0, 0.0, 0.0, 0.0, 0.0, 1.7632260426798847E9, 0.0, 2025-11-15 12:00:42.679
64.0, -2141.704198275227, -120.97828376665711, 336.09732921794057, 2344.453524623066, -0.03200000151991844, 0.25600001215934753, 1.008000047877431, 0.0, 0.0, 0.0, 0.0, 0.0, 1.7632260426798847E9, 0.0, 2025-11-15 12:00:42.679
65.0, -2343.2193576376885, -345.101138361264, 92.82618685020134, 2571.3607347346842, -0.03200000151991844, 0.25600001215934753, 1.008000047877431, 0.0, 0.0, 0.0, 0.0, 0.0, 1.7632260426956418E9, 0.0, 2025-11-15 12:00:42.695
65.0, -2197.073417119216, -145.74764117319137, 324.32412415742874, 2802.421103747096, -0.03200000151991844, 0.25600001215934753, 1.008000047877431, 0.0, 0.0, 0.0, 0.0, 0.0, 1.7632260426956418E9, 0.0, 2025-11-15 12:00:42.695
66.0, -2231.727330108639, -198.07258145324886, 268.5696956180036, 2766.432046473492, -0.03200000151991844, 0.25600001215934753, 1.008000047877431, 0.0, 0.0, 0.0, 0.0, 0.0, 1.7632260426963112E9, 0.0, 2025-11-15 12:00:42.696
66.0, -2388.0457985065877, -392.029403005261, 42.71900724386796, 3010.7746701785363, -0.03200000151991844, 0.25600001215934753, 1.008000047877431, 0.0, 0.0, 0.0, 0.0, 0.0, 1.7632260426963112E9, 0.0, 2025-11-15 12:00:42.696
67.0, -2561.4948786515743, -520.3004916855134, -58.61732195550576, 2908.600603389088, -0.03200000151991844, 0.25600001215934753, 1.008000047877431, 0.0, 0.0, 0.0, 0.0, 0.0, 1.763226042709899E9, 0.0, 2025-11-15 12:00:42.709
67.0, -2727.946605979465, -685.1440620324574, -221.61712162429467, 2765.624228083063, -0.03200000151991844, 0.25600001215934753, 1.008000047877431, 0.0, 0.0, 0.0, 0.0, 0.0, 1.763226042709899E9, 0.0, 2025-11-15 12:00:42.709
68.0, -2540.562658599578, -530.267325067427, -92.97204294847324, 2884.7737007713877, -0.03200000151991844, 0.25600001215934753, 1.008000047877431, 0.0, 0.0, 0.0, 0.0, 0.0, 1.763226042725602E9, 0.0, 2025-11-15 12:00:42.725
68.0, -2419.3225818360224, -404.9956361516379, 46.92265479406342, 3005.340595542919, -0.03200000151991844, 0.25600001215934753, 1.008000047877431, 0.0, 0.0, 0.0, 0.0, 0.0, 1.763226042725602E9, 0.0, 2025-11-15 12:00:42.725
69.0, -2249.7835670947097, -207.59436674043536, 270.0544359004125, 3246.0386867411435, -0.03200000151991844, 0.25600001215934753, 1.008000047877431, 0.0, 0.0, 0.0, 0.0, 0.0, 1.763226042726318E9, 0.0, 2025-11-15 12:00:42.726
69.0, -2163.0926861218177, -145.05949958134443, 313.45971478614956, 3297.967197625898, -0.03200000151991844, 0.25600001215934753, 1.008000047877431, 0.0, 0.0, 0.0, 0.0, 0.0, 1.763226042726318E9, 0.0, 2025-11-15 12:00:42.726
70.0, -2350.7814353480935, -353.4560748622753, 88.83197369752452, 3056.5061668367125, -0.03200000151991844, 0.25600001215934753, 1.008000047877431, 0.0, 0.0, 0.0, 0.0, 0.0, 1.7632260427399857E9, 0.0, 2025-11-15 12:00:42.739
70.0, -2195.626075836364, -147.63629065081477, 320.0456786081195, 3282.009044514969, -0.03200000151991844, 0.25600001215934753, 1.008000047877431, 0.0, 0.0, 0.0, 0.0, 0.0, 1.7632260427399857E9, 0.0, 2025-11-15 12:00:42.739
71.0, -2227.1721319626085, -195.22651758696884, 268.7604305157438, 3247.949775618501, -0.03200000151991844, 0.25600001215934753, 1.008000047877431, 0.0, 0.0, 0.0, 0.0, 0.0, 1.763226042755587E9, 0.0, 2025-11-15 12:00:42.755
71.0, -2394.179234433919, -394.55383547535166, 39.446594782639295, 3013.0634889514185, -0.03200000151991844, 0.25600001215934753, 1.008000047877431, 0.0, 0.0, 0.0, 0.0, 0.0, 1.763226042755587E9, 0.0, 2025-11-15 12:00:42.755
72.0, -2559.823143371381, -523.247532850597, -64.24587138881907, 2902.8673367570154, -0.03200000151991844, 0.25600001215934753, 1.008000047877431, 0.0, 0.0, 0.0, 0.0, 0.0, 1.7632260427562995E9, 0.0, 2025-11-15 12:00:42.756
72.0, -2731.925859532319, -698.2561512771063, -235.95963795436546, 2746.8013116060756, -0.03200000151991844, 0.25600001215934753, 1.008000047877431, 0.0, 0.0, 0.0, 0.0, 0.0, 1.7632260427562995E9, 0.0, 2025-11-15 12:00:42.756
73.0, -2532.297479697503, -524.6163362343796, -75.16263935947791, 2901.6331697716378, -0.03200000151991844, 0.25600001215934753, 1.008000047877431, 0.0, 0.0, 0.0, 0.0, 0.0, 1.7632260427699685E9, 0.0, 2025-11-15 12:00:42.769
73.0, -2417.396533358842, -398.4358516293578, 51.156221543904394, 3006.735578226391, -0.03200000151991844, 0.25600001215934753, 1.008000047877431, 0.0, 0.0, 0.0, 0.0, 0.0, 1.7632260427699685E9, 0.0, 2025-11-15 12:00:42.769
74.0, -2236.981889546383, -186.91271998547018, 282.55318155232817, 2776.0136701599695, -0.03200000151991844, 0.25600001215934753, 1.008000047877431, 0.0, 0.0, 0.0, 0.0, 0.0, 1.7632260427856112E9, 0.0, 2025-11-15 12:00:42.785
74.0, -2159.711816561874, -138.86248535476625, 327.4581603202969, 2824.0900840903632, -0.03200000151991844, 0.25600001215934753, 1.008000047877431, 0.0, 0.0, 0.0, 0.0, 0.0, 1.7632260427856112E9, 0.0, 2025-11-15 12:00:42.785
75.0, -2342.3479609480128, -336.60034576198086, 105.54558659950271, 3065.2837120327167, -0.03200000151991844, 0.25600001215934753, 1.008000047877431, 0.0, 0.0, 0.0, 0.0, 0.0, 1.7632260427863247E9, 0.0, 2025-11-15 12:00:42.786
75.0, -2189.571177808102, -141.6561906216666, 329.3842087974772, 3299.19762471132, -0.03200000151991844, 0.25600001215934753, 1.008000047877431, 0.0, 0.0, 0.0, 0.0, 0.0, 1.7632260427863247E9, 0.0, 2025-11-15 12:00:42.786
76.0, -2217.8523012730293, -184.36584811564535, 280.3167213788256, 3261.821064554155, -0.03200000151991844, 0.25600001215934753, 1.008000047877431, 0.0, 0.0, 0.0, 0.0, 0.0, 1.7632260427999568E9, 0.0, 2025-11-15 12:00:42.799
76.0, -2389.2650058921427, -392.63900669803843, 38.72105419123545, 3499.027959143743, -0.03200000151991844, 0.25600001215934753, 1.008000047877431, 0.0, 0.0, 0.0, 0.0, 0.0, 1.7632260427999568E9, 0.0, 2025-11-15 12:00:42.799
77.0, -2555.9299075175077, -514.3241315563209, -55.969472786877304, 3407.441549128853, -0.03200000151991844, 0.25600001215934753, 1.008000047877431, 0.0, 0.0, 0.0, 0.0, 0.0, 1.7632260428156104E9, 0.0, 2025-11-15 12:00:42.815
77.0, -2733.1039280183613, -693.820629929658, -230.36474762065336, 3243.607751769945, -0.03200000151991844, 0.25600001215934753, 1.008000047877431, 0.0, 0.0, 0.0, 0.0, 0.0, 1.7632260428156104E9, 0.0, 2025-11-15 12:00:42.815
78.0, -2519.862312344834, -514.649502852466, -75.92183905048296, 3393.364565695636, -0.03200000151991844, 0.25600001215934753, 1.008000047877431, 0.0, 0.0, 0.0, 0.0, 0.0, 1.7632260428163705E9, 0.0, 2025-11-15 12:00:42.816
78.0, -2405.64950759802, -391.36370081314817, 55.490765592548996, 3510.8049041042104, -0.03200000151991844, 0.25600001215934753, 1.008000047877431, 0.0, 0.0, 0.0, 0.0, 0.0, 1.7632260428163705E9, 0.0, 2025-11-15 12:00:42.816
79.0, -2239.9925090107135, -188.58819516561925, 281.8463404607028, 3266.2790253013372, -0.03200000151991844, 0.25600001215934753, 1.008000047877431, 0.0, 0.0, 0.0, 0.0, 0.0, 1.7632260428299427E9, 0.0, 2025-11-15 12:00:42.829
79.0, -2171.226968525443, -145.38861077744514, 307.7713269535452, 3300.1438194001094, -0.03200000151991844, 0.25600001215934753, 1.008000047877431, 0.0, 0.0, 0.0, 0.0, 0.0, 1.7632260428299427E9, 0.0, 2025-11-15 12:00:42.829
80.0, -2321.0155716007575, -322.8674331246875, 107.34447847818956, 3071.009498864878, -0.03200000151991844, 0.25600001215934753, 1.008000047877431, 0.0, 0.0, 0.0, 0.0, 0.0, 1.7632260428456316E9, 0.0, 2025-11-15 12:00:42.845
80.0, -2202.320496757049, -155.2245476609096, 306.05471287388355, 3281.926766715944, -0.03200000151991844, 0.25600001215934753, 1.008000047877431, 0.0, 0.0, 0.0, 0.0, 0.0, 1.7632260428456316E9, 0.0, 2025-11-15 12:00:42.845
81.0, -2221.266829932574, -193.7193379048258, 263.6741665760055, 3252.209521668032, -0.03200000151991844, 0.25600001215934753, 1.008000047877431, 0.0, 0.0, 0.0, 0.0, 0.0, 1.763226042846309E9, 0.0, 2025-11-15 12:00:42.846
81.0, -2399.875102066435, -396.99973004637286, 32.224847968202084, 3486.001887598075, -0.03200000151991844, 0.25600001215934753, 1.008000047877431, 0.0, 0.0, 0.0, 0.0, 0.0, 1.763226042846309E9, 0.0, 2025-11-15 12:00:42.846
82.0, -2554.9089148296043, -516.156682534609, -57.499091868754476, 3394.3331997841597, -0.03200000151991844, 0.25600001215934753, 1.008000047877431, 0.0, 0.0, 0.0, 0.0, 0.0, 1.7632260428599303E9, 0.0, 2025-11-15 12:00:42.859
82.0, -2735.931292384863, -695.6045622085221, -238.12130012875423, 3232.4329307023436, -0.03200000151991844, 0.25600001215934753, 1.008000047877431, 0.0, 0.0, 0.0, 0.0, 0.0, 1.7632260428599303E9, 0.0, 2025-11-15 12:00:42.859
83.0, -2523.4900153018534, -511.971734484192, -74.0182299730368, 3401.0051813051105, -0.03200000151991844, 0.25600001215934753, 1.008000047877431, 0.0, 0.0, 0.0, 0.0, 0.0, 1.7632260428756E9, 0.0, 2025-11-15 12:00:42.875
83.0, -2402.5715699344873, -386.28865657327697, 64.39920728700235, 3520.5099444892257, -0.03200000151991844, 0.25600001215934753, 1.008000047877431, 0.0, 0.0, 0.0, 0.0, 0.0, 1.7632260428756E9, 0.0, 2025-11-15 12:00:42.875
84.0, -2240.8227668008767, -193.4575449079275, 272.9715578658506, 3744.8983319806866, -0.03200000151991844, 0.25600001215934753, 1.008000047877431, 0.0, 0.0, 0.0, 0.0, 0.0, 1.7632260428763072E9, 0.0, 2025-11-15 12:00:42.876
84.0, -2165.224429096561, -145.42974967695773, 308.2612538477406, 3781.8672430426814, -0.03200000151991844, 0.25600001215934753, 1.008000047877431, 0.0, 0.0, 0.0, 0.0, 0.0, 1.7632260428763072E9, 0.0, 2025-11-15 12:00:42.876
85.0, -2321.071670100093, -327.0299417753704, 99.90207756636664, 3550.12995213829, -0.03200000151991844, 0.25600001215934753, 1.008000047877431, 0.0, 0.0, 0.0, 0.0, 0.0, 1.7632260428899677E9, 0.0, 2025-11-15 12:00:42.889
85.0, -2181.5490924031474, -129.66981126368046, 333.8945281440392, 3306.2174169281498, -0.03200000151991844, 0.25600001215934753, 1.008000047877431, 0.0, 0.0, 0.0, 0.0, 0.0, 1.7632260428899677E9, 0.0, 2025-11-15 12:00:42.889
86.0, -2239.902751411777, -203.30470149125904, 251.28387802280486, 3238.641164628789, -0.03200000151991844, 0.25600001215934753, 1.008000047877431, 0.0, 0.0, 0.0, 0.0, 0.0, 1.7632260429056292E9, 0.0, 2025-11-15 12:00:42.905
86.0, -2381.7739862808958, -388.2334045502357, 43.870896430220455, 3010.2286447850056, -0.03200000151991844, 0.25600001215934753, 1.008000047877431, 0.0, 0.0, 0.0, 0.0, 0.0, 1.7632260429056292E9, 0.0, 2025-11-15 12:00:42.905
87.0, -2534.447922172025, -501.3728580097668, -42.13558285078034, 2921.2713844389655, -0.03200000151991844, 0.25600001215934753, 1.008000047877431, 0.0, 0.0, 0.0, 0.0, 0.0, 1.7632260429063036E9, 0.0, 2025-11-15 12:00:42.906
87.0, -2739.514116542414, -699.6174748609774, -230.73499771626666, 2749.5164789739065, -0.03200000151991844, 0.25600001215934753, 1.008000047877431, 0.0, 0.0, 0.0, 0.0, 0.0, 1.7632260429063036E9, 0.0, 2025-11-15 12:00:42.906
88.0, -2516.1186724891886, -510.7375674988143, -68.00447084428743, 2913.1034429357387, -0.03200000151991844, 0.25600001215934753, 1.008000047877431, 0.0, 0.0, 0.0, 0.0, 0.0, 1.7632260429200325E9, 0.0, 2025-11-15 12:00:42.920
88.0, -2382.4172490732744, -371.0373445539735, 74.09676787210628, 3037.6009725607, -0.03200000151991844, 0.25600001215934753, 1.008000047877431, 0.0, 0.0, 0.0, 0.0, 0.0, 1.7632260429200325E9, 0.0, 2025-11-15 12:00:42.920
89.0, -2239.072493621614, -193.7941359039396, 278.5814077993855, 3261.2600795608014, -0.03200000151991844, 0.25600001215934753, 1.008000047877431, 0.0, 0.0, 0.0, 0.0, 0.0, 1.763226042935625E9, 0.0, 2025-11-15 12:00:42.935
89.0, -2159.2817280669697, -134.4381837071851, 321.8146512871608, 3295.6933384528384, -0.03200000151991844, 0.25600001215934753, 1.008000047877431, 0.0, 0.0, 0.0, 0.0, 0.0, 1.763226042935625E9, 0.0, 2025-11-15 12:00:42.935
90.0, -2318.6781341284513, -320.0288490583189, 110.23916104389355, 3063.8288909499533, -0.03200000151991844, 0.25600001215934753, 1.008000047877431, 0.0, 0.0, 0.0, 0.0, 0.0, 1.7632260429363017E9, 0.0, 2025-11-15 12:00:42.936
90.0, -2185.629323254805, -135.5825930936262, 327.8583296155557, 3293.681272276677, -0.03200000151991844, 0.25600001215934753, 1.008000047877431, 0.0, 0.0, 0.0, 0.0, 0.0, 1.7632260429363017E9, 0.0, 2025-11-15 12:00:42.936
91.0, -2226.3156948727556, -200.9485645191744, 259.3807614268735, 3238.760841427371, -0.03200000151991844, 0.25600001215934753, 1.008000047877431, 0.0, 0.0, 0.0, 0.0, 0.0, 1.7632260429499574E9, 0.0, 2025-11-15 12:00:42.949
91.0, -2384.0815045535564, -385.0245703882538, 43.840977230574936, 3013.8002492426895, -0.03200000151991844, 0.25600001215934753, 1.008000047877431, 0.0, 0.0, 0.0, 0.0, 0.0, 1.7632260429499574E9, 0.0, 2025-11-15 12:00:42.949
92.0, -2530.367691320367, -498.9905417379923, -35.08587143430486, 2929.854454837274, -0.03200000151991844, 0.25600001215934753, 1.008000047877431, 0.0, 0.0, 0.0, 0.0, 0.0, 1.7632260429655962E9, 0.0, 2025-11-15 12:00:42.965
92.0, -2756.093093045987, -718.6872247350402, -247.67300461558625, 2739.706721390132, -0.03200000151991844, 0.25600001215934753, 1.008000047877431, 0.0, 0.0, 0.0, 0.0, 0.0, 1.7632260429655962E9, 0.0, 2025-11-15 12:00:42.965
93.0, -2527.5627663535997, -519.6796682928689, -72.11836079554632, 2912.9762863372453, -0.03200000151991844, 0.25600001215934753, 1.008000047877431, 0.0, 0.0, 0.0, 0.0, 0.0, 1.763226042966319E9, 0.0, 2025-11-15 12:00:42.966
93.0, -2381.5832513831556, -366.9346743025817, 78.79408221645281, 3029.7584023536183, -0.03200000151991844, 0.25600001215934753, 1.008000047877431, 0.0, 0.0, 0.0, 0.0, 0.0, 1.763226042966319E9, 0.0, 2025-11-15 12:00:42.966
94.0, -2237.0529476455413, -185.92538639716804, 283.7723889378831, 3257.4715609056875, -0.03200000151991844, 0.25600001215934753, 1.008000047877431, 0.0, 0.0, 0.0, 0.0, 0.0, 1.7632260429963613E9, 0.0, 2025-11-15 12:00:42.996
94.0, -2163.2909008194692, -131.88757193740457, 322.0876639839262, 3303.6368859587237, -0.03200000151991844, 0.25600001215934753, 1.008000047877431, 0.0, 0.0, 0.0, 0.0, 0.0, 1.7632260429963613E9, 0.0, 2025-11-15 12:00:42.996
95.0, -2319.1942403223366, -319.93161165947095, 111.49576742900535, 3064.689067939762, -0.03200000151991844, 0.25600001215934753, 1.008000047877431, 0.0, 0.0, 0.0, 0.0, 0.0, 1.7632260429970293E9, 0.0, 2025-11-15 12:00:42.997
95.0, -2171.6832363200374, -127.38847229070961, 344.0072176242247, 2825.1110767782666, -0.03200000151991844, 0.25600001215934753, 1.008000047877431, 0.0, 0.0, 0.0, 0.0, 0.0, 1.7632260429970293E9, 0.0, 2025-11-15 12:00:42.997
96.0, -2229.831200831104, -203.2074640924111, 263.66668677609414, 2762.220919123385, -0.03200000151991844, 0.25600001215934753, 1.008000047877431, 0.0, 0.0, 0.0, 0.0, 0.0, 1.7632260429977553E9, 0.0, 2025-11-15 12:00:42.997
96.0, -2381.8637438798323, -391.498337211553, 45.68474790873006, 2525.760134574957, -0.03200000151991844, 0.25600001215934753, 1.008000047877431, 0.0, 0.0, 0.0, 0.0, 0.0, 1.7632260429977553E9, 0.0, 2025-11-15 12:00:42.997
97.0, -2525.3225662801415, -491.2826079293154, -29.24788760347292, 2444.450969638303, -0.03200000151991844, 0.25600001215934753, 1.008000047877431, 0.0, 0.0, 0.0, 0.0, 0.0, 1.7632260430099125E9, 0.0, 2025-11-15 12:00:43.009
97.0, -2740.127460135147, -700.4028538516723, -233.45764488400891, 2255.5635824762285, -0.03200000151991844, 0.25600001215934753, 1.008000047877431, 0.0, 0.0, 0.0, 0.0, 0.0, 1.7632260430099125E9, 0.0, 2025-11-15 12:00:43.009
98.0, -2537.510900235735, -533.4724193294533, -92.41853775503114, 2390.6525087757036, -0.03200000151991844, 0.25600001215934753, 1.008000047877431, 0.0, 0.0, 0.0, 0.0, 0.0, 1.7632260430256336E9, 0.0, 2025-11-15 12:00:43.025
98.0, -2385.2745326394215, -370.88400865579024, 71.22078480618075, 2544.201581256464, -0.03200000151991844, 0.25600001215934753, 1.008000047877431, 0.0, 0.0, 0.0, 0.0, 0.0, 1.7632260430256336E9, 0.0, 2025-11-15 12:00:43.025
99.0, -2240.8751254002564, -198.86170034389943, 273.00521696545184, 2763.7991569046862, -0.03200000151991844, 0.25600001215934753, 1.008000047877431, 0.0, 0.0, 0.0, 0.0, 0.0, 1.763226043026334E9, 0.0, 2025-11-15 12:00:43.026
99.0, -2166.174363685306, -147.72978814970702, 305.87519767601043, 2804.070399627555, -0.03200000151991844, 0.25600001215934753, 1.008000047877431, 0.0, 0.0, 0.0, 0.0, 0.0, 1.763226043026334E9, 0.0, 2025-11-15 12:00:43.026
100.0, -2316.247199157253, -323.9445243119262, 112.23252772027627, 2580.9236589213833, -0.03200000151991844, 0.25600001215934753, 1.008000047877431, 0.0, 0.0, 0.0, 0.0, 0.0, 1.7632260430406704E9, 0.0, 2025-11-15 12:00:43.040
100.0, -2188.815718017053, -134.7672949032858, 338.40484749060124, 2339.9768643761054, -0.03200000151991844, 0.25600001215934753, 1.008000047877431, 0.0, 0.0, 0.0, 0.0, 0.0, 1.7632260430406704E9, 0.0, 2025-11-15 12:00:43.040
0.0, -274.21694455109537, -206.19938405696303, -232.66478609340265, -186.95198893500492, -0.03200000151991844, 0.25600001215934753, 1.008000047877431, 0.0, 0.0, 0.0, 0.0, 0.0, 1.7632260430413413E9, 0.0, 2025-11-15 12:00:43.041
1.0, -427.64073038334027, -396.9062325474806, -448.15969149023294, -414.160260993056, -0.03200000151991844, 0.25600001215934753, 1.008000047877431, 0.0, 0.0, 0.0, 0.0, 0.0, 1.763226043054943E9, 0.0, 2025-11-15 12:00:43.054
1.0, -572.3299798690714, -503.35500498628244, -527.0641007553786, -499.48233858216554, -0.03200000151991844, 0.25600001215934753, 1.008000047877431, 0.0, 0.0, 0.0, 0.0, 0.0, 1.763226043054943E9, 0.0, 2025-11-15 12:00:43.054
2.0, -784.6590599534102, -707.4413455682807, -731.2588984360918, -684.0576210953295, -0.03200000151991844, 0.25600001215934753, 1.008000047877431, 0.0, 0.0, 0.0, 0.0, 0.0, 1.7632260430706227E9, 0.0, 2025-11-15 12:00:43.070
2.0, -570.3889717920683, -526.4825463122688, -571.8718421244994, -531.5968595016748, -0.03200000151991844, 0.25600001215934753, 1.008000047877431, 0.0, 0.0, 0.0, 0.0, 0.0, 1.7632260430706227E9, 0.0, 2025-11-15 12:00:43.070
3.0, -439.01750604854897, -385.80620947899297, -424.33652877248824, -400.27775235753506, -0.03200000151991844, 0.25600001215934753, 1.008000047877431, 0.0, 0.0, 0.0, 0.0, 0.0, 1.7632260430713396E9, 0.0, 2025-11-15 12:00:43.071
3.0, -290.5116886580363, -196.5055633718148, -219.73595194658265, -175.19374347431585, -0.03200000151991844, 0.25600001215934753, 1.008000047877431, 0.0, 0.0, 0.0, 0.0, 0.0, 1.7632260430713396E9, 0.0, 2025-11-15 12:00:43.071
4.0, -204.9128584722057, -148.53386664018035, -183.50380117585883, -141.85627526929602, -0.03200000151991844, 0.25600001215934753, 1.008000047877431, 0.0, 0.0, 0.0, 0.0, 0.0, 1.7632260430849397E9, 0.0, 2025-11-15 12:00:43.084
4.0, -355.6027774368413, -330.41081133531407, -381.16312368400395, -357.99818335846066, -0.03200000151991844, 0.25600001215934753, 1.008000047877431, 0.0, 0.0, 0.0, 0.0, 0.0, 1.7632260430849397E9, 0.0, 2025-11-15 12:00:43.084
5.0, -215.98296234104782, -132.48969583027065, -154.57941491855308, -125.24363966612145, -0.03200000151991844, 0.25600001215934753, 1.008000047877431, 0.0, 0.0, 0.0, 0.0, 0.0, 1.76322604310064E9, 0.0, 2025-11-15 12:00:43.100
5.0, -282.5344820525497, -210.30205430835485, -240.4699573009275, -190.4039165941067, -0.03200000151991844, 0.25600001215934753, 1.008000047877431, 0.0, 0.0, 0.0, 0.0, 0.0, 1.76322604310064E9, 0.0, 2025-11-15 12:00:43.100
6.0, -428.09325827797875, -400.77702900161967, -455.9873020974919, -420.18523982167244, -0.03200000151991844, 0.25600001215934753, 1.008000047877431, 0.0, 0.0, 0.0, 0.0, 0.0, 1.7632260431013286E9, 0.0, 2025-11-15 12:00:43.101
6.0, -556.2110110600479, -490.15689804265276, -520.9718037275597, -508.8807071708143, -0.03200000151991844, 0.25600001215934753, 1.008000047877431, 0.0, 0.0, 0.0, 0.0, 0.0, 1.7632260431013286E9, 0.0, 2025-11-15 12:00:43.101
7.0, -787.3405682216398, -708.3763205572031, -728.5736502679065, -690.0676403241232, -0.03200000151991844, 0.25600001215934753, 1.008000047877431, 0.0, 0.0, 0.0, 0.0, 0.0, 1.7632260431148877E9, 0.0, 2025-11-15 12:00:43.114
7.0, -573.9418767499737, -533.6407148274593, -573.9100876003504, -534.427963768132, -0.03200000151991844, 0.25600001215934753, 1.008000047877431, 0.0, 0.0, 0.0, 0.0, 0.0, 1.7632260431148877E9, 0.0, 2025-11-15 12:00:43.114
8.0, -426.64965689508244, -374.4892722130753, -419.54945682920516, -400.13563615921885, -0.03200000151991844, 0.25600001215934753, 1.008000047877431, 0.0, 0.0, 0.0, 0.0, 0.0, 1.7632260431306639E9, 0.0, 2025-11-15 12:00:43.130
8.0, -288.7614154787734, -208.11421283427626, -216.55703698424622, -173.85485929017887, -0.03200000151991844, 0.25600001215934753, 1.008000047877431, 0.0, 0.0, 0.0, 0.0, 0.0, 1.7632260431306639E9, 0.0, 2025-11-15 12:00:43.130
9.0, -211.70825669169426, -155.8191917538643, -191.630603779573, -150.6113810655661, -0.03200000151991844, 0.25600001215934753, 1.008000047877431, 0.0, 0.0, 0.0, 0.0, 0.0, 1.7632260431313322E9, 0.0, 2025-11-15 12:00:43.131
9.0, -358.1421695067547, -328.9971291520633, -388.8560978928581, -366.8729659533128, -0.03200000151991844, 0.25600001215934753, 1.008000047877431, 0.0, 0.0, 0.0, 0.0, 0.0, 1.7632260431313322E9, 0.0, 2025-11-15 12:00:43.131
10.0, -238.2578064771369, -152.445801993832, -162.20133102824911, -137.62644841941074, -0.03200000151991844, 0.25600001215934753, 1.008000047877431, 0.0, 0.0, 0.0, 0.0, 0.0, 1.7632260431453843E9, 0.0, 2025-11-15 12:00:43.145
10.0, -275.0285028414801, -201.37491311412305, -224.70627898769453, -183.15599047997966, -0.03200000151991844, 0.25600001215934753, 1.008000047877431, 0.0, 0.0, 0.0, 0.0, 0.0, 1.7632260431453843E9, 0.0, 2025-11-15 12:00:43.145
11.0, -437.8581370622851, -406.2410228368826, -459.9515960505232, 55.77125808922574, -0.03200000151991844, 0.25600001215934753, 1.008000047877431, 0.0, 0.0, 0.0, 0.0, 0.0, 1.763226043160638E9, 0.0, 2025-11-15 12:00:43.160
11.0, -577.1133119123988, -504.34981837449595, -536.8214997397736, -30.37733739009127, -0.03200000151991844, 0.25600001215934753, 1.008000047877431, 0.0, 0.0, 0.0, 0.0, 0.0, 1.763226043160638E9, 0.0, 2025-11-15 12:00:43.160
12.0, -795.2616763277911, -708.2304644589312, -738.3460088521242, -209.99351256201044, -0.01600000075995922, 0.25600001215934753, 1.008000047877431, 0.0, 0.0, 0.0, 0.0, 0.0, 1.7632260431613288E9, 0.0, 2025-11-15 12:00:43.161
12.0, -580.8195527684875, -535.7013997030444, -580.5110110221431, -53.976106110494584, -0.01600000075995922, 0.25600001215934753, 1.008000047877431, 0.0, 0.0, 0.0, 0.0, 0.0, 1.7632260431613288E9, 0.0, 2025-11-15 12:00:43.161
13.0, -426.6346972952597, -378.7153591630049, -421.85323520191014, 85.39874553820118, -0.01600000075995922, 0.25600001215934753, 1.008000047877431, 0.0, 0.0, 0.0, 0.0, 0.0, 1.7632260431748855E9, 0.0, 2025-11-15 12:00:43.174
13.0, -285.3992454186082, -200.48481692466885, -218.32974956324324, 314.0805381787941, -0.01600000075995922, 0.25600001215934753, 1.008000047877431, 0.0, 0.0, 0.0, 0.0, 0.0, 1.7632260431748855E9, 0.0, 2025-11-15 12:00:43.174
14.0, -211.1023928988725, -152.93198898807168, -189.31560570700094, 358.37591325398535, -0.01600000075995922, 0.25600001215934753, 1.008000047877431, 0.0, 0.0, 0.0, 0.0, 0.0, 1.763226043190632E9, 0.0, 2025-11-15 12:00:43.190
14.0, -355.76733303489164, -326.37545928312466, -380.4675022922456, 135.4573064451106, -0.01600000075995922, 0.25600001215934753, 1.008000047877431, 0.0, 0.0, 0.0, 0.0, 0.0, 1.763226043190632E9, 0.0, 2025-11-15 12:00:43.190
15.0, -199.2057711398229, -125.7653557099402, -143.62898784829304, 371.31222720071673, -0.01600000075995922, 0.25600001215934753, 1.008000047877431, 0.0, 0.0, 0.0, 0.0, 0.0, 1.7632260431913228E9, 0.0, 2025-11-15 12:00:43.191
15.0, -271.31478218548, -201.81248140893877, -222.93356640869752, 304.468995292671, -0.01600000075995922, 0.25600001215934753, 1.008000047877431, 0.0, 0.0, 0.0, 0.0, 0.0, 1.7632260431913228E9, 0.0, 2025-11-15 12:00:43.191
16.0, -429.3386449632235, -394.58749457495287, -453.05148063227534, 65.9363061687909, -0.01600000075995922, 0.25600001215934753, 1.008000047877431, 0.0, 0.0, 0.0, 0.0, 0.0, 1.7632260432049859E9, 0.0, 2025-11-15 12:00:43.204
16.0, -564.5509879612364, -489.89510504575446, -523.103546702303, -14.191050381865352, -0.01600000075995922, 0.25600001215934753, 1.008000047877431, 0.0, 0.0, 0.0, 0.0, 0.0, 1.7632260432049859E9, 0.0, 2025-11-15 12:00:43.204
17.0, -789.883700191509, -702.8562282226048, -723.0273786336184, -188.9191763116978, -0.01600000075995922, 0.25600001215934753, 1.008000047877431, 0.0, 0.0, 0.0, 0.0, 0.0, 1.7632260432207036E9, 0.0, 2025-11-15 12:00:43.220
17.0, -572.0420075724833, -530.4131811656989, -572.8629156127572, -41.5558983576484, -0.01600000075995922, 0.25600001215934753, 1.008000047877431, 0.0, 0.0, 0.0, 0.0, 0.0, 1.7632260432207036E9, 0.0, 2025-11-15 12:00:43.220
18.0, -430.16516285343096, -377.10346228210256, -423.21455878578126, 86.73014992242679, -0.01600000075995922, 0.25600001215934753, 1.008000047877431, 0.0, 0.0, 0.0, 0.0, 0.0, 1.76322604322137E9, 0.0, 2025-11-15 12:00:43.221
18.0, -283.0917271459475, -202.29492850322276, -222.25290461676195, 304.20720229577273, -0.01600000075995922, 0.25600001215934753, 1.008000047877431, 0.0, 0.0, 0.0, 0.0, 0.0, 1.76322604322137E9, 0.0, 2025-11-15 12:00:43.221
19.0, -211.09117319900542, -147.72604824975133, -184.59585196292028, 348.93266586586833, -0.01600000075995922, 0.25600001215934753, 1.008000047877431, 0.0, 0.0, 0.0, 0.0, 0.0, 1.7632260432350094E9, 0.0, 2025-11-15 12:00:43.235
19.0, -364.6795146293007, -329.2439625491388, -390.449295273982, 120.73332031955943, -0.01600000075995922, 0.25600001215934753, 1.008000047877431, 0.0, 0.0, 0.0, 0.0, 0.0, 1.7632260432350094E9, 0.0, 2025-11-15 12:00:43.235
20.0, -213.20421667397022, -128.9180913725868, -157.93410517880693, 360.56375472806394, -0.01600000075995922, 0.25600001215934753, 1.008000047877431, 0.0, 0.0, 0.0, 0.0, 0.0, 1.7632260432506301E9, 0.0, 2025-11-15 12:00:43.250
20.0, -269.55702920630574, -205.04001507069916, -233.54366258298978, 296.7423619842157, -0.01600000075995922, 0.25600001215934753, 1.008000047877431, 0.0, 0.0, 0.0, 0.0, 0.0, 1.7632260432506301E9, 0.0, 2025-11-15 12:00:43.250
21.0, -448.3822155375965, -409.97718289261684, -465.6960823824629, 55.80865708878264, -0.01600000075995922, 0.2400000113993883, 1.008000047877431, 0.0, 0.0, 0.0, 0.0, 0.0, 1.7632260432513175E9, 0.0, 2025-11-15 12:00:43.251
21.0, -556.487763656769, -488.694597159978, -523.959983792156, -10.780261622276157, -0.01600000075995922, 0.2400000113993883, 1.008000047877431, 0.0, 0.0, 0.0, 0.0, 0.0, 1.7632260432513175E9, 0.0, 2025-11-15 12:00:43.251
22.0, -801.0211222595535, -719.8914725207724, -742.5758357020095, -202.80916474713013, -0.01600000075995922, 0.2400000113993883, 1.008000047877431, 0.0, 0.0, 0.0, 0.0, 0.0, 1.7632260432649689E9, 0.0, 2025-11-15 12:00:43.264
22.0, -574.1213919478469, -530.8544893604703, -584.5912418738008, -53.02991142170504, -0.01600000075995922, 0.2400000113993883, 1.008000047877431, 0.0, 0.0, 0.0, 0.0, 0.0, 1.7632260432649689E9, 0.0, 2025-11-15 12:00:43.264
23.0, -426.3242855989374, -373.1316885291599, -422.7882101908326, 92.86732574971393, -0.01600000075995922, 0.2400000113993883, 1.008000047877431, 0.0, 0.0, 0.0, 0.0, 0.0, 1.7632260432806149E9, 0.0, 2025-11-15 12:00:43.280
23.0, -290.1676178621128, -208.177791133523, -225.5739357774146, 301.46211572829634, -0.01600000075995922, 0.2400000113993883, 1.008000047877431, 0.0, 0.0, 0.0, 0.0, 0.0, 1.7632260432806149E9, 0.0, 2025-11-15 12:00:43.280
24.0, -227.2587607074529, -164.57803745009005, -196.2643398246728, 335.54756392445415, -0.01600000075995922, 0.2400000113993883, 1.008000047877431, 0.0, 0.0, 0.0, 0.0, 0.0, 1.7632260432813263E9, 0.0, 2025-11-15 12:00:43.281
24.0, -354.35739075159654, -326.0164288873784, -384.50285434443504, 131.03300479752943, -0.01600000075995922, 0.2400000113993883, 1.008000047877431, 0.0, 0.0, 0.0, 0.0, 0.0, 1.7632260432813263E9, 0.0, 2025-11-15 12:00:43.281
25.0, -219.5134278992191, -133.55930721759796, -159.33656766219065, 361.77548231370747, -0.01600000075995922, 0.2400000113993883, 1.008000047877431, 0.0, 0.0, 0.0, 0.0, 0.0, 1.7632260432949643E9, 0.0, 2025-11-15 12:00:43.294
25.0, -283.26376254390925, -213.60438596922904, -235.4958903598599, 301.76130772475153, -0.01600000075995922, 0.2400000113993883, 1.008000047877431, 0.0, 0.0, 0.0, 0.0, 0.0, 1.7632260432949643E9, 0.0, 2025-11-15 12:00:43.294
26.0, -444.5974367824383, -413.12243875535205, -467.9662016555667, 542.4837082726881, -0.01600000075995922, 0.2400000113993883, 1.008000047877431, 0.0, 0.0, 0.0, 0.0, 0.0, 1.7632260433107178E9, 0.0, 2025-11-15 12:00:43.310
26.0, -567.5316882259212, -497.89849095093086, -532.0419075964019, 475.1954282699153, -0.01600000075995922, 0.2400000113993883, 1.008000047877431, 0.0, 0.0, 0.0, 0.0, 0.0, 1.7632260433107178E9, 0.0, 2025-11-15 12:00:43.310
27.0, -785.2013454469852, -704.8832539985888, -732.9979519154876, 294.2104497142136, -0.01600000075995922, 0.2400000113993883, 1.008000047877431, 0.0, 0.0, 0.0, 0.0, 0.0, 1.7632260433113236E9, 0.0, 2025-11-15 12:00:43.311
27.0, -571.9859090731479, -523.4270480484702, -574.5346508929506, 445.1303725261241, -0.01600000075995922, 0.2400000113993883, 1.008000047877431, 0.0, 0.0, 0.0, 0.0, 0.0, 1.7632260433113236E9, 0.0, 2025-11-15 12:00:43.311
28.0, -403.11820637388155, -361.9344280618243, -405.33035719767213, 593.4361052690074, -0.01600000075995922, 0.2400000113993883, 1.008000047877431, 0.0, 0.0, 0.0, 0.0, 0.0, 1.7632260433250084E9, 0.0, 2025-11-15 12:00:43.325
28.0, -287.38513229507953, -198.36803354974836, -221.7928969222121, 792.2697563632391, -0.01600000075995922, 0.2400000113993883, 1.008000047877431, 0.0, 0.0, 0.0, 0.0, 0.0, 1.7632260433250084E9, 0.0, 2025-11-15 12:00:43.325
29.0, -222.78210046049207, -156.54473234526813, -191.11823748564348, 836.2883788417093, -0.01600000075995922, 0.2400000113993883, 1.008000047877431, 0.0, 0.0, 0.0, 0.0, 0.0, 1.763226043340619E9, 0.0, 2025-11-15 12:00:43.340
29.0, -362.54403175460175, -317.470757488627, -379.67464350163937, 620.8196527445689, -0.01600000075995922, 0.2400000113993883, 1.008000047877431, 0.0, 0.0, 0.0, 0.0, 0.0, 1.763226043340619E9, 0.0, 2025-11-15 12:00:43.340
30.0, -216.4317503357306, -130.0213618595153, -152.4626315436326, 857.7666242872365, -0.01600000075995922, 0.2400000113993883, 1.008000047877431, 0.0, 0.0, 0.0, 0.0, 0.0, 1.7632260433413136E9, 0.0, 2025-11-15 12:00:43.341
30.0, -277.08170791715384, -201.89101930800825, -228.89122703811154, 798.0628613946028, -0.01600000075995922, 0.2400000113993883, 1.008000047877431, 0.0, 0.0, 0.0, 0.0, 0.0, 1.7632260433413136E9, 0.0, 2025-11-15 12:00:43.341
31.0, -441.95332751376554, -399.96921061119065, -457.42342368047684, 1039.5070626339875, -0.01600000075995922, 0.2400000113993883, 1.008000047877431, 0.0, 0.0, 0.0, 0.0, 0.0, 1.7632260433549516E9, 0.0, 2025-11-15 12:00:43.354
31.0, -558.7990218293853, -488.15605156635866, -520.3958591343835, 973.3444925178774, -0.01600000075995922, 0.2400000113993883, 1.008000047877431, 0.0, 0.0, 0.0, 0.0, 0.0, 1.7632260433549516E9, 0.0, 2025-11-15 12:00:43.354
32.0, -314.2525735767558, -722.9170515849255, -741.9325729096308, 775.0662165670656, -0.03200000151991844, 0.2400000113993883, 1.008000047877431, 0.0, 0.0, 0.0, 0.0, 0.0, 1.7632260433706558E9, 0.0, 2025-11-15 12:00:43.370
32.0, -96.22014605998993, -539.9574058526196, -586.2779367538169, 932.2878708043136, -0.03200000151991844, 0.2400000113993883, 1.008000047877431, 0.0, 0.0, 0.0, 0.0, 0.0, 1.7632260433706558E9, 0.0, 2025-11-15 12:00:43.370
33.0, 71.09549815766513, -368.54283128352836, -417.21949915681034, 1081.64077553479, -0.03200000151991844, 0.2400000113993883, 1.008000047877431, 0.0, 0.0, 0.0, 0.0, 0.0, 1.7632260433713176E9, 0.0, 2025-11-15 12:00:43.371
33.0, 215.0124583025463, -187.83647527452558, -208.87528247525916, 1302.1396670723334, -0.03200000151991844, 0.2400000113993883, 1.008000047877431, 0.0, 0.0, 0.0, 0.0, 0.0, 1.7632260433713176E9, 0.0, 2025-11-15 12:00:43.371
34.0, 264.23328161938116, -156.95612134039402, -188.8144591129385, 1334.9049305841327, -0.03200000151991844, 0.2400000113993883, 1.008000047877431, 0.0, 0.0, 0.0, 0.0, 0.0, 1.7632260433850276E9, 0.0, 2025-11-15 12:00:43.385
34.0, 128.095313382335, -327.82280056597665, -389.1926888888702, 1108.5194365163334, -0.03200000151991844, 0.2400000113993883, 1.008000047877431, 0.0, 0.0, 0.0, 0.0, 0.0, 1.7632260433850276E9, 0.0, 2025-11-15 12:00:43.385
35.0, 259.5808460745029, -128.77223527431488, -157.2422236870043, 1342.0668389992788, -0.03200000151991844, 0.2400000113993883, 1.008000047877431, 0.0, 0.0, 0.0, 0.0, 0.0, 1.7632260434006083E9, 0.0, 2025-11-15 12:00:43.400
35.0, 195.1872486374341, -211.90647138934582, -239.05253521772102, 1278.4548806529492, -0.03200000151991844, 0.2400000113993883, 1.008000047877431, 0.0, 0.0, 0.0, 0.0, 0.0, 1.7632260434006083E9, 0.0, 2025-11-15 12:00:43.400
36.0, 62.437629760243, -388.3231621491723, -448.4663632865995, 1051.0745731969364, -0.03200000151991844, 0.2400000113993883, 1.008000047877431, 0.0, 0.0, 0.0, 0.0, 0.0, 1.7632260434013147E9, 0.0, 2025-11-15 12:00:43.401
36.0, -77.83105797786266, -487.16497807810083, -525.5980599727482, 969.8215067596175, -0.03200000151991844, 0.2400000113993883, 1.008000047877431, 0.0, 0.0, 0.0, 0.0, 0.0, 1.7632260434013147E9, 0.0, 2025-11-15 12:00:43.401
37.0, -299.8128198478371, -701.9062936338596, -730.1518880492076, 785.5977748422883, -0.03200000151991844, 0.2400000113993883, 1.008000047877431, 0.0, 0.0, 0.0, 0.0, 0.0, 1.7632260434149485E9, 0.0, 2025-11-15 12:00:43.414
37.0, -104.48532496206462, -540.7988833426498, -595.949318039231, 914.6804218129255, -0.03200000151991844, 0.2400000113993883, 1.008000047877431, 0.0, 0.0, 0.0, 0.0, 0.0, 1.7632260434149485E9, 0.0, 2025-11-15 12:00:43.414
38.0, 76.26403989642859, -354.79495904641226, -407.5368981715292, 1086.7120798747055, -0.03200000151991844, 0.2400000113993883, 1.008000047877431, 0.0, 0.0, 0.0, 0.0, 0.0, 1.7632260434305968E9, 0.0, 2025-11-15 12:00:43.430
38.0, 200.16879537841305, -193.81657530367374, -219.63497464777902, 1290.7180126076564, -0.03200000151991844, 0.2400000113993883, 1.008000047877431, 0.0, 0.0, 0.0, 0.0, 0.0, 1.7632260434305968E9, 0.0, 2025-11-15 12:00:43.430
39.0, 278.1606690543704, -148.8480182364583, -192.27012667199597, 1328.7789744567126, -0.03200000151991844, 0.2400000113993883, 1.008000047877431, 0.0, 0.0, 0.0, 0.0, 0.0, 1.763226043431311E9, 0.0, 2025-11-15 12:00:43.431
39.0, 140.38462463673204, -308.9475254896097, -384.20740224793553, 1113.3439074591734, -0.03200000151991844, 0.2400000113993883, 1.008000047877431, 0.0, 0.0, 0.0, 0.0, 0.0, 1.763226043431311E9, 0.0, 2025-11-15 12:00:43.431
40.0, 286.36226965719834, -109.03678320813924, -144.9342129328288, 1356.0615446334705, -0.03200000151991844, 0.2400000113993883, 1.008000047877431, 0.0, 0.0, 0.0, 0.0, 0.0, 1.7632260434449542E9, 0.0, 2025-11-15 12:00:43.444
40.0, 214.1223621130921, -196.19889157544822, -226.89038056181744, 1289.6072623208165, -0.03200000151991844, 0.2400000113993883, 1.008000047877431, 0.0, 0.0, 0.0, 0.0, 0.0, 1.7632260434449542E9, 0.0, 2025-11-15 12:00:43.444
41.0, 43.614713283255696, -399.8420540126972, -463.3287257105112, 1532.6446609413251, -0.03200000151991844, 0.2400000113993883, 1.008000047877431, 0.0, 0.0, 0.0, 0.0, 0.0, 1.7632260434605932E9, 0.0, 2025-11-15 12:00:43.460
41.0, -67.23966130334884, -472.4559515523724, -512.4410919286311, 1475.3269542204216, -0.03200000151991844, 0.2400000113993883, 1.008000047877431, 0.0, 0.0, 0.0, 0.0, 0.0, 1.7632260434605932E9, 0.0, 2025-11-15 12:00:43.460
42.0, -304.7382680894807, -700.1672401544638, -726.1015763971955, 1278.0621911576018, -0.03200000151991844, 0.2400000113993883, 1.008000047877431, 0.0, 0.0, 0.0, 0.0, 0.0, 1.7632260434613156E9, 0.0, 2025-11-15 12:00:43.461
42.0, -104.05523646716028, -537.8181830779649, -590.6947586014867, 1405.0766734527424, -0.03200000151991844, 0.2400000113993883, 1.008000047877431, 0.0, 0.0, 0.0, 0.0, 0.0, 1.7632260434613156E9, 0.0, 2025-11-15 12:00:43.461
43.0, 79.98150045238435, -352.7006150712259, -406.9048550790176, 1574.7521945424378, -0.03200000151991844, 0.2400000113993883, 1.008000047877431, 0.0, 0.0, 0.0, 0.0, 0.0, 1.7632260434749477E9, 0.0, 2025-11-15 12:00:43.474
43.0, 201.447841163259, -190.7161982404068, -223.87602119753137, 1773.6793431355618, -0.03200000151991844, 0.2400000113993883, 1.008000047877431, 0.0, 0.0, 0.0, 0.0, 0.0, 1.7632260434749477E9, 0.0, 2025-11-15 12:00:43.474
44.0, 269.7720734537579, -151.38741030637175, -191.88117707660422, 1814.9379194467328, -0.03200000151991844, 0.2400000113993883, 1.008000047877431, 0.0, 0.0, 0.0, 0.0, 0.0, 1.763226043490604E9, 0.0, 2025-11-15 12:00:43.490
44.0, 120.76884936913848, -326.89904527692124, -390.83076506946236, 1591.5106862438843, -0.03200000151991844, 0.2400000113993883, 1.008000047877431, 0.0, 0.0, 0.0, 0.0, 0.0, 1.763226043490604E9, 0.0, 2025-11-15 12:00:43.490
45.0, 284.95606727385893, -118.08360120095313, -147.40254690358415, 1355.6763349380344, -0.03200000151991844, 0.2400000113993883, 1.008000047877431, 0.0, 0.0, 0.0, 0.0, 0.0, 1.76322604349131E9, 0.0, 2025-11-15 12:00:43.491
45.0, 210.0122120617889, -209.1389454221353, -238.95903771882877, 1285.6354885678738, -0.03200000151991844, 0.2400000113993883, 1.008000047877431, 0.0, 0.0, 0.0, 0.0, 0.0, 1.76322604349131E9, 0.0, 2025-11-15 12:00:43.491
46.0, 39.13431313633919, -407.86039951769635, -468.5271866489202, 1524.2224062411115, -0.03200000151991844, 0.2400000113993883, 1.008000047877431, 0.0, 0.0, 0.0, 0.0, 0.0, 1.7632260435049539E9, 0.0, 2025-11-15 12:00:43.504
46.0, -51.57322038896382, -466.77504351967946, -502.54905654583126, 1480.8171273553744, -0.03200000151991844, 0.2400000113993883, 1.008000047877431, 0.0, 0.0, 0.0, 0.0, 0.0, 1.7632260435049539E9, 0.0, 2025-11-15 12:00:43.504
47.0, 181.46181580005214, -224.89140403550118, -738.5442235497758, 1270.2345805503428, -0.03200000151991844, 0.2400000113993883, 1.008000047877431, 0.0, 0.0, 0.0, 0.0, 0.0, 1.7632260435206008E9, 0.0, 2025-11-15 12:00:43.520
47.0, 383.9811383006163, -53.11779907066375, -585.9413457578048, 1414.1309712454677, -0.03200000151991844, 0.2400000113993883, 1.008000047877431, 0.0, 0.0, 0.0, 0.0, 0.0, 1.7632260435206008E9, 0.0, 2025-11-15 12:00:43.520
48.0, 578.9870017901994, 137.81157346721739, -401.28004554565996, 1580.6425369726494, -0.03200000151991844, 0.2400000113993883, 1.008000047877431, 0.0, 0.0, 0.0, 0.0, 0.0, 1.7632260435213077E9, 0.0, 2025-11-15 12:00:43.521
48.0, 706.665316327475, 296.43756013782695, -219.29090385185555, 1779.816518962849, -0.03200000151991844, 0.2400000113993883, 1.008000047877431, 0.0, 0.0, 0.0, 0.0, 0.0, 1.7632260435213077E9, 0.0, 2025-11-15 12:00:43.521
49.0, 742.5234771026298, 318.18507838016376, -210.03465146152303, 1801.5752569050528, -0.03200000151991844, 0.2400000113993883, 1.008000047877431, 0.0, 0.0, 0.0, 0.0, 0.0, 1.7632260435349565E9, 0.0, 2025-11-15 12:00:43.534
49.0, 613.0836696862243, 155.98748725187033, -392.75307364668697, 1586.6749956011772, -0.03200000151991844, 0.2400000113993883, 1.008000047877431, 0.0, 0.0, 0.0, 0.0, 0.0, 1.7632260435349565E9, 0.0, 2025-11-15 12:00:43.534
50.0, 768.1305720992386, 368.595189882908, -632.7349740033969, 1365.3140571238473, -0.03200000151991844, 0.2400000113993883, 1.008000047877431, 0.0, 0.0, 0.0, 0.0, 0.0, 1.7632260435506873E9, 0.0, 2025-11-15 12:00:43.550
50.0, 686.9410839611664, 274.6302034961991, -728.9065013639629, 1277.0486782696098, -0.03200000151991844, 0.2400000113993883, 1.008000047877431, 0.0, 0.0, 0.0, 0.0, 0.0, 1.7632260435506873E9, 0.0, 2025-11-15 12:00:43.550
51.0, 527.578336999286, 76.25282019656152, -961.5974667570554, 1521.959766767919, -0.03200000151991844, 0.2400000113993883, 1.008000047877431, 0.0, 0.0, 0.0, 0.0, 0.0, 1.7632260435513248E9, 0.0, 2025-11-15 12:00:43.551
51.0, 445.7119269692339, 29.78082334715873, -983.4646617979743, 1484.3737722132355, -0.03200000151991844, 0.2400000113993883, 1.008000047877431, 0.0, 0.0, 0.0, 0.0, 0.0, 1.7632260435513248E9, 0.0, 2025-11-15 12:00:43.551
52.0, 673.3390678223222, 261.5143743515946, -743.3238156931475, 1246.8003674279898, -0.03200000151991844, 0.2400000113993883, 1.008000047877431, 0.0, 0.0, 0.0, 0.0, 0.0, 1.7632260435649323E9, 0.0, 2025-11-15 12:00:43.564
52.0, 885.0361048141494, 437.98529366077855, -589.2735966183245, 1409.8263463964686, -0.03200000151991844, 0.2400000113993883, 1.008000047877431, 0.0, 0.0, 0.0, 0.0, 0.0, 1.7632260435649323E9, 0.0, 2025-11-15 12:00:43.564
53.0, 1069.1027609333396, 632.0524422614835, -399.05854497198015, 1577.680536207743, -0.03200000151991844, 0.2400000113993883, 1.008000047877431, 0.0, 0.0, 0.0, 0.0, 0.0, 1.7632260435806005E9, 0.0, 2025-11-15 12:00:43.580
53.0, 1193.2169508128427, 789.8519110418856, -212.0803767372854, 1776.1476771063171, -0.03200000151991844, 0.2400000113993883, 1.008000047877431, 0.0, 0.0, 0.0, 0.0, 0.0, 1.7632260435806005E9, 0.0, 2025-11-15 12:00:43.580
54.0, 1242.3031377312727, 821.8953738622367, -197.0422390154563, 1802.7645450909622, -0.03200000151991844, 0.2400000113993883, 1.008000047877431, 0.0, 0.0, 0.0, 0.0, 0.0, 1.7632260435813031E9, 0.0, 2025-11-15 12:00:43.581
54.0, 1116.543391871266, 662.7158819981851, -379.1024388084188, 1598.762352257967, -0.03200000151991844, 0.2400000113993883, 1.008000047877431, 0.0, 0.0, 0.0, 0.0, 0.0, 1.7632260435813031E9, 0.0, 2025-11-15 12:00:43.581
55.0, 1264.4470853689127, 863.7261548666283, -149.14534028293565, 1840.1485850480385, -0.03200000151991844, 0.2400000113993883, 1.008000047877431, 0.0, 0.0, 0.0, 0.0, 0.0, 1.7632260435950398E9, 0.0, 2025-11-15 12:00:43.595
55.0, 1184.2748500187881, 766.0063089244068, -248.170411309693, 1756.9769499334507, -0.03200000151991844, 0.2400000113993883, 1.008000047877431, 0.0, 0.0, 0.0, 0.0, 0.0, 1.7632260435950398E9, 0.0, 2025-11-15 12:00:43.595
56.0, 1018.2102023363113, 562.0901337903924, -476.4557745549828, 1523.683860647492, -0.03200000151991844, 0.2400000113993883, 1.008000047877431, 0.0, 0.0, 0.0, 0.0, 0.0, 1.763226043610627E9, 0.0, 2025-11-15 12:00:43.610
56.0, 924.6379054449499, 506.6722962469794, -512.7776829246432, 1470.76427627448, -0.03200000151991844, 0.2400000113993883, 1.008000047877431, 0.0, 0.0, 0.0, 0.0, 0.0, 1.763226043610627E9, 0.0, 2025-11-15 12:00:43.610
57.0, 1167.7631917144172, 272.8911500168033, -731.7937041297555, 1269.3706636605784, -0.03200000151991844, 0.2400000113993883, 1.008000047877431, 0.0, 0.0, 0.0, 0.0, 0.0, 1.7632260436113224E9, 0.0, 2025-11-15 12:00:43.611
57.0, 1358.756142551545, 434.91483579715714, -593.7128578657284, 1408.397704613395, -0.03200000151991844, 0.2400000113993883, 1.008000047877431, 0.0, 0.0, 0.0, 0.0, 0.0, 1.7632260436113224E9, 0.0, 2025-11-15 12:00:43.611
58.0, 1545.695041836705, 619.2133657136001, -413.32626330293715, 1569.7893473012373, -0.03200000151991844, 0.2400000113993883, 1.008000047877431, 0.0, 0.0, 0.0, 0.0, 0.0, 1.763226043624968E9, 0.0, 2025-11-15 12:00:43.624
58.0, 1671.0733179012313, 782.4132500300184, -221.69939942331985, 1777.2023288938217, -0.03200000151991844, 0.2400000113993883, 1.008000047877431, 0.0, 0.0, 0.0, 0.0, 0.0, 1.763226043624968E9, 0.0, 2025-11-15 12:00:43.624
59.0, 1721.5694471029565, 807.552857532166, -207.51769879134372, 1802.502752094064, -0.03200000151991844, 0.2400000113993883, 1.008000047877431, 0.0, 0.0, 0.0, 0.0, 0.0, 1.7632260436406047E9, 0.0, 2025-11-15 12:00:43.640
59.0, 1585.3679005666636, 647.4570901789702, -397.7832390870899, 1591.3124715462327, -0.03200000151991844, 0.2400000113993883, 1.008000047877431, 0.0, 0.0, 0.0, 0.0, 0.0, 1.7632260436406047E9, 0.0, 2025-11-15 12:00:43.640
60.0, 1748.9455147786066, 854.4399832766503, -638.0867708399892, 1356.8357039242983, -0.03200000151991844, 0.2400000113993883, 1.008000047877431, 0.0, 0.0, 0.0, 0.0, 0.0, 1.7632260436413002E9, 0.0, 2025-11-15 12:00:43.641
60.0, 1681.1186891822144, 770.98411576543, -729.8152970531955, 1283.1185358976945, -0.03200000151991844, 0.2400000113993883, 1.008000047877431, 0.0, 0.0, 0.0, 0.0, 0.0, 1.7632260436413002E9, 0.0, 2025-11-15 12:00:43.641
61.0, 1498.0861154007725, 551.6445932141505, -972.7535883248784, 1506.8468310469761, -0.03200000151991844, 0.2400000113993883, 1.008000047877431, 0.0, 0.0, 0.0, 0.0, 0.0, 1.763226043654991E9, 0.0, 2025-11-15 12:00:43.654
61.0, 1418.759097440634, 504.6340507711284, -1004.6624147468247, 1472.2901554564014, -0.03200000151991844, 0.2400000113993883, 1.008000047877431, 0.0, 0.0, 0.0, 0.0, 0.0, 1.763226043654991E9, 0.0, 2025-11-15 12:00:43.654
62.0, 1655.7621674826369, 272.3675640230067, -1223.3792439554818, 1268.4282088717446, -0.03200000151991844, 0.2400000113993883, 1.008000047877431, 0.0, 0.0, 0.0, 0.0, 0.0, 1.7632260436705947E9, 0.0, 2025-11-15 12:00:43.670
62.0, 1824.3157185856253, 415.7029697247781, -1095.5270240702666, 1396.4562040548772, -0.03200000151991844, 0.2400000113993883, 1.008000047877431, 0.0, 0.0, 0.0, 0.0, 0.0, 1.7632260436705947E9, 0.0, 2025-11-15 12:00:43.670
63.0, 2050.2655143085867, 630.2311109830625, -890.2850544019602, 1585.1678159190342, -0.03200000151991844, 0.2400000113993883, 1.008000047877431, 0.0, 0.0, 0.0, 0.0, 0.0, 1.7632260436713235E9, 0.0, 2025-11-15 12:00:43.671
63.0, 2157.49405588815, 774.6828768216074, -717.5334655987099, 1772.9089237446897, -0.03200000151991844, 0.2400000113993883, 1.008000047877431, 0.0, 0.0, 0.0, 0.0, 0.0, 1.7632260436713235E9, 0.0, 2025-11-15 12:00:43.671
64.0, 2208.5773493829183, 802.5077324919403, -697.5324806356803, 1807.9256070298143, -0.03200000151991844, 0.2400000113993883, 1.008000047877431, 0.0, 0.0, 0.0, 0.0, 0.0, 1.7632260436849363E9, 0.0, 2025-11-15 12:00:43.684
64.0, 2067.9215819993988, 639.0797142782249, -894.0324341575615, 1589.1919482713565, -0.03200000151991844, 0.2400000113993883, 1.008000047877431, 0.0, 0.0, 0.0, 0.0, 0.0, 1.7632260436849363E9, 0.0, 2025-11-15 12:00:43.684
65.0, 2249.1253447025083, 869.9867473924533, -1115.7636227305047, 1369.8243764704093, -0.03200000151991844, 0.2400000113993883, 1.008000047877431, 0.0, 0.0, 0.0, 0.0, 0.0, 1.7632260437006495E9, 0.0, 2025-11-15 12:00:43.700
