%OpenBCI Raw EXG Data
%Number of channels = 4
%Sample Rate = 200 Hz
%Board = OpenBCI_GUI$BoardGanglionBLE
Sample Index, EXG Channel 0, EXG Channel 1, EXG Channel 2, EXG Channel 3, Accel Channel 0, Accel Channel 1, Accel Channel 2, Other, Other, Other, Other, Other, Timestamp, Marker Channel, Timestamp (Formatted)
85.0, -169.21551339514554, -148.3655711421743, -134.958029801026, -123.6897112345323, 0.0, 0.0, 0.0, 0.0, 0.0, 0.0, 0.0, 0.0, 1.7632264477422276E9, 0.0, 2025-11-15 12:07:27.742
85.0, 65.83345892000943, -15.984332410618663, 34.063008796423674, 12.730619449168444, 0.0, 0.0, 0.0, 0.0, 0.0, 0.0, 0.0, 0.0, 1.7632264477422276E9, 0.0, 2025-11-15 12:07:27.742
0.0, -243.95367410965264, -142.65474390983582, -170.7114733774215, -133.3199536204338, 0.0, 0.0, 0.0, 0.0, 0.0, 0.0, 0.0, 0.0, 1.7632264477717073E9, 0.0, 2025-11-15 12:07:27.771
1.0, -117.25334341078997, -45.44726426154375, -102.02073089126498, -79.36067705973983, 0.0, 0.2400000113993883, 0.0, 0.0, 0.0, 0.0, 0.0, 0.0, 1.7632264477851067E9, 0.0, 2025-11-15 12:07:27.785
1.0, -13.171927643939853, 57.52340121846646, 3.859576754271984, 23.565109620802104, 0.0, 0.2400000113993883, 0.0, 0.0, 0.0, 0.0, 0.0, 0.0, 1.7632264477851067E9, 0.0, 2025-11-15 12:07:27.785
2.0, -250.2254863353446, -139.1392379514873, -164.6715349489823, -130.51876855362207, -0.01600000075995922, 0.2400000113993883, 0.0, 0.0, 0.0, 0.0, 0.0, 0.0, 1.7632264478018243E9, 0.0, 2025-11-15 12:07:27.801
2.0, -204.3518734788522, -117.36554040946066, -162.88386277016252, -132.30270083248615, -0.01600000075995922, 0.2400000113993883, 0.0, 0.0, 0.0, 0.0, 0.0, 0.0, 1.7632264478018243E9, 0.0, 2025-11-15 12:07:27.801
3.0, 16.48173910472542, 75.43752200622112, 5.879122730344534, 14.551950727589428, -0.01600000075995922, 0.2400000113993883, 0.0, 0.0, 0.0, 0.0, 0.0, 0.0, 1.7632264478025696E9, 0.0, 2025-11-15 12:07:27.802
3.0, -200.75034982152283, -94.47735268063843, -120.18542497605085, -89.33125034160912, -0.01600000075995922, 0.2400000113993883, 0.0, 0.0, 0.0, 0.0, 0.0, 0.0, 1.7632264478025696E9, 0.0, 2025-11-15 12:07:27.802
4.0, -233.661469431594, -143.07361270487309, -179.55259687267244, -142.54254691116512, -0.01600000075995922, 0.2400000113993883, 0.0, 0.0, 0.0, 0.0, 0.0, 0.0, 1.7632264478149405E9, 0.0, 2025-11-15 12:07:27.814
4.0, -34.14154669549316, 33.93959209788591, -38.408772544935346, -23.157460525631905, -0.01600000075995922, 0.2400000113993883, 0.0, 0.0, 0.0, 0.0, 0.0, 0.0, 1.7632264478149405E9, 0.0, 2025-11-15 12:07:27.814
5.0, -108.61043461319059, -14.783824524842203, -48.73463632259518, -27.00207768008113, -0.01600000075995922, 0.2400000113993883, 0.0, 0.0, 0.0, 0.0, 0.0, 0.0, 1.7632264478306224E9, 0.0, 2025-11-15 12:07:27.830
5.0, -233.63529013190418, -129.70721026323736, -163.84127715881914, -130.1746977576986, -0.01600000075995922, 0.2400000113993883, 0.0, 0.0, 0.0, 0.0, 0.0, 0.0, 1.7632264478306224E9, 0.0, 2025-11-15 12:07:27.830
6.0, -89.3013311419636, -15.445786816999316, -78.59773746877909, -48.70845702290535, -0.01600000075995922, 0.2400000113993883, 0.0, 0.0, 0.0, 0.0, 0.0, 0.0, 1.7632264478313267E9, 0.0, 2025-11-15 12:07:27.831
6.0, -9.23755289055407, 71.34607145469636, 21.216452448628843, 31.205725230276585, -0.01600000075995922, 0.2400000113993883, 0.0, 0.0, 0.0, 0.0, 0.0, 0.0, 1.7632264478313267E9, 0.0, 2025-11-15 12:07:27.831
7.0, -230.01880687475204, -111.85292787477374, -137.90133106615394, -105.68583284784108, -0.01600000075995922, 0.2400000113993883, 0.0, 0.0, 0.0, 0.0, 0.0, 0.0, 1.7632264478613195E9, 0.0, 2025-11-15 12:07:27.861
7.0, -167.79435141198337, -69.38262397795916, -112.28675626963377, -80.5574450455606, -0.01600000075995922, 0.2400000113993883, 0.0, 0.0, 0.0, 0.0, 0.0, 0.0, 1.7632264478613195E9, 0.0, 2025-11-15 12:07:27.861
8.0, 46.064347754232585, 112.68692556489259, 48.77951512206346, 56.68566362839192, -0.01600000075995922, 0.2400000113993883, 0.0, 0.0, 0.0, 0.0, 0.0, 0.0, 1.7632264478620384E9, 0.0, 2025-11-15 12:07:27.862
8.0, -180.6745668593794, -69.18814918026328, -83.53440541028976, -57.64681791700423, -0.01600000075995922, 0.2400000113993883, 0.0, 0.0, 0.0, 0.0, 0.0, 0.0, 1.7632264478620384E9, 0.0, 2025-11-15 12:07:27.862
9.0, -212.75168877933174, -107.74277782347053, -138.01726796478033, -109.10036150738597, -0.01600000075995922, 0.2400000113993883, 0.0, 0.0, 0.0, 0.0, 0.0, 0.0, 1.7632264478627813E9, 0.0, 2025-11-15 12:07:27.862
9.0, -10.520338575355709, 59.98799528926611, -11.305717566050589, -11.848003059625626, -0.01600000075995922, 0.2400000113993883, 0.0, 0.0, 0.0, 0.0, 0.0, 0.0, 1.7632264478627813E9, 0.0, 2025-11-15 12:07:27.862
10.0, -91.57519031502306, 13.186887243762612, -18.17591378465295, -0.14211619831621647, -0.01600000075995922, 0.2400000113993883, 1.0240000486373901, 0.0, 0.0, 0.0, 0.0, 0.0, 1.7632264478749537E9, 0.0, 2025-11-15 12:07:27.874
10.0, -242.4876333270222, -126.30390130355954, -156.29041914828122, -119.4262252850458, -0.01600000075995922, 0.2400000113993883, 1.0240000486373901, 0.0, 0.0, 0.0, 0.0, 0.0, 1.7632264478749537E9, 0.0, 2025-11-15 12:07:27.874
11.0, -106.22811834141612, -25.468718698248267, -85.62126958556473, -69.34896487835795, -0.01600000075995922, 0.12800000607967377, 1.0240000486373901, 0.0, 0.0, 0.0, 0.0, 0.0, 1.7632264478906474E9, 0.0, 2025-11-15 12:07:27.890
11.0, -2.4683339707553387, 79.00912646390498, 24.54496340919286, 32.350134616717696, -0.01600000075995922, 0.12800000607967377, 1.0240000486373901, 0.0, 0.0, 0.0, 0.0, 0.0, 1.7632264478906474E9, 0.0, 2025-11-15 12:07:27.890
12.0, -230.9201227640733, -117.25708331074566, -145.6242244746536, -113.24791055824608, -0.01600000075995922, 0.12800000607967377, 1.0240000486373901, 0.0, 0.0, 0.0, 0.0, 0.0, 1.7632264478913736E9, 0.0, 2025-11-15 12:07:27.891
12.0, -180.92140025645494, -91.92674091085792, -136.27821448538452, -106.78536343481392, -0.01600000075995922, 0.12800000607967377, 1.0240000486373901, 0.0, 0.0, 0.0, 0.0, 0.0, 1.7632264478913736E9, 0.0, 2025-11-15 12:07:27.891
13.0, 20.94343975186348, 98.16489403694868, 29.563909149728715, 44.56090797204524, -0.01600000075995922, 0.12800000607967377, 1.0240000486373901, 0.0, 0.0, 0.0, 0.0, 0.0, 1.76322644790495E9, 0.0, 2025-11-15 12:07:27.904
13.0, -191.29588273353875, -77.12795678619295, -106.61706793680787, -82.3002384249121, -0.01600000075995922, 0.12800000607967377, 1.0240000486373901, 0.0, 0.0, 0.0, 0.0, 0.0, 1.76322644790495E9, 0.0, 2025-11-15 12:07:27.904
14.0, -245.0756440963596, -142.8118197079748, -184.6089416127652, -160.57260459754616, -0.01600000075995922, 0.12800000607967377, 1.0240000486373901, 0.0, 0.0, 0.0, 0.0, 0.0, 1.7632264479206333E9, 0.0, 2025-11-15 12:07:27.920
14.0, -23.68852631933987, 37.268103058449924, -33.89471329841763, -25.902547093108296, -0.01600000075995922, 0.12800000607967377, 1.0240000486373901, 0.0, 0.0, 0.0, 0.0, 0.0, 1.7632264479206333E9, 0.0, 2025-11-15 12:07:27.920
15.0, -98.71091943047941, -6.159615227021277, -43.12478638906032, -22.98542512767017, -0.01600000075995922, 0.12800000607967377, 1.0240000486373901, 0.0, 0.0, 0.0, 0.0, 0.0, 1.7632264479213405E9, 0.0, 2025-11-15 12:07:27.921
15.0, -254.50393188465387, -148.64232373889536, -177.32735639903694, -145.1829162798822, -0.01600000075995922, 0.12800000607967377, 1.0240000486373901, 0.0, 0.0, 0.0, 0.0, 0.0, 1.7632264479213405E9, 0.0, 2025-11-15 12:07:27.921
16.0, -125.96731030754745, -48.42422462627292, -102.5667562847957, -75.24304720852524, -0.01600000075995922, 0.12800000607967377, 1.0240000486373901, 0.0, 0.0, 0.0, 0.0, 0.0, 1.7632264479513338E9, 0.0, 2025-11-15 12:07:27.951
16.0, -11.65352826192975, 64.33749893773347, 11.466533264145255, 24.5300038093701, -0.01600000075995922, 0.12800000607967377, 1.0240000486373901, 0.0, 0.0, 0.0, 0.0, 0.0, 1.7632264479513338E9, 0.0, 2025-11-15 12:07:27.951
17.0, 225.315882680472, -152.46076159365475, -173.4116811454296, -148.26459384337068, -0.01600000075995922, 0.12800000607967377, 1.0240000486373901, 0.0, 0.0, 0.0, 0.0, 0.0, 1.7632264479520285E9, 0.0, 2025-11-15 12:07:27.952
17.0, 291.0782835013233, -115.83966122753918, -158.02573272772133, -131.3265869440511, -0.01600000075995922, 0.12800000607967377, 1.0240000486373901, 0.0, 0.0, 0.0, 0.0, 0.0, 1.7632264479520285E9, 0.0, 2025-11-15 12:07:27.952
18.0, 504.0805455776863, 78.64635616820306, 11.197260467335582, 21.30994994752109, -0.01600000075995922, 0.12800000607967377, 1.0240000486373901, 0.0, 0.0, 0.0, 0.0, 0.0, 1.7632264479527578E9, 0.0, 2025-11-15 12:07:27.952
18.0, 295.39786795014516, -92.28577130660415, -118.8727200916037, -98.09757583774626, -0.01600000075995922, 0.12800000607967377, 1.0240000486373901, 0.0, 0.0, 0.0, 0.0, 0.0, 1.7632264479527578E9, 0.0, 2025-11-15 12:07:27.952
19.0, 236.55428204732016, -153.43687548208982, -190.4618850434199, -158.186548425816, -0.01600000075995922, 0.12800000607967377, 1.0240000486373901, 0.0, 0.0, 0.0, 0.0, 0.0, 1.7632264479649844E9, 0.0, 2025-11-15 12:07:27.964
19.0, 450.4952590125613, 28.307302764616907, -40.9444247148931, -35.84694107528776, -0.01600000075995922, 0.12800000607967377, 1.0240000486373901, 0.0, 0.0, 0.0, 0.0, 0.0, 1.7632264479649844E9, 0.0, 2025-11-15 12:07:27.964
20.0, 376.8229697854258, -14.207879931665957, -47.94177753198892, -28.094128467142582, -0.01600000075995922, 0.12800000607967377, 0.5440000258386135, 0.0, 0.0, 0.0, 0.0, 0.0, 1.763226447980672E9, 0.0, 2025-11-15 12:07:27.980
20.0, 233.04999578883871, -146.18894936796278, -178.94673307985067, -144.63689088635147, -0.01600000075995922, 0.12800000607967377, 0.5440000258386135, 0.0, 0.0, 0.0, 0.0, 0.0, 1.763226447980672E9, 0.0, 2025-11-15 12:07:27.980
21.0, 358.2281872057356, -60.515321183018386, -119.34394748602062, -101.972112191841, -0.01600000075995922, 0.19200000911951065, 0.5440000258386135, 0.0, 0.0, 0.0, 0.0, 0.0, 1.7632264479813347E9, 0.0, 2025-11-15 12:07:27.981
21.0, 479.07183457398787, 64.18790293950588, 6.585963821969926, 10.07529048062861, -0.01600000075995922, 0.19200000911951065, 0.5440000258386135, 0.0, 0.0, 0.0, 0.0, 0.0, 1.7632264479813347E9, 0.0, 2025-11-15 12:07:27.981
22.0, 239.48636361258104, -150.16446302086115, -173.75575194135308, -145.26145417895168, -0.01600000075995922, 0.19200000911951065, 0.5440000258386135, 0.0, 0.0, 0.0, 0.0, 0.0, 1.7632264479949992E9, 0.0, 2025-11-15 12:07:27.994
22.0, 300.51405108952895, -109.12280090712011, -156.97108094021678, -124.2058174284175, -0.01600000075995922, 0.19200000911951065, 0.5440000258386135, 0.0, 0.0, 0.0, 0.0, 0.0, 1.7632264479949992E9, 0.0, 2025-11-15 12:07:27.994
23.0, 507.49881413718686, 81.1520891385153, 7.64061560947448, 18.789257377386093, -0.01600000075995922, 0.19200000911951065, 0.5440000258386135, 0.0, 0.0, 0.0, 0.0, 0.0, 1.7632264480106523E9, 0.0, 2025-11-15 12:07:28.010
23.0, 291.65048819454387, -88.98717954568565, -118.77174279280007, -90.21386673115194, -0.01600000075995922, 0.19200000911951065, 0.5440000258386135, 0.0, 0.0, 0.0, 0.0, 0.0, 1.7632264480106523E9, 0.0, 2025-11-15 12:07:28.010
24.0, 242.82983417296782, -151.41358960606158, -185.3083029044792, -144.7004691855982, -0.01600000075995922, 0.19200000911951065, 0.5440000258386135, 0.0, 0.0, 0.0, 0.0, 0.0, 1.763226448011328E9, 0.0, 2025-11-15 12:07:28.011
24.0, 476.9774905988015, 45.18547126464546, -27.981931468471885, -24.795536706224084, -0.01600000075995922, 0.19200000911951065, 0.5440000258386135, 0.0, 0.0, 0.0, 0.0, 0.0, 1.763226448011328E9, 0.0, 2025-11-15 12:07:28.011
25.0, 386.8010228672065, -20.446033057756722, -57.81885331496596, -35.52156977914274, -0.01600000075995922, 0.19200000911951065, 0.5440000258386135, 0.0, 0.0, 0.0, 0.0, 0.0, 1.763226448024973E9, 0.0, 2025-11-15 12:07:28.024
25.0, 237.59771413495764, -149.9213695237413, -178.58396278414875, -144.02354729361832, -0.01600000075995922, 0.19200000911951065, 0.5440000258386135, 0.0, 0.0, 0.0, 0.0, 0.0, 1.763226448024973E9, 0.0, 2025-11-15 12:07:28.024
26.0, 379.2426850567572, -42.915351991541684, -104.50776436179876, -93.91636768728495, -0.01600000075995922, 0.19200000911951065, 0.5440000258386135, 0.0, 0.0, 0.0, 0.0, 0.0, 1.7632264480406847E9, 0.0, 2025-11-15 12:07:28.040
26.0, 494.5961592900567, 81.32786443643272, 27.877214269712567, 32.09208151977509, -0.01600000075995922, 0.19200000911951065, 0.5440000258386135, 0.0, 0.0, 0.0, 0.0, 0.0, 1.7632264480406847E9, 0.0, 2025-11-15 12:07:28.040
27.0, 734.4602527981624, -131.63325874041766, -159.19632141385227, -133.48450921848416, -0.01600000075995922, 0.19200000911951065, 0.5440000258386135, 0.0, 0.0, 0.0, 0.0, 0.0, 1.763226448041341E9, 0.0, 2025-11-15 12:07:28.041
27.0, 778.8528652722016, -111.6472333772108, -160.6287030968815, -138.05840686429292, -0.01600000075995922, 0.19200000911951065, 0.5440000258386135, 0.0, 0.0, 0.0, 0.0, 0.0, 1.763226448041341E9, 0.0, 2025-11-15 12:07:28.041
28.0, 1023.7415143707767, 96.76991135347635, 20.030904162675142, 15.352289318107069, -0.01600000075995922, 0.19200000911951065, 0.5440000258386135, 0.0, 0.0, 0.0, 0.0, 0.0, 1.7632264480550153E9, 0.0, 2025-11-15 12:07:28.055
28.0, 804.0410914737731, -72.65129653923213, -103.77848387043923, -80.35923034790903, -0.01600000075995922, 0.19200000911951065, 0.5440000258386135, 0.0, 0.0, 0.0, 0.0, 0.0, 1.7632264480550153E9, 0.0, 2025-11-15 12:07:28.055
29.0, 727.8219303768128, -151.95213519968092, -191.99898392520845, -160.20983430184424, -0.01600000075995922, 0.19200000911951065, 0.5440000258386135, 0.0, 0.0, 0.0, 0.0, 0.0, 1.7632264480707543E9, 0.0, 2025-11-15 12:07:28.070
29.0, 489.04988765576854, 59.85709879081696, -17.050203897990286, -10.262285478413105, -0.01600000075995922, 0.19200000911951065, 0.5440000258386135, 0.0, 0.0, 0.0, 0.0, 0.0, 1.7632264480707543E9, 0.0, 2025-11-15 12:07:28.070
30.0, 397.9833237347193, 8.313797601498663, -33.06819540821016, -21.246371648274362, -0.01600000075995922, 0.19200000911951065, 0.7840000372380018, 0.0, 0.0, 0.0, 0.0, 0.0, 1.763226448071363E9, 0.0, 2025-11-15 12:07:28.071
30.0, 229.41107313195243, -152.50564039312303, -186.04506319575012, -149.50250072870404, -0.01600000075995922, 0.19200000911951065, 0.7840000372380018, 0.0, 0.0, 0.0, 0.0, 0.0, 1.763226448071363E9, 0.0, 2025-11-15 12:07:28.071
31.0, 379.0182910594158, -37.39899955689907, -106.4936512382701, -96.47445925697684, -0.01600000075995922, 0.2240000106394291, 0.7840000372380018, 0.0, 0.0, 0.0, 0.0, 0.0, 1.763226448084956E9, 0.0, 2025-11-15 12:07:28.084
31.0, 502.38637089775875, 91.03664472140372, 32.032243120484054, 41.74850320536643, -0.01600000075995922, 0.2240000106394291, 0.7840000372380018, 0.0, 0.0, 0.0, 0.0, 0.0, 1.763226448084956E9, 0.0, 2025-11-15 12:07:28.084
32.0, 732.9268938163295, -133.10677932295948, -160.93911479320377, -134.5466408059001, -0.01600000075995922, 0.2240000106394291, 0.7840000372380018, 0.0, 0.0, 0.0, 0.0, 0.0, 1.7632264481006315E9, 0.0, 2025-11-15 12:07:28.100
32.0, 773.3701719371602, -117.0551287131384, -162.72678697202355, -129.25468236859888, -0.01600000075995922, 0.2240000106394291, 0.7840000372380018, 0.0, 0.0, 0.0, 0.0, 0.0, 1.7632264481006315E9, 0.0, 2025-11-15 12:07:28.100
33.0, 532.0362977464683, 103.98417836800218, 22.11402843799442, 27.088095379061997, -0.01600000075995922, 0.2240000106394291, 0.7840000372380018, 0.0, 0.0, 0.0, 0.0, 0.0, 1.7632264481013362E9, 0.0, 2025-11-15 12:07:28.101
33.0, 300.51031118957326, -81.5933973332867, -113.3862868566066, -88.32521725352854, -0.01600000075995922, 0.2240000106394291, 0.7840000372380018, 0.0, 0.0, 0.0, 0.0, 0.0, 1.7632264481013362E9, 0.0, 2025-11-15 12:07:28.101
34.0, 241.07956099370494, -148.30947264283895, -189.67276615276933, -155.0786915626377, -0.01600000075995922, 0.2240000106394291, 0.7840000372380018, 0.0, 0.0, 0.0, 0.0, 0.0, 1.7632264481149497E9, 0.0, 2025-11-15 12:07:28.114
34.0, 457.39537443080917, 33.87601379863918, -38.91365903895348, -24.874074605293572, -0.01600000075995922, 0.2240000106394291, 0.7840000372380018, 0.0, 0.0, 0.0, 0.0, 0.0, 1.7632264481149497E9, 0.0, 2025-11-15 12:07:28.114
35.0, 381.92793322494254, -14.387395129539073, -55.54125424195081, -31.37028082832694, -0.01600000075995922, 0.2240000106394291, 0.7840000372380018, 0.0, 0.0, 0.0, 0.0, 0.0, 1.7632264481306624E9, 0.0, 2025-11-15 12:07:28.130
35.0, 225.8245090744458, -162.79784507118165, -200.615713423118, -157.21043453738093, -0.01600000075995922, 0.2240000106394291, 0.7840000372380018, 0.0, 0.0, 0.0, 0.0, 0.0, 1.7632264481306624E9, 0.0, 2025-11-15 12:07:28.130
36.0, 361.4445011676289, -52.42217767890543, -120.907225667499, -98.35188903473318, -0.01600000075995922, 0.2240000106394291, 0.7840000372380018, 0.0, 0.0, 0.0, 0.0, 0.0, 1.7632264481313517E9, 0.0, 2025-11-15 12:07:28.131
36.0, 493.45548980357125, 74.64466321561486, 8.134282403625548, 26.485971486195922, -0.01600000075995922, 0.2240000106394291, 0.7840000372380018, 0.0, 0.0, 0.0, 0.0, 0.0, 1.7632264481313517E9, 0.0, 2025-11-15 12:07:28.131
37.0, 704.3764975545928, -165.47935333941132, -195.78750258032233, -154.05769887473434, -0.01600000075995922, 0.2240000106394291, 0.7840000372380018, 0.0, 0.0, 0.0, 0.0, 0.0, 1.7632264481450105E9, 0.0, 2025-11-15 12:07:28.145
37.0, 747.9463320383802, -143.76175429672003, -197.4255787609145, -151.95587509963661, -0.01600000075995922, 0.2240000106394291, 0.7840000372380018, 0.0, 0.0, 0.0, 0.0, 0.0, 1.7632264481450105E9, 0.0, 2025-11-15 12:07:28.145
38.0, 525.7757052206434, 96.31364355888218, 17.73834548983723, 20.442293157801032, -0.01600000075995922, 0.2240000106394291, 0.7840000372380018, 0.0, 0.0, 0.0, 0.0, 0.0, 1.763226448160632E9, 0.0, 2025-11-15 12:07:28.160
38.0, 286.9643935500644, -100.31159661151469, -134.7672949032858, -104.31328956410289, -0.01600000075995922, 0.2240000106394291, 0.7840000372380018, 0.0, 0.0, 0.0, 0.0, 0.0, 1.763226448160632E9, 0.0, 2025-11-15 12:07:28.160
39.0, 216.80013048136607, -179.4142205743119, -220.24270839057863, -177.79484389349818, -0.01600000075995922, 0.2240000106394291, 0.7840000372380018, 0.0, 0.0, 0.0, 0.0, 0.0, 1.7632264481613305E9, 0.0, 2025-11-15 12:07:28.161
39.0, -26.650527084246278, 30.390427039936185, -51.25158899277449, -32.765263511799276, -0.01600000075995922, 0.2240000106394291, 0.7840000372380018, 0.0, 0.0, 0.0, 0.0, 0.0, 1.7632264481613305E9, 0.0, 2025-11-15 12:07:28.161
40.0, -111.10120798368007, -25.446279298514128, -66.79835310857743, -33.93959209788591, -0.01600000075995922, 0.2240000106394291, 0.8960000425577164, 0.0, 0.0, 0.0, 0.0, 0.0, 1.7632264481749804E9, 0.0, 2025-11-15 12:07:28.174
40.0, -267.937652525492, -163.68794126063585, -200.39879922568798, -152.31864539533854, -0.01600000075995922, 0.2240000106394291, 0.8960000425577164, 0.0, 0.0, 0.0, 0.0, 0.0, 1.7632264481749804E9, 0.0, 2025-11-15 12:07:28.174
41.0, -126.81626759748906, -59.389611296355724, -127.01448229514062, -94.32027688249946, -0.01600000075995922, 0.2240000106394291, 0.8960000425577164, 0.0, 0.0, 0.0, 0.0, 0.0, 1.7632264481906276E9, 0.0, 2025-11-15 12:07:28.190
41.0, -11.350596365518868, 56.592166129499674, -5.673428232781589, 1.533358981832862, -0.01600000075995922, 0.2240000106394291, 0.8960000425577164, 0.0, 0.0, 0.0, 0.0, 0.0, 1.7632264481906276E9, 0.0, 2025-11-15 12:07:28.190
42.0, 218.1951131648384, -167.2670255182311, -202.23883000388741, -168.39273540489376, -0.01600000075995922, 0.2240000106394291, 0.8960000425577164, 0.0, 0.0, 0.0, 0.0, 0.0, 1.7632264481913352E9, 0.0, 2025-11-15 12:07:28.191
42.0, 279.9670407329686, -130.2120967572555, -181.63198124803603, -140.70625603292137, -0.01600000075995922, 0.2240000106394291, 0.8960000425577164, 0.0, 0.0, 0.0, 0.0, 0.0, 1.7632264481913352E9, 0.0, 2025-11-15 12:07:28.191
43.0, 522.2751588621177, 96.02567126229405, 16.777191201224923, 20.629288155585527, -0.01600000075995922, 0.2240000106394291, 0.8960000425577164, 0.0, 0.0, 0.0, 0.0, 0.0, 1.7632264482050242E9, 0.0, 2025-11-15 12:07:28.205
43.0, 285.2365597705357, -95.83493636455387, -129.81566736195236, -95.19915337208658, -0.01600000075995922, 0.2240000106394291, 0.8960000425577164, 0.0, 0.0, 0.0, 0.0, 0.0, 1.7632264482050242E9, 0.0, 2025-11-15 12:07:28.205
44.0, 225.43181957909837, -171.66888776607811, -213.12567877490073, -173.5238781441003, -0.01600000075995922, 0.2240000106394291, 0.8960000425577164, 0.0, 0.0, 0.0, 0.0, 0.0, 1.7632264482206166E9, 0.0, 2025-11-15 12:07:28.220
44.0, -13.631935338489711, 37.627133454196155, -45.74645625799894, -32.765263511799276, -0.01600000075995922, 0.2240000106394291, 0.8960000425577164, 0.0, 0.0, 0.0, 0.0, 0.0, 1.7632264482206166E9, 0.0, 2025-11-15 12:07:28.220
45.0, -110.88803368620574, -12.663301249966025, -56.05736043583602, -35.88807997480035, -0.01600000075995922, 0.2240000106394291, 0.8960000425577164, 0.0, 0.0, 0.0, 0.0, 0.0, 1.763226448221324E9, 0.0, 2025-11-15 12:07:28.221
45.0, -273.5026236595586, -166.0814772322774, -203.38323939032853, -164.1853479547426, -0.01600000075995922, 0.2240000106394291, 0.8960000425577164, 0.0, 0.0, 0.0, 0.0, 0.0, 1.763226448221324E9, 0.0, 2025-11-15 12:07:28.221
46.0, -129.2883414682001, -53.734882563352585, -118.40523259714246, -88.05594445671886, -0.01600000075995922, 0.2240000106394291, 0.8960000425577164, 0.0, 0.0, 0.0, 0.0, 0.0, 1.7632264482349792E9, 0.0, 2025-11-15 12:07:28.234
46.0, -5.202200838364661, 72.11649084556848, 6.002539428882301, 10.823270471766591, -0.01600000075995922, 0.2240000106394291, 0.8960000425577164, 0.0, 0.0, 0.0, 0.0, 0.0, 1.7632264482349792E9, 0.0, 2025-11-15 12:07:28.234
47.0, -249.64954174216837, -150.38885701820254, -185.9029469974339, -154.4017696706578, -0.01600000075995922, 0.2240000106394291, 0.8960000425577164, 0.0, 0.0, 0.0, 0.0, 0.0, 1.763226448250776E9, 0.0, 2025-11-15 12:07:28.250
47.0, -218.86268530692905, -134.08289321139455, -185.16992660611868, -142.00026141759008, -0.01600000075995922, 0.2240000106394291, 0.8960000425577164, 0.0, 0.0, 0.0, 0.0, 0.0, 1.763226448250776E9, 0.0, 2025-11-15 12:07:28.250
48.0, -446.4636468603276, 99.1559675252065, 13.635675238445401, 24.002677915617824, -0.01600000075995922, 0.2240000106394291, 0.8960000425577164, 0.0, 0.0, 0.0, 0.0, 0.0, 1.7632264482513256E9, 0.0, 2025-11-15 12:07:28.251
48.0, -206.46117705386132, -101.22787210065871, -143.2531279027462, -111.91650617402047, -0.01600000075995922, 0.2240000106394291, 0.8960000425577164, 0.0, 0.0, 0.0, 0.0, 0.0, 1.7632264482513256E9, 0.0, 2025-11-15 12:07:28.251
49.0, -255.98493226710707, -166.33205052930862, -214.4683028589934, -174.24567883554846, -0.01600000075995922, 0.2240000106394291, 0.8960000425577164, 0.0, 0.0, 0.0, 0.0, 0.0, 1.7632264482649665E9, 0.0, 2025-11-15 12:07:28.264
49.0, -12.84655634779483, 41.06410151347518, -45.16303186491132, -28.299822964705527, -0.01600000075995922, 0.2240000106394291, 0.8960000425577164, 0.0, 0.0, 0.0, 0.0, 0.0, 1.7632264482649665E9, 0.0, 2025-11-15 12:07:28.264
50.0, -101.68413989525288, -15.797337412834167, -68.73188138566911, -40.013189625926316, -0.01600000075995922, 0.2240000106394291, 0.9600000455975533, 0.0, 0.0, 0.0, 0.0, 0.0, 1.7632264482804232E9, 0.0, 2025-11-15 12:07:28.280
50.0, -259.2685644282028, -156.64944954402745, -200.7653094213456, -156.84392434172332, -0.01600000075995922, 0.2240000106394291, 0.9600000455975533, 0.0, 0.0, 0.0, 0.0, 0.0, 1.7632264482804232E9, 0.0, 2025-11-15 12:07:28.280
51.0, -131.53228144161403, -55.84418613836169, -129.5389147652313, -99.55613682046533, -0.01600000075995922, 0.2400000113993883, 0.9600000455975533, 0.0, 0.0, 0.0, 0.0, 0.0, 1.7632264482956169E9, 0.0, 2025-11-15 12:07:28.295
51.0, 3.6800615563988686, 71.19273555651307, 1.1444093864411116, 19.851388964802027, -0.01600000075995922, 0.2400000113993883, 0.9600000455975533, 0.0, 0.0, 0.0, 0.0, 0.0, 1.7632264482956169E9, 0.0, 2025-11-15 12:07:28.295
52.0, 242.5418618763797, -146.5928585631773, -187.07727558352053, -149.3678643302992, -0.01600000075995922, 0.2400000113993883, 0.9600000455975533, 0.0, 0.0, 0.0, 0.0, 0.0, 1.7632264482963192E9, 0.0, 2025-11-15 12:07:28.296
52.0, 275.2285874891095, -129.93908406049013, -190.15147334709764, -149.58103862777352, -0.01600000075995922, 0.2400000113993883, 0.9600000455975533, 0.0, 0.0, 0.0, 0.0, 0.0, 1.7632264482963192E9, 0.0, 2025-11-15 12:07:28.296
53.0, 37.91136585082859, 87.39772206451744, 1.2566063851118088, 13.25046554300934, -0.01600000075995922, 0.2400000113993883, 0.9600000455975533, 0.0, 0.0, 0.0, 0.0, 0.0, 1.7632264483107936E9, 0.0, 2025-11-15 12:07:28.310
53.0, -203.34958029072732, -102.69391288328916, -141.14756422769278, -99.76183131802827, -0.01600000075995922, 0.2400000113993883, 0.9600000455975533, 0.0, 0.0, 0.0, 0.0, 0.0, 1.7632264483107936E9, 0.0, 2025-11-15 12:07:28.310
54.0, -240.50174645055085, -155.4452017582953, -199.5012232363224, -148.90411673579365, -0.01600000075995922, 0.2400000113993883, 0.9600000455975533, 0.0, 0.0, 0.0, 0.0, 0.0, 1.7632264483113403E9, 0.0, 2025-11-15 12:07:28.311
54.0, -39.30260863434523, 27.43590607494116, -56.41639083158225, -37.44013845641166, -0.01600000075995922, 0.2400000113993883, 0.9600000455975533, 0.0, 0.0, 0.0, 0.0, 0.0, 1.7632264483113403E9, 0.0, 2025-11-15 12:07:28.311
55.0, -113.37132725678384, -20.214159260503948, -71.24883405584842, -34.60529428999871, -0.01600000075995922, 0.2400000113993883, 0.9600000455975533, 0.0, 0.0, 0.0, 0.0, 0.0, 1.7632264483249547E9, 0.0, 2025-11-15 12:07:28.324
55.0, -264.7624774631113, -159.20006131380796, -201.49085001274943, -157.98085392825305, -0.01600000075995922, 0.2400000113993883, 0.9600000455975533, 0.0, 0.0, 0.0, 0.0, 0.0, 1.7632264483249547E9, 0.0, 2025-11-15 12:07:28.324
56.0, -128.31222757976502, -56.509888330474496, -126.0608078064397, -101.36250849906355, -0.01600000075995922, 0.2400000113993883, 0.9600000455975533, 0.0, 0.0, 0.0, 0.0, 0.0, 1.7632264483408127E9, 0.0, 2025-11-15 12:07:28.340
56.0, -10.636275473982096, 60.02165438886732, -10.08277028053999, 7.752812608145177, -0.01600000075995922, 0.2400000113993883, 0.9600000455975533, 0.0, 0.0, 0.0, 0.0, 0.0, 1.7632264483408127E9, 0.0, 2025-11-15 12:07:28.340
57.0, -245.29629819374532, -144.07590589299798, -181.0522967549041, -140.590319134295, -0.01600000075995922, 0.2400000113993883, 0.9600000455975533, 0.0, 0.0, 0.0, 0.0, 0.0, 1.7632264483413503E9, 0.0, 2025-11-15 12:07:28.341
57.0, -215.75856834370643, -129.82314716186374, -184.66878001205623, -144.91364348307252, -0.01600000075995922, 0.2400000113993883, 0.9600000455975533, 0.0, 0.0, 0.0, 0.0, 0.0, 1.7632264483413503E9, 0.0, 2025-11-15 12:07:28.341
58.0, -453.8574290727265, 87.68569436110556, 6.799138119444251, 21.126694849692285, -0.01600000075995922, 0.2400000113993883, 0.9600000455975533, 0.0, 0.0, 0.0, 0.0, 0.0, 1.7632264483549633E9, 0.0, 2025-11-15 12:07:28.354
58.0, -214.73757565580308, -110.6449401890859, -149.59973812755197, -114.86354733910412, -0.01600000075995922, 0.2400000113993883, 0.9600000455975533, 0.0, 0.0, 0.0, 0.0, 0.0, 1.7632264483549633E9, 0.0, 2025-11-15 12:07:28.354
59.0, -256.36266216263175, -166.57514402642846, -207.64298543985933, -164.82861074712127, -0.01600000075995922, 0.2400000113993883, 0.9600000455975533, 0.0, 0.0, 0.0, 0.0, 0.0, 1.7632264483713171E9, 0.0, 2025-11-15 12:07:28.371
59.0, -25.902547093108296, 31.624594025313854, -49.333020315505564, -25.218145401217043, -0.01600000075995922, 0.2400000113993883, 0.9600000455975533, 0.0, 0.0, 0.0, 0.0, 0.0, 1.7632264483713171E9, 0.0, 2025-11-15 12:07:28.371
60.0, -91.01794522162527, -9.293651389889419, -61.94396296609193, -32.050942620262504, -0.01600000075995922, 0.2400000113993883, 0.9920000471174717, 0.0, 0.0, 0.0, 0.0, 0.0, 1.7632264483720176E9, 0.0, 2025-11-15 12:07:28.372
60.0, -261.07493610680103, -159.94430140499026, -205.23448986839503, -168.33289700560272, -0.01600000075995922, 0.2400000113993883, 0.9920000471174717, 0.0, 0.0, 0.0, 0.0, 0.0, 1.7632264483720176E9, 0.0, 2025-11-15 12:07:28.372
61.0, -124.91639841999859, -52.79990757443011, -127.59416678827256, -98.05643693823367, -0.01600000075995922, 0.25600001215934753, 0.9920000471174717, 0.0, 0.0, 0.0, 0.0, 0.0, 1.763226448385023E9, 0.0, 2025-11-15 12:07:28.385
61.0, -4.712273944169283, 64.2552211387083, -5.2096806382760406, 11.29449786618352, -0.01600000075995922, 0.25600001215934753, 0.9920000471174717, 0.0, 0.0, 0.0, 0.0, 0.0, 1.763226448385023E9, 0.0, 2025-11-15 12:07:28.385
62.0, 236.25135015090927, -146.90701015945524, -184.2723506167531, -137.3590455725789, -0.01600000075995922, 0.25600001215934753, 0.9920000471174717, 0.0, 0.0, 0.0, 0.0, 0.0, 1.763226448400669E9, 0.0, 2025-11-15 12:07:28.400
62.0, 287.7161134411581, -125.69803751073778, -187.06605588365346, -150.9236627118662, -0.01600000075995922, 0.25600001215934753, 0.9920000471174717, 0.0, 0.0, 0.0, 0.0, 0.0, 1.763226448400669E9, 0.0, 2025-11-15 12:07:28.400
63.0, 527.795251196716, 90.20264703128487, 3.1115967631340027, 11.967679858207703, -0.01600000075995922, 0.25600001215934753, 0.9920000471174717, 0.0, 0.0, 0.0, 0.0, 0.0, 1.7632264484013727E9, 0.0, 2025-11-15 12:07:28.401
63.0, 318.44687137706205, -75.25426690839231, -120.13680627662688, -88.84880324732512, -0.01600000075995922, 0.25600001215934753, 0.9920000471174717, 0.0, 0.0, 0.0, 0.0, 0.0, 1.7632264484013727E9, 0.0, 2025-11-15 12:07:28.401
64.0, 232.3506344971247, -155.75561345461756, -199.25438983924687, -156.99352033995092, -0.01600000075995922, 0.25600001215934753, 0.9920000471174717, 0.0, 0.0, 0.0, 0.0, 0.0, 1.76322644841493E9, 0.0, 2025-11-15 12:07:28.414
64.0, -1.5146594820544124, 51.44232389051467, -32.29777601733804, -12.86525584757328, -0.01600000075995922, 0.25600001215934753, 0.9920000471174717, 0.0, 0.0, 0.0, 0.0, 0.0, 1.76322644841493E9, 0.0, 2025-11-15 12:07:28.414
65.0, -114.97574433777481, -13.860069235786796, -57.57201991789043, -35.199938382953405, -0.01600000075995922, 0.25600001215934753, 0.9920000471174717, 0.0, 0.0, 0.0, 0.0, 0.0, 1.7632264484307475E9, 0.0, 2025-11-15 12:07:28.430
65.0, -252.7499188054353, -153.20126178488135, -197.77338945679367, -160.01909940410405, -0.01600000075995922, 0.25600001215934753, 0.9920000471174717, 0.0, 0.0, 0.0, 0.0, 0.0, 1.7632264484307475E9, 0.0, 2025-11-15 12:07:28.430
66.0, -123.68223143462092, -47.47055013757199, -122.29098865110427, -100.03110411483794, -0.01600000075995922, 0.25600001215934753, 0.9920000471174717, 0.0, 0.0, 0.0, 0.0, 0.0, 1.7632264484313812E9, 0.0, 2025-11-15 12:07:28.431
66.0, 1.129449786618352, 73.59749122802168, 2.1990611739456654, 22.47305883374065, -0.01600000075995922, 0.25600001215934753, 0.9920000471174717, 0.0, 0.0, 0.0, 0.0, 0.0, 1.7632264484313812E9, 0.0, 2025-11-15 12:07:28.431
67.0, -236.52997269760817, -131.97358963638544, -175.21805282402784, -142.1087185163051, -0.01600000075995922, 0.25600001215934753, 0.9920000471174717, 0.0, 0.0, 0.0, 0.0, 0.0, 1.763226448444954E9, 0.0, 2025-11-15 12:07:28.444
67.0, -182.3874410390854, -90.53549812734127, -148.98265463486314, -124.44517102558166, -0.01600000075995922, 0.25600001215934753, 0.9920000471174717, 0.0, 0.0, 0.0, 0.0, 0.0, 1.763226448444954E9, 0.0, 2025-11-15 12:07:28.444
68.0, 52.71014997549355, 115.2038782350719, 30.412866439670324, 35.36449398100376, -0.01600000075995922, 0.25600001215934753, 0.9920000471174717, 0.0, 0.0, 0.0, 0.0, 0.0, 1.7632264484606707E9, 0.0, 2025-11-15 12:07:28.460
68.0, -190.69001894071698, -81.32412453647703, -114.58305484242737, -88.36635615304112, -0.01600000075995922, 0.25600001215934753, 0.9920000471174717, 0.0, 0.0, 0.0, 0.0, 0.0, 1.7632264484606707E9, 0.0, 2025-11-15 12:07:28.460
69.0, -205.93011126015335, -106.68812603596598, -160.9690339928493, -127.13789899367839, -0.01600000075995922, 0.25600001215934753, 0.9920000471174717, 0.0, 0.0, 0.0, 0.0, 0.0, 1.7632264484613817E9, 0.0, 2025-11-15 12:07:28.461
69.0, 16.683693702332675, 77.7413003789261, -2.621669868938625, 16.84076950047165, -0.01600000075995922, 0.25600001215934753, 0.9920000471174717, 0.0, 0.0, 0.0, 0.0, 0.0, 1.7632264484613817E9, 0.0, 2025-11-15 12:07:28.461
70.0, -82.64804912079126, 17.398014593869448, -31.617114225402474, -5.662208532914519, -0.01600000075995922, 0.25600001215934753, 0.9920000471174717, 0.0, 0.0, 0.0, 0.0, 0.0, 1.7632264484749148E9, 0.0, 2025-11-15 12:07:28.474
70.0, -231.2941127596423, -126.79756809771061, -172.57768345531076, -143.75801439676434, -0.01600000075995922, 0.25600001215934753, 0.9920000471174717, 0.0, 0.0, 0.0, 0.0, 0.0, 1.7632264484749148E9, 0.0, 2025-11-15 12:07:28.474
71.0, -92.66724110208452, -23.097622126340866, -102.9744053799659, -84.19636770244688, -0.01600000075995922, 0.25600001215934753, 0.9920000471174717, 0.0, 0.0, 0.0, 0.0, 0.0, 1.763226448490702E9, 0.0, 2025-11-15 12:07:28.490
71.0, 22.461839133873582, 96.98682555090636, 22.12898803781718, 41.10150051303208, -0.01600000075995922, 0.25600001215934753, 0.9920000471174717, 0.0, 0.0, 0.0, 0.0, 0.0, 1.763226448490702E9, 0.0, 2025-11-15 12:07:28.490
72.0, -216.4317503357306, -109.03678320813924, -153.87070387694985, -112.57472856622189, -0.01600000075995922, 0.25600001215934753, 0.9920000471174717, 0.0, 0.0, 0.0, 0.0, 0.0, 1.7632264484913695E9, 0.0, 2025-11-15 12:07:28.491
72.0, -159.8882029056549, -81.97860702872276, -149.15469003282487, -116.58390131872147, -0.01600000075995922, 0.25600001215934753, 0.9920000471174717, 0.0, 0.0, 0.0, 0.0, 0.0, 1.7632264484913695E9, 0.0, 2025-11-15 12:07:28.491
73.0, 38.55462864320725, 105.6072949487716, 17.27459789533168, 35.659946077503264, -0.01600000075995922, 0.25600001215934753, 0.9920000471174717, 0.0, 0.0, 0.0, 0.0, 0.0, 1.7632264485050266E9, 0.0, 2025-11-15 12:07:28.505
73.0, -166.34701012913138, -63.13699105195701, -111.59861467778683, -78.58277786895633, -0.01600000075995922, 0.25600001215934753, 0.9920000471174717, 0.0, 0.0, 0.0, 0.0, 0.0, 1.7632264485050266E9, 0.0, 2025-11-15 12:07:28.505
74.0, -232.76389344222844, -137.29546727333218, -194.67301239352673, -154.9964137636125, -0.01600000075995922, 0.25600001215934753, 0.9920000471174717, 0.0, 0.0, 0.0, 0.0, 0.0, 1.7632264485206747E9, 0.0, 2025-11-15 12:07:28.520
74.0, -14.540731027722359, 43.696991082280874, -49.39659861475229, -34.17894569505006, -0.01600000075995922, 0.25600001215934753, 0.9920000471174717, 0.0, 0.0, 0.0, 0.0, 0.0, 1.7632264485206747E9, 0.0, 2025-11-15 12:07:28.520
75.0, -93.4900190923363, -7.5845171101391315, -62.138437763787806, -25.674413195811212, -0.01600000075995922, 0.25600001215934753, 0.9920000471174717, 0.0, 0.0, 0.0, 0.0, 0.0, 1.7632264485213835E9, 0.0, 2025-11-15 12:07:28.521
75.0, -238.36252367589623, -141.64497092179954, -200.03228903003037, -164.8884491464123, -0.01600000075995922, 0.25600001215934753, 0.9920000471174717, 0.0, 0.0, 0.0, 0.0, 0.0, 1.7632264485213835E9, 0.0, 2025-11-15 12:07:28.521
76.0, -110.77583668753505, -39.646679430268705, -117.36554040946066, -94.68678707815707, -0.01600000075995922, 0.25600001215934753, 0.9920000471174717, 0.0, 0.0, 0.0, 0.0, 0.0, 1.7632264485350437E9, 0.0, 2025-11-15 12:07:28.535
76.0, 7.483539811335504, 77.0008001876995, 6.0960369277745485, 26.396213887259364, -0.01600000075995922, 0.25600001215934753, 0.9920000471174717, 0.0, 0.0, 0.0, 0.0, 0.0, 1.7632264485350437E9, 0.0, 2025-11-15 12:07:28.535
77.0, 246.2817618320696, -136.33431298471987, -184.62390121258795, -144.86502478364855, -0.01600000075995922, 0.25600001215934753, 0.9920000471174717, 0.0, 0.0, 0.0, 0.0, 0.0, 1.7632264485506723E9, 0.0, 2025-11-15 12:07:28.550
77.0, 300.6786066875793, -110.70851848833263, -178.77095778193325, -142.4378297124058, -0.01600000075995922, 0.25600001215934753, 0.9920000471174717, 0.0, 0.0, 0.0, 0.0, 0.0, 1.7632264485506723E9, 0.0, 2025-11-15 12:07:28.550
78.0, 527.0248318058439, 87.65951506141573, -1.20424778573215, 18.4900653809309, -0.01600000075995922, 0.25600001215934753, 0.9920000471174717, 0.0, 0.0, 0.0, 0.0, 0.0, 1.7632264485513692E9, 0.0, 2025-11-15 12:07:28.551
78.0, 303.07214265922084, -90.53175822738558, -132.22416293341666, -90.60655622649938, -0.01600000075995922, 0.25600001215934753, 0.9920000471174717, 0.0, 0.0, 0.0, 0.0, 0.0, 1.7632264485513692E9, 0.0, 2025-11-15 12:07:28.551
79.0, 257.4715424994938, -136.37919178418815, -190.4955441430211, -141.52529412321746, -0.01600000075995922, 0.25600001215934753, 0.9920000471174717, 0.0, 0.0, 0.0, 0.0, 0.0, 1.7632264485650475E9, 0.0, 2025-11-15 12:07:28.565
79.0, 487.2846548766829, 58.75382830388844, -31.942485521547496, -12.08361675683409, -0.01600000075995922, 0.25600001215934753, 0.9920000471174717, 0.0, 0.0, 0.0, 0.0, 0.0, 1.7632264485650475E9, 0.0, 2025-11-15 12:07:28.565
80.0, 361.7474330640398, -37.93006535060704, -89.61174283828586, -56.69688332825899, -0.01600000075995922, 0.25600001215934753, 1.008000047877431, 0.0, 0.0, 0.0, 0.0, 0.0, 1.7632264485806823E9, 0.0, 2025-11-15 12:07:28.580
80.0, 235.67540555773303, -159.77226600702852, -209.9542436124757, -169.66804128978401, -0.01600000075995922, 0.25600001215934753, 1.008000047877431, 0.0, 0.0, 0.0, 0.0, 0.0, 1.7632264485806823E9, 0.0, 2025-11-15 12:07:28.580
81.0, 362.0840240600519, -61.83924576733261, -138.9559828536585, -101.84495559334755, -0.01600000075995922, 0.27200001291930676, 1.008000047877431, 0.0, 0.0, 0.0, 0.0, 0.0, 1.7632264485813737E9, 0.0, 2025-11-15 12:07:28.581
81.0, 485.7774751945399, 63.380084549076855, -6.956213917583227, 21.616621743887663, -0.01600000075995922, 0.27200001291930676, 1.008000047877431, 0.0, 0.0, 0.0, 0.0, 0.0, 1.7632264485813737E9, 0.0, 2025-11-15 12:07:28.581
82.0, 713.5916110454127, -163.77021905966103, -203.88438598439097, -154.74958036653697, -0.01600000075995922, 0.27200001291930676, 1.008000047877431, 0.0, 0.0, 0.0, 0.0, 0.0, 1.763226448594982E9, 0.0, 2025-11-15 12:07:28.594
82.0, 763.9157048491761, -125.67933801095933, -185.24846450518817, -142.98759500589222, -0.01600000075995922, 0.27200001291930676, 1.008000047877431, 0.0, 0.0, 0.0, 0.0, 0.0, 1.763226448594982E9, 0.0, 2025-11-15 12:07:28.594
83.0, 1006.5230149747804, 88.95726034604013, 6.675721420906484, 28.000630968250334, -0.01600000075995922, 0.27200001291930676, 1.008000047877431, 0.0, 0.0, 0.0, 0.0, 0.0, 1.763226448610677E9, 0.0, 2025-11-15 12:07:28.610
83.0, 784.7319880025461, -88.80766434781253, -125.14827221725136, -81.72055393178016, -0.01600000075995922, 0.27200001291930676, 1.008000047877431, 0.0, 0.0, 0.0, 0.0, 0.0, 1.763226448610677E9, 0.0, 2025-11-15 12:07:28.610
84.0, 724.6317957146093, -157.96963422838598, -204.68098467495292, -153.736067478545, -0.01600000075995922, 0.27200001291930676, 1.008000047877431, 0.0, 0.0, 0.0, 0.0, 0.0, 1.763226448611364E9, 0.0, 2025-11-15 12:07:28.611
84.0, 938.4867549808696, 20.296437059529126, -67.19104260392487, -45.89979215618223, -0.01600000075995922, 0.27200001291930676, 1.008000047877431, 0.0, 0.0, 0.0, 0.0, 0.0, 1.763226448611364E9, 0.0, 2025-11-15 12:07:28.611
85.0, 850.5056085232645, -43.37161978613585, -95.64794136676937, -57.41494411975145, -0.01600000075995922, 0.27200001291930676, 1.008000047877431, 0.0, 0.0, 0.0, 0.0, 0.0, 1.7632264486249993E9, 0.0, 2025-11-15 12:07:28.624
85.0, 711.0783982751891, -164.05445145629346, -206.24052295647562, -158.10427062679082, -0.01600000075995922, 0.27200001291930676, 1.008000047877431, 0.0, 0.0, 0.0, 0.0, 0.0, 1.7632264486249993E9, 0.0, 2025-11-15 12:07:28.624
86.0, 864.7396677546203, -50.110919506289065, -117.85920720361173, -88.13822225574404, -0.01600000075995922, 0.27200001291930676, 1.008000047877431, 0.0, 0.0, 0.0, 0.0, 0.0, 1.7632264486406476E9, 0.0, 2025-11-15 12:07:28.640
86.0, 992.8088018372655, 78.55285866931081, 13.123308944515884, 31.81158902309835, -0.01600000075995922, 0.27200001291930676, 1.008000047877431, 0.0, 0.0, 0.0, 0.0, 0.0, 1.7632264486406476E9, 0.0, 2025-11-15 12:07:28.640
87.0, 1227.1789823104627, -135.8032471910119, -168.94624059833586, -119.54216218367219, -0.01600000075995922, 0.27200001291930676, 1.008000047877431, 0.0, 0.0, 0.0, 0.0, 0.0, 1.7632264486413612E9, 0.0, 2025-11-15 12:07:28.641
87.0, 1331.8812214699574, -83.5605847099796, -136.1024391874671, -63.9560291422531, -0.01600000075995922, 0.27200001291930676, 1.008000047877431, 0.0, 0.0, 0.0, 0.0, 0.0, 1.7632264486413612E9, 0.0, 2025-11-15 12:07:28.641
88.0, 1489.4170273034833, 78.12277017440647, -3.8072181548923254, -3.107856863178313, -0.01600000075995922, 0.27200001291930676, 1.008000047877431, 0.0, 0.0, 0.0, 0.0, 0.0, 1.7632264486550045E9, 0.0, 2025-11-15 12:07:28.655
88.0, 1254.0501634920947, -104.01783746760339, -139.35615214891732, -86.66096177324653, -0.01600000075995922, 0.27200001291930676, 1.008000047877431, 0.0, 0.0, 0.0, 0.0, 0.0, 1.7632264486550045E9, 0.0, 2025-11-15 12:07:28.655
89.0, 1214.9195902557112, -168.4525738041848, -217.3293263250962, -170.94708707462996, -0.01600000075995922, 0.27200001291930676, 1.008000047877431, 0.0, 0.0, 0.0, 0.0, 0.0, 1.7632264486706548E9, 0.0, 2025-11-15 12:07:28.670
89.0, 1420.2363579231314, 22.641354331746697, -58.914644001983106, -50.8028009980917, -0.01600000075995922, 0.27200001291930676, 1.008000047877431, 0.0, 0.0, 0.0, 0.0, 0.0, 1.7632264486706548E9, 0.0, 2025-11-15 12:07:28.670
90.0, 1366.0377277652733, -14.200400131754577, -63.5483800470829, -38.012343149632215, -0.01600000075995922, 0.27200001291930676, 1.008000047877431, 0.0, 0.0, 0.0, 0.0, 0.0, 1.763226448671358E9, 0.0, 2025-11-15 12:07:28.671
90.0, 1215.1851231525652, -160.5165060982108, -202.88583269622177, -150.72170811425894, -0.01600000075995922, 0.27200001291930676, 1.008000047877431, 0.0, 0.0, 0.0, 0.0, 0.0, 1.763226448671358E9, 0.0, 2025-11-15 12:07:28.671
91.0, 1329.1623142021708, -64.49831463582814, -135.61251229327172, -102.29748348798603, -0.01600000075995922, 0.25600001215934753, 1.008000047877431, 0.0, 0.0, 0.0, 0.0, 0.0, 1.763226448685016E9, 0.0, 2025-11-15 12:07:28.685
91.0, 1464.8795436942019, 55.22336274571717, -5.071304339915514, 47.90063863247633, -0.01600000075995922, 0.25600001215934753, 1.008000047877431, 0.0, 0.0, 0.0, 0.0, 0.0, 1.763226448685016E9, 0.0, 2025-11-15 12:07:28.685
92.0, 1700.891540247947, -153.6687492793426, -188.07582887168974, -153.28727948386222, -0.01600000075995922, 0.25600001215934753, 1.008000047877431, 0.0, 0.0, 0.0, 0.0, 0.0, 1.7632264487006931E9, 0.0, 2025-11-15 12:07:28.700
92.0, 1747.8646836914122, -129.38557886704803, -179.1636472772807, -145.85609827190638, -0.01600000075995922, 0.25600001215934753, 1.008000047877431, 0.0, 0.0, 0.0, 0.0, 0.0, 1.7632264487006931E9, 0.0, 2025-11-15 12:07:28.700
93.0, 1506.209178104531, 89.24523264262825, 8.770065396092832, 23.497791421599686, -0.01600000075995922, 0.25600001215934753, 1.008000047877431, 0.0, 0.0, 0.0, 0.0, 0.0, 1.7632264487013645E9, 0.0, 2025-11-15 12:07:28.701
93.0, 1744.3790969327092, -111.53129647858441, -146.8097727606073, -107.51464392617345, -0.01600000075995922, 0.25600001215934753, 1.008000047877431, 0.0, 0.0, 0.0, 0.0, 0.0, 1.7632264487013645E9, 0.0, 2025-11-15 12:07:28.701
94.0, 1712.3318942124024, -152.65523639135063, -196.47564417216927, -150.74788741394877, -0.01600000075995922, 0.25600001215934753, 1.008000047877431, 0.0, 0.0, 0.0, 0.0, 0.0, 1.7632264487150018E9, 0.0, 2025-11-15 12:07:28.715
94.0, 1925.423913887702, 21.425886846147478, -54.71099645178765, -34.059268896467984, -0.01600000075995922, 0.25600001215934753, 1.008000047877431, 0.0, 0.0, 0.0, 0.0, 0.0, 1.7632264487150018E9, 0.0, 2025-11-15 12:07:28.715
95.0, 1854.107761632651, -24.260731012560427, -66.76469400897622, -32.050942620262504, -0.01600000075995922, 0.25600001215934753, 1.008000047877431, 0.0, 0.0, 0.0, 0.0, 0.0, 1.7632264487306485E9, 0.0, 2025-11-15 12:07:28.730
95.0, 1684.4696395425126, -185.17366650607437, -227.9581219991669, -178.07159649021924, -0.01600000075995922, 0.25600001215934753, 1.008000047877431, 0.0, 0.0, 0.0, 0.0, 0.0, 1.7632264487306485E9, 0.0, 2025-11-15 12:07:28.730
96.0, 1810.1527174534276, -76.70908799115568, -145.2165753794834, -109.75858389958739, -0.01600000075995922, 0.25600001215934753, 1.008000047877431, 0.0, 0.0, 0.0, 0.0, 0.0, 1.763226448731357E9, 0.0, 2025-11-15 12:07:28.731
96.0, 1947.904452521354, 51.771435086615384, -15.049357421696186, 14.723986125551164, -0.01600000075995922, 0.25600001215934753, 1.008000047877431, 0.0, 0.0, 0.0, 0.0, 0.0, 1.763226448731357E9, 0.0, 2025-11-15 12:07:28.731
97.0, 2183.9725475744344, -169.29405129421502, -202.64647909905761, -151.16301630903035, -0.01600000075995922, 0.25600001215934753, 1.008000047877431, 0.0, 0.0, 0.0, 0.0, 0.0, 1.7632264487450013E9, 0.0, 2025-11-15 12:07:28.745
97.0, 2214.1610200167634, -156.1445630500093, -210.44417050667107, -167.6372756138444, -0.01600000075995922, 0.25600001215934753, 1.008000047877431, 0.0, 0.0, 0.0, 0.0, 0.0, 1.7632264487450013E9, 0.0, 2025-11-15 12:07:28.745
98.0, 1982.4349488122389, 80.34053084813058, 4.959107341244817, 26.94223928079009, -0.01600000075995922, 0.25600001215934753, 1.008000047877431, 0.0, 0.0, 0.0, 0.0, 0.0, 1.7632264487606487E9, 0.0, 2025-11-15 12:07:28.760
98.0, 1747.7973654922098, -103.87946116924286, -136.29691398516297, -92.93651389889419, -0.01600000075995922, 0.25600001215934753, 1.008000047877431, 0.0, 0.0, 0.0, 0.0, 0.0, 1.7632264487606487E9, 0.0, 2025-11-15 12:07:28.760
99.0, 1686.8669154141098, -170.73765267711133, -218.54105391073972, -171.1527815721929, -0.01600000075995922, 0.25600001215934753, 1.008000047877431, 0.0, 0.0, 0.0, 0.0, 0.0, 1.763226448761359E9, 0.0, 2025-11-15 12:07:28.761
99.0, 1918.8603894654661, 26.751504383049905, -53.17763746995479, -33.187872206792235, -0.01600000075995922, 0.25600001215934753, 1.008000047877431, 0.0, 0.0, 0.0, 0.0, 0.0, 1.763226448761359E9, 0.0, 2025-11-15 12:07:28.761
100.0, 1832.7155338861048, -37.623393554240465, -85.81574438326061, -58.66781060490757, -0.01600000075995922, 0.25600001215934753, 1.008000047877431, 0.0, 0.0, 0.0, 0.0, 0.0, 1.763226448775689E9, 0.0, 2025-11-15 12:07:28.775
100.0, 1688.9462997894734, -167.94768731016666, -204.3892724784091, -161.51131948642433, -0.01600000075995922, 0.25600001215934753, 1.008000047877431, 0.0, 0.0, 0.0, 0.0, 0.0, 1.763226448775689E9, 0.0, 2025-11-15 12:07:28.775
0.0, -121.89455925580114, -56.27801453322172, -126.31699095340446, -93.47505949251354, -0.01600000075995922, 0.25600001215934753, 1.008000047877431, 0.0, 0.0, 0.0, 0.0, 0.0, 1.7632264487763753E9, 0.0, 2025-11-15 12:07:28.776
1.0, -15.644001514650881, 54.29212765675038, -14.101292782928795, 11.634828762151301, -0.01600000075995922, 0.25600001215934753, 1.008000047877431, 0.0, 0.0, 0.0, 0.0, 0.0, 1.7632264487899725E9, 0.0, 2025-11-15 12:07:28.789
1.0, 225.65247367648408, -161.13358959089965, -197.09833751479164, -156.1819620495662, -0.01600000075995922, 0.25600001215934753, 1.008000047877431, 0.0, 0.0, 0.0, 0.0, 0.0, 1.7632264487899725E9, 0.0, 2025-11-15 12:07:28.789
2.0, 271.9225159282796, -136.08373968768865, -189.6634164028801, -147.1089647570625, -0.01600000075995922, 0.25600001215934753, 1.008000047877431, 0.0, 0.0, 0.0, 0.0, 0.0, 1.7632264488056488E9, 0.0, 2025-11-15 12:07:28.805
2.0, 507.79426623368636, 74.43522881809622, -2.9152520154602826, 18.246971883811057, -0.01600000075995922, 0.25600001215934753, 1.008000047877431, 0.0, 0.0, 0.0, 0.0, 0.0, 1.7632264488056488E9, 0.0, 2025-11-15 12:07:28.805
3.0, 281.20494761830196, -110.499084090814, -144.26103094080463, -105.59233534894884, -0.01600000075995922, 0.25600001215934753, 1.008000047877431, 0.0, 0.0, 0.0, 0.0, 0.0, 1.7632264488063514E9, 0.0, 2025-11-15 12:07:28.806
3.0, 231.74477070430294, -165.21756034251302, -209.44374726852402, -170.1542282840237, -0.01600000075995922, 0.25600001215934753, 1.008000047877431, 0.0, 0.0, 0.0, 0.0, 0.0, 1.7632264488063514E9, 0.0, 2025-11-15 12:07:28.806
4.0, 459.5794760049321, 32.48477101512253, -49.62286256207153, -33.91715269815177, -0.01600000075995922, 0.25600001215934753, 1.008000047877431, 0.0, 0.0, 0.0, 0.0, 0.0, 1.7632264488200142E9, 0.0, 2025-11-15 12:07:28.820
4.0, 378.8612152612768, -16.10026930924505, -63.0865024025552, -30.356767940334976, -0.01600000075995922, 0.25600001215934753, 1.008000047877431, 0.0, 0.0, 0.0, 0.0, 0.0, 1.7632264488200142E9, 0.0, 2025-11-15 12:07:28.820
5.0, 208.6321889781393, -163.65802206099033, -199.63772958470508, -158.16784892603755, -0.01600000075995922, 0.25600001215934753, 1.008000047877431, 0.0, 0.0, 0.0, 0.0, 0.0, 1.7632264488356364E9, 0.0, 2025-11-15 12:07:28.835
5.0, 364.8889490268193, -52.463316578418016, -120.31071162456647, -89.39856854081154, -0.01600000075995922, 0.25600001215934753, 1.008000047877431, 0.0, 0.0, 0.0, 0.0, 0.0, 1.7632264488356364E9, 0.0, 2025-11-15 12:07:28.835
6.0, 471.4274790645577, 55.63475174084306, -6.909465168137103, 13.987225834280252, -0.01600000075995922, 0.25600001215934753, 1.008000047877431, 0.0, 0.0, 0.0, 0.0, 0.0, 1.7632264488363485E9, 0.0, 2025-11-15 12:07:28.836
6.0, 716.471334011294, -157.0383991394192, -194.368210547138, -154.64112326782197, -0.01600000075995922, 0.25600001215934753, 1.008000047877431, 0.0, 0.0, 0.0, 0.0, 0.0, 1.7632264488363485E9, 0.0, 2025-11-15 12:07:28.836
7.0, 767.2367360098287, -134.90193130169064, -193.70998815493658, -156.9224622407928, -0.01600000075995922, 0.25600001215934753, 1.008000047877431, 0.0, 0.0, 0.0, 0.0, 0.0, 1.763226448850016E9, 0.0, 2025-11-15 12:07:28.850
7.0, 522.862323155161, 83.90465550590307, 6.094166977796704, 24.10739511437714, -0.01600000075995922, 0.25600001215934753, 1.008000047877431, 0.0, 0.0, 0.0, 0.0, 0.0, 1.763226448850016E9, 0.0, 2025-11-15 12:07:28.850
8.0, 287.95546703832224, -98.4528663335368, -137.0430240263231, -102.46577898599207, -0.01600000075995922, 0.25600001215934753, 1.008000047877431, 0.0, 0.0, 0.0, 0.0, 0.0, 1.7632264488656428E9, 0.0, 2025-11-15 12:07:28.865
8.0, 231.3857403085567, -154.05769887473434, -199.8583836820908, -165.47561343945563, -0.01600000075995922, 0.25600001215934753, 1.008000047877431, 0.0, 0.0, 0.0, 0.0, 0.0, 1.7632264488656428E9, 0.0, 2025-11-15 12:07:28.865
9.0, 463.6185679570772, 39.32504803407937, -43.36974983615801, -29.130080754868686, -0.01600000075995922, 0.25600001215934753, 1.008000047877431, 0.0, 0.0, 0.0, 0.0, 0.0, 1.7632264488663485E9, 0.0, 2025-11-15 12:07:28.866
9.0, 376.5948358881287, -19.73545206617564, -70.98517110897228, -40.54425541963428, -0.01600000075995922, 0.25600001215934753, 1.008000047877431, 0.0, 0.0, 0.0, 0.0, 0.0, 1.7632264488663485E9, 0.0, 2025-11-15 12:07:28.866
10.0, 223.03080380754545, -163.87493625842035, -209.05479767313227, -167.5587377147749, -0.01600000075995922, 0.25600001215934753, 1.008000047877431, 0.0, 0.0, 0.0, 0.0, 0.0, 1.7632264488800552E9, 0.0, 2025-11-15 12:07:28.880
10.0, 358.10103060724214, -58.83984600286931, -129.79135801224038, -102.15162738971412, -0.01600000075995922, 0.25600001215934753, 1.008000047877431, 0.0, 0.0, 0.0, 0.0, 0.0, 1.7632264488800552E9, 0.0, 2025-11-15 12:07:28.880
11.0, 485.67649789573625, 68.6645631864667, -0.005609849933534861, 22.17386683728546, -0.01600000075995922, 0.25600001215934753, 1.008000047877431, 0.0, 0.0, 0.0, 0.0, 0.0, 1.763226448895646E9, 0.0, 2025-11-15 12:07:28.895
11.0, 241.00476299459115, -146.8883106596768, -188.7060020142235, -140.15275083947927, -0.01600000075995922, 0.25600001215934753, 1.008000047877431, 0.0, 0.0, 0.0, 0.0, 0.0, 1.763226448895646E9, 0.0, 2025-11-15 12:07:28.895
12.0, 283.54612499056384, -124.05622143018991, -178.15574423922226, -132.0596073353663, -0.01600000075995922, 0.25600001215934753, 1.008000047877431, 0.0, 0.0, 0.0, 0.0, 0.0, 1.76322644889635E9, 0.0, 2025-11-15 12:07:28.896
12.0, 526.9799530063756, 97.76098484173417, 13.768441686872393, 23.587549020536244, -0.01600000075995922, 0.25600001215934753, 1.008000047877431, 0.0, 0.0, 0.0, 0.0, 0.0, 1.76322644889635E9, 0.0, 2025-11-15 12:07:28.896
13.0, 771.8555124551058, -100.35647541098297, -139.54501709667966, -103.55034997314215, -0.01600000075995922, 0.25600001215934753, 1.008000047877431, 0.0, 0.0, 0.0, 0.0, 0.0, 1.7632264489099977E9, 0.0, 2025-11-15 12:07:28.909
13.0, 728.4203143697232, -151.45846840552986, -198.68031519604847, -159.66006900835782, -0.01600000075995922, 0.25600001215934753, 1.008000047877431, 0.0, 0.0, 0.0, 0.0, 0.0, 1.7632264489099977E9, 0.0, 2025-11-15 12:07:28.909
14.0, 949.9046695455909, 36.93525196239352, -40.76303956704214, -20.5657098563388, -0.01600000075995922, 0.25600001215934753, 1.008000047877431, 0.0, 0.0, 0.0, 0.0, 0.0, 1.7632264489256344E9, 0.0, 2025-11-15 12:07:28.925
14.0, 871.172295678407, -7.6331358095631, -61.24647162435576, -32.88120041042566, -0.01600000075995922, 0.25600001215934753, 1.008000047877431, 0.0, 0.0, 0.0, 0.0, 0.0, 1.7632264489256344E9, 0.0, 2025-11-15 12:07:28.925
15.0, 719.2126806788146, -157.68166193179786, -198.50827979808673, -155.4788608578965, -0.01600000075995922, 0.25600001215934753, 1.008000047877431, 0.0, 0.0, 0.0, 0.0, 0.0, 1.763226448926338E9, 0.0, 2025-11-15 12:07:28.926
15.0, 868.4571283105761, -40.850927216000855, -110.77022683760151, -70.41109646577388, -0.01600000075995922, 0.25600001215934753, 1.008000047877431, 0.0, 0.0, 0.0, 0.0, 0.0, 1.763226448926338E9, 0.0, 2025-11-15 12:07:28.926
16.0, 968.8285633213818, 68.36911108996719, 3.42013850947842, 23.651127319782972, -0.01600000075995922, 0.25600001215934753, 1.008000047877431, 0.0, 0.0, 0.0, 0.0, 0.0, 1.763226448956391E9, 0.0, 2025-11-15 12:07:28.956
16.0, 1204.7358426763676, -150.407556517981, -184.92870305897668, -142.16107711568475, -0.01600000075995922, 0.25600001215934753, 1.008000047877431, 0.0, 0.0, 0.0, 0.0, 0.0, 1.763226448956391E9, 0.0, 2025-11-15 12:07:28.956
17.0, 1284.2386359344237, -107.22667162958533, -168.25248915655538, -132.70287012774497, -0.01600000075995922, 0.25600001215934753, 1.008000047877431, 0.0, 0.0, 0.0, 0.0, 0.0, 1.7632264489570727E9, 0.0, 2025-11-15 12:07:28.957
17.0, 1498.9575120904483, 83.4857867108658, 7.612566359806806, 21.235151948407292, -0.01600000075995922, 0.25600001215934753, 1.008000047877431, 0.0, 0.0, 0.0, 0.0, 0.0, 1.7632264489570727E9, 0.0, 2025-11-15 12:07:28.957
18.0, 1257.0907021560706, -111.22088478226215, -145.96642532059923, -105.83168894611299, -0.01600000075995922, 0.25600001215934753, 1.008000047877431, 0.0, 0.0, 0.0, 0.0, 0.0, 1.7632264489578047E9, 0.0, 2025-11-15 12:07:28.957
18.0, 1216.7334417342208, -159.20380121376365, -202.98867994500324, -149.98494782298803, -0.01600000075995922, 0.25600001215934753, 1.008000047877431, 0.0, 0.0, 0.0, 0.0, 0.0, 1.7632264489578047E9, 0.0, 2025-11-15 12:07:28.957
19.0, 1431.6355729880743, 27.82485567033291, -49.462046863976866, -23.546410121023655, -0.01600000075995922, 0.25600001215934753, 1.008000047877431, 0.0, 0.0, 0.0, 0.0, 0.0, 1.763226448970058E9, 0.0, 2025-11-15 12:07:28.970
19.0, 1355.0985203948803, -23.639907619915903, -68.68887253617868, -39.72895722929388, -0.01600000075995922, 0.25600001215934753, 1.008000047877431, 0.0, 0.0, 0.0, 0.0, 0.0, 1.763226448970058E9, 0.0, 2025-11-15 12:07:28.970
20.0, 1200.775288623292, -165.50179273914546, -205.29245831770822, -163.77395895961672, -0.01600000075995922, 0.25600001215934753, 1.008000047877431, 0.0, 0.0, 0.0, 0.0, 0.0, 1.763226448985818E9, 0.0, 2025-11-15 12:07:28.985
20.0, 1342.0948882489465, -54.62123885285109, -128.4861329277046, -93.8939282875508, -0.01600000075995922, 0.25600001215934753, 1.008000047877431, 0.0, 0.0, 0.0, 0.0, 0.0, 1.763226448985818E9, 0.0, 2025-11-15 12:07:28.985
21.0, 1465.9566348814406, 67.35933810193092, 5.02455559046939, 27.79493647068739, -0.01600000075995922, 0.25600001215934753, 1.008000047877431, 0.0, 0.0, 0.0, 0.0, 0.0, 1.763226448986397E9, 0.0, 2025-11-15 12:07:28.986
21.0, 1707.0249761752784, -143.93004979472607, -182.93159648263827, -133.70142341591418, -0.01600000075995922, 0.25600001215934753, 1.008000047877431, 0.0, 0.0, 0.0, 0.0, 0.0, 1.763226448986397E9, 0.0, 2025-11-15 12:07:28.986
22.0, 1737.7893932107836, -130.98251614812762, -183.63095777435228, -140.3659251369536, -0.01600000075995922, 0.25600001215934753, 1.008000047877431, 0.0, 0.0, 0.0, 0.0, 0.0, 1.7632264489999983E9, 0.0, 2025-11-15 12:07:28.999
22.0, 1979.4168495479971, 80.90899564139545, 3.895105803851038, 17.835582888685167, -0.01600000075995922, 0.25600001215934753, 1.008000047877431, 0.0, 0.0, 0.0, 0.0, 0.0, 1.7632264489999983E9, 0.0, 2025-11-15 12:07:28.999
23.0, 1751.5858841473237, -101.07453620247543, -133.55369736766443, -90.80103102419525, -0.01600000075995922, 0.25600001215934753, 1.008000047877431, 0.0, 0.0, 0.0, 0.0, 0.0, 1.7632264490156763E9, 0.0, 2025-11-15 12:07:29.015
23.0, 1701.4300858415663, -161.15976889058948, -211.53435134375468, -174.66454763058573, -0.01600000075995922, 0.25600001215934753, 1.008000047877431, 0.0, 0.0, 0.0, 0.0, 0.0, 1.7632264490156763E9, 0.0, 2025-11-15 12:07:29.015
24.0, 1924.6048757974058, 23.621208120137453, -59.04367055045441, -39.70277792960405, -0.01600000075995922, 0.25600001215934753, 1.008000047877431, 0.0, 0.0, 0.0, 0.0, 0.0, 1.7632264490163856E9, 0.0, 2025-11-15 12:07:29.016
24.0, 1847.7387120081112, -16.47425930481404, -66.26915726484731, -31.37028082832694, -0.01600000075995922, 0.25600001215934753, 1.008000047877431, 0.0, 0.0, 0.0, 0.0, 0.0, 1.7632264490163856E9, 0.0, 2025-11-15 12:07:29.016
25.0, 1691.399674160406, -162.28547877725214, -209.05479767313227, -162.9698804691434, -0.01600000075995922, 0.25600001215934753, 1.008000047877431, 0.0, 0.0, 0.0, 0.0, 0.0, 1.7632264490300698E9, 0.0, 2025-11-15 12:07:29.030
25.0, 1833.3662764783949, -53.360892567783594, -127.13228914374486, -97.57772974390537, -0.01600000075995922, 0.25600001215934753, 1.008000047877431, 0.0, 0.0, 0.0, 0.0, 0.0, 1.7632264490300698E9, 0.0, 2025-11-15 12:07:29.030
26.0, 1947.3696468276903, 65.89703721925616, 3.790388605091721, 21.616621743887663, -0.01600000075995922, 0.25600001215934753, 1.008000047877431, 0.0, 0.0, 0.0, 0.0, 0.0, 1.7632264490620522E9, 0.0, 2025-11-15 12:07:29.062
26.0, 2188.5427053202875, -147.30717945471406, -183.5898188748397, -142.61360501032323, -0.01600000075995922, 0.25600001215934753, 1.008000047877431, 0.0, 0.0, 0.0, 0.0, 0.0, 1.7632264490620522E9, 0.0, 2025-11-15 12:07:29.062
27.0, 2236.933270846959, -120.17420527618378, -181.24490160262212, -143.09605210460722, -0.01600000075995922, 0.25600001215934753, 1.008000047877431, 0.0, 0.0, 0.0, 0.0, 0.0, 1.7632264490627642E9, 0.0, 2025-11-15 12:07:29.062
27.0, 2000.1471150023863, 104.10759506653994, 18.31616003299132, 31.538576326332986, -0.01600000075995922, 0.25600001215934753, 1.008000047877431, 0.0, 0.0, 0.0, 0.0, 0.0, 1.7632264490627642E9, 0.0, 2025-11-15 12:07:29.062
28.0, 1763.8415363021195, -96.70633305422962, -136.36610213434324, -89.06571744475514, -0.01600000075995922, 0.25600001215934753, 1.008000047877431, 0.0, 0.0, 0.0, 0.0, 0.0, 1.7632264490635016E9, 0.0, 2025-11-15 12:07:29.063
28.0, 1707.4625444700941, -153.8557442771271, -196.23816052498296, -152.62157729174942, -0.01600000075995922, 0.25600001215934753, 1.008000047877431, 0.0, 0.0, 0.0, 0.0, 0.0, 1.7632264490635016E9, 0.0, 2025-11-15 12:07:29.063
29.0, 1915.3224441073835, 15.468226216733456, -65.29678327636793, -48.30080792773515, -0.01600000075995922, 0.25600001215934753, 1.008000047877431, 0.0, 0.0, 0.0, 0.0, 0.0, 1.763226449064263E9, 0.0, 2025-11-15 12:07:29.064
29.0, 1847.2300856141374, -26.710365483537316, -71.17964590666816, -33.662839501164854, -0.01600000075995922, 0.25600001215934753, 1.008000047877431, 0.0, 0.0, 0.0, 0.0, 0.0, 1.763226449064263E9, 0.0, 2025-11-15 12:07:29.064
30.0, 1698.647600274533, -162.3752363761887, -202.24069995386526, -167.1174295200035, -0.01600000075995922, 0.25600001215934753, 1.0240000486373901, 0.0, 0.0, 0.0, 0.0, 0.0, 1.7632264490749876E9, 0.0, 2025-11-15 12:07:29.074
30.0, 1833.822544272989, -43.17340508848429, -109.12467085709795, -85.02662549261004, -0.01600000075995922, 0.25600001215934753, 1.0240000486373901, 0.0, 0.0, 0.0, 0.0, 0.0, 1.7632264490749876E9, 0.0, 2025-11-15 12:07:29.074
31.0, 1975.3478383962065, 91.8220237120986, 29.464801800902933, 45.323847563005984, -0.01600000075995922, 0.25600001215934753, 1.0240000486373901, 0.0, 0.0, 0.0, 0.0, 0.0, 1.7632264490899825E9, 0.0, 2025-11-15 12:07:29.089
31.0, 2194.2348330528475, -143.0362137053162, -172.48979580635205, -133.73882241547108, -0.01600000075995922, 0.25600001215934753, 1.0240000486373901, 0.0, 0.0, 0.0, 0.0, 0.0, 1.7632264490899825E9, 0.0, 2025-11-15 12:07:29.089
32.0, 2255.9244828219526, -107.03967663180083, -154.93844531429932, -119.38134648557752, -0.01600000075995922, 0.25600001215934753, 1.0240000486373901, 0.0, 0.0, 0.0, 0.0, 0.0, 1.763226449105654E9, 0.0, 2025-11-15 12:07:29.105
32.0, 2460.2800962007605, 81.58591753337532, 10.585786824580282, 24.788056906312704, -0.01600000075995922, 0.25600001215934753, 1.0240000486373901, 0.0, 0.0, 0.0, 0.0, 0.0, 1.763226449105654E9, 0.0, 2025-11-15 12:07:29.105
33.0, 2249.697549395729, -95.11313567310572, -120.85673701809719, -86.18225457891822, -0.01600000075995922, 0.25600001215934753, 1.0240000486373901, 0.0, 0.0, 0.0, 0.0, 0.0, 1.7632264491063511E9, 0.0, 2025-11-15 12:07:29.106
33.0, 2203.034817648586, -148.11499784514308, -186.7724737371318, -147.9541821470484, -0.01600000075995922, 0.25600001215934753, 1.0240000486373901, 0.0, 0.0, 0.0, 0.0, 0.0, 1.7632264491063511E9, 0.0, 2025-11-15 12:07:29.106
34.0, 2416.9309158143587, 32.765263511799276, -40.703201167751104, -20.06830316223204, -0.01600000075995922, 0.25600001215934753, 1.0240000486373901, 0.0, 0.0, 0.0, 0.0, 0.0, 1.7632264491200032E9, 0.0, 2025-11-15 12:07:29.120
34.0, 2333.3665912044235, -16.257345107384026, -60.764024530071765, -30.18473254237324, -0.01600000075995922, 0.25600001215934753, 1.0240000486373901, 0.0, 0.0, 0.0, 0.0, 0.0, 1.7632264491200032E9, 0.0, 2025-11-15 12:07:29.120
35.0, 2181.9081227988936, -159.45811441075057, -196.91508241696283, -158.8148516183719, -0.01600000075995922, 0.25600001215934753, 1.0240000486373901, 0.0, 0.0, 0.0, 0.0, 0.0, 1.7632264491356518E9, 0.0, 2025-11-15 12:07:29.135
35.0, 2327.195756277535, -47.97917653154582, -114.49890709342435, -81.7803923310712, -0.01600000075995922, 0.25600001215934753, 1.0240000486373901, 0.0, 0.0, 0.0, 0.0, 0.0, 1.7632264491356518E9, 0.0, 2025-11-15 12:07:29.135
36.0, 2430.4768334538676, 60.994028377346694, 1.6436860305257142, 13.31404384225607, -0.01600000075995922, 0.25600001215934753, 1.0240000486373901, 0.0, 0.0, 0.0, 0.0, 0.0, 1.7632264491363552E9, 0.0, 2025-11-15 12:07:29.136
36.0, 2190.6033901958726, -147.37449765391648, -177.5424006464891, -135.57511329371482, -0.01600000075995922, 0.25600001215934753, 1.0240000486373901, 0.0, 0.0, 0.0, 0.0, 0.0, 1.7632264491363552E9, 0.0, 2025-11-15 12:07:29.136
37.0, 2237.9879226344638, -121.70008445810527, -167.49328946555033, -126.70033069886267, -0.01600000075995922, 0.25600001215934753, 1.0240000486373901, 0.0, 0.0, 0.0, 0.0, 0.0, 1.763226449149999E9, 0.0, 2025-11-15 12:07:29.149
37.0, 2479.316186975222, 88.27659855410457, 11.700277011375874, 31.32166212890297, -0.01600000075995922, 0.25600001215934753, 1.0240000486373901, 0.0, 0.0, 0.0, 0.0, 0.0, 1.763226449149999E9, 0.0, 2025-11-15 12:07:29.149
38.0, 2243.0106082749553, -103.6775065716356, -135.8200767408125, -94.09962278511375, -0.01600000075995922, 0.25600001215934753, 1.0240000486373901, 0.0, 0.0, 0.0, 0.0, 0.0, 1.7632264491656427E9, 0.0, 2025-11-15 12:07:29.165
38.0, 2199.897041585762, -156.41757574677467, -191.53710628068075, -147.41189665347338, -0.01600000075995922, 0.25600001215934753, 1.0240000486373901, 0.0, 0.0, 0.0, 0.0, 0.0, 1.7632264491656427E9, 0.0, 2025-11-15 12:07:29.165
39.0, 2413.1610966590233, 24.769357406534255, -51.863062635529786, -33.47584450338036, -0.01600000075995922, 0.25600001215934753, 1.0240000486373901, 0.0, 0.0, 0.0, 0.0, 0.0, 1.7632264491663525E9, 0.0, 2025-11-15 12:07:29.166
39.0, 2348.894655820448, -12.90265484713018, -53.37024231767282, -27.641600572504103, -0.01600000075995922, 0.25600001215934753, 1.0240000486373901, 0.0, 0.0, 0.0, 0.0, 0.0, 1.7632264491663525E9, 0.0, 2025-11-15 12:07:29.166
40.0, 2182.110077396501, -163.72534026019275, -195.06009203894064, -153.00678698718548, -0.01600000075995922, 0.25600001215934753, 1.008000047877431, 0.0, 0.0, 0.0, 0.0, 0.0, 1.7632264491799884E9, 0.0, 2025-11-15 12:07:29.179
40.0, 2313.6722780377604, -56.61460552923381, -120.86795671796426, -88.8936820467934, -0.01600000075995922, 0.25600001215934753, 1.008000047877431, 0.0, 0.0, 0.0, 0.0, 0.0, 1.7632264491799884E9, 0.0, 2025-11-15 12:07:29.179
41.0, 2454.3934936705045, 70.7738667614758, 10.013582131359726, 26.306456288322806, -0.01600000075995922, 0.25600001215934753, 1.008000047877431, 0.0, 0.0, 0.0, 0.0, 0.0, 1.7632264491956494E9, 0.0, 2025-11-15 12:07:29.195
41.0, 2682.705036215484, -148.87045763619244, -182.76330098463222, -134.38208520784974, -0.01600000075995922, 0.25600001215934753, 1.008000047877431, 0.0, 0.0, 0.0, 0.0, 0.0, 1.7632264491956494E9, 0.0, 2025-11-15 12:07:29.195
42.0, 2734.0164636075497, -117.89286630321294, -172.73662920342758, -135.56389359384775, -0.01600000075995922, 0.25600001215934753, 1.008000047877431, 0.0, 0.0, 0.0, 0.0, 0.0, 1.763226449196356E9, 0.0, 2025-11-15 12:07:29.196
42.0, 2972.2480907849967, 92.61862240266055, 13.192497093696147, 30.794336235150695, -0.01600000075995922, 0.25600001215934753, 1.008000047877431, 0.0, 0.0, 0.0, 0.0, 0.0, 1.763226449196356E9, 0.0, 2025-11-15 12:07:29.196
43.0, 2741.548622118309, -97.44309334550053, -130.62535570235923, -101.84495559334755, -0.01600000075995922, 0.25600001215934753, 1.008000047877431, 0.0, 0.0, 0.0, 0.0, 0.0, 1.763226449209997E9, 0.0, 2025-11-15 12:07:29.209
43.0, 2691.3217657133937, -150.39259691815823, -192.0719119743444, -142.19847611524165, -0.01600000075995922, 0.25600001215934753, 1.008000047877431, 0.0, 0.0, 0.0, 0.0, 0.0, 1.763226449209997E9, 0.0, 2025-11-15 12:07:29.209
44.0, 2919.840872705914, 35.07652168441564, -41.511019558180124, -25.655713696032763, -0.01600000075995922, 0.25600001215934753, 1.008000047877431, 0.0, 0.0, 0.0, 0.0, 0.0, 1.7632264492256408E9, 0.0, 2025-11-15 12:07:29.225
44.0, 2832.9742164351046, -17.607448991388083, -59.25310494797304, -37.81412845198065, -0.01600000075995922, 0.25600001215934753, 1.008000047877431, 0.0, 0.0, 0.0, 0.0, 0.0, 1.7632264492256408E9, 0.0, 2025-11-15 12:07:29.225
45.0, 2678.209676468745, -156.0361059512943, -192.64785656752065, -135.94536338932812, -0.01600000075995922, 0.25600001215934753, 1.008000047877431, 0.0, 0.0, 0.0, 0.0, 0.0, 1.7632264492263412E9, 0.0, 2025-11-15 12:07:29.226
45.0, 2808.2123388284817, -56.120938735082746, -119.52907253382728, -84.43198139965534, -0.01600000075995922, 0.25600001215934753, 1.008000047877431, 0.0, 0.0, 0.0, 0.0, 0.0, 1.7632264492263412E9, 0.0, 2025-11-15 12:07:29.226
46.0, 2935.3838969217613, 60.73597528040409, -4.0035629025660455, 3.6351827569305897, -0.01600000075995922, 0.25600001215934753, 1.008000047877431, 0.0, 0.0, 0.0, 0.0, 0.0, 1.7632264492400367E9, 0.0, 2025-11-15 12:07:29.240
46.0, 3173.3593409522437, -141.5813926225528, -175.35455917241052, -143.35036530159414, -0.01600000075995922, 0.25600001215934753, 1.008000047877431, 0.0, 0.0, 0.0, 0.0, 0.0, 1.7632264492400367E9, 0.0, 2025-11-15 12:07:29.240
47.0, 3219.992153499741, -119.50476318411529, -172.53841450577602, -144.06094629317522, -0.01600000075995922, 0.25600001215934753, 1.008000047877431, 0.0, 0.0, 0.0, 0.0, 0.0, 1.763226449255788E9, 0.0, 2025-11-15 12:07:29.255
47.0, 2995.738402406685, 116.58016141876578, 40.88271636562422, 48.24096952844411, -0.01600000075995922, 0.25600001215934753, 1.008000047877431, 0.0, 0.0, 0.0, 0.0, 0.0, 1.763226449255788E9, 0.0, 2025-11-15 12:07:29.255
48.0, 3223.5001796581782, -98.27709103561938, -126.36560965282843, -86.89657547045499, -0.01600000075995922, 0.25600001215934753, 1.008000047877431, 0.0, 0.0, 0.0, 0.0, 0.0, 1.7632264492563553E9, 0.0, 2025-11-15 12:07:29.256
48.0, 3182.5632347431965, -148.10003824532032, -192.30752567155287, -159.98544030450284, -0.01600000075995922, 0.25600001215934753, 1.008000047877431, 0.0, 0.0, 0.0, 0.0, 0.0, 1.7632264492563553E9, 0.0, 2025-11-15 12:07:29.256
49.0, 3408.9655583607964, 43.45015768520534, -35.98344742367044, -22.820869529619813, -0.01600000075995922, 0.25600001215934753, 1.008000047877431, 0.0, 0.0, 0.0, 0.0, 0.0, 1.7632264492700603E9, 0.0, 2025-11-15 12:07:29.270
49.0, 3339.392199485097, 0.06731819920241833, -48.09698338015005, -20.88734125252813, -0.01600000075995922, 0.25600001215934753, 1.008000047877431, 0.0, 0.0, 0.0, 0.0, 0.0, 1.7632264492700603E9, 0.0, 2025-11-15 12:07:29.270
50.0, 3171.246297477279, -150.30657921917737, -188.35819131834432, -152.64401669148356, -0.01600000075995922, 0.25600001215934753, 1.008000047877431, 0.0, 0.0, 0.0, 0.0, 0.0, 1.7632264492857792E9, 0.0, 2025-11-15 12:07:29.285
50.0, 3306.144488879014, -38.95853783842176, -106.95552888279781, -84.05799140408635, -0.01600000075995922, 0.25600001215934753, 1.008000047877431, 0.0, 0.0, 0.0, 0.0, 0.0, 1.7632264492857792E9, 0.0, 2025-11-15 12:07:29.285
51.0, 3440.133884591516, 88.44115415215492, 18.634051529224962, 29.593828349374235, -0.01600000075995922, 0.25600001215934753, 1.008000047877431, 0.0, 0.0, 0.0, 0.0, 0.0, 1.7632264492863493E9, 0.0, 2025-11-15 12:07:29.286
51.0, 3668.587543334812, -141.75716792047024, -168.30484775593504, -134.74111560359597, -0.01600000075995922, 0.25600001215934753, 1.008000047877431, 0.0, 0.0, 0.0, 0.0, 0.0, 1.7632264492863493E9, 0.0, 2025-11-15 12:07:29.286
52.0, 3716.275007669814, -114.07068854849786, -169.35201974352822, -140.56413983460516, -0.01600000075995922, 0.25600001215934753, 1.008000047877431, 0.0, 0.0, 0.0, 0.0, 0.0, 1.7632264493000417E9, 0.0, 2025-11-15 12:07:29.300
52.0, 3960.426896477118, 98.80815682932734, 26.966548630502075, 38.94731813855469, -0.01600000075995922, 0.25600001215934753, 1.008000047877431, 0.0, 0.0, 0.0, 0.0, 0.0, 1.7632264493000417E9, 0.0, 2025-11-15 12:07:29.300
53.0, 3721.0658195130527, -92.97391289845109, -120.01151962811127, -78.9268486648798, -0.01600000075995922, 0.25600001215934753, 1.008000047877431, 0.0, 0.0, 0.0, 0.0, 0.0, 1.7632264493161013E9, 0.0, 2025-11-15 12:07:29.316
53.0, 3670.2592786150053, -155.0038935635239, -195.72205433109775, -160.93911479320377, -0.01600000075995922, 0.25600001215934753, 1.008000047877431, 0.0, 0.0, 0.0, 0.0, 0.0, 1.7632264493161013E9, 0.0, 2025-11-15 12:07:29.316
54.0, 3904.0666041448712, 45.18921116460115, -34.562285440508276, -24.877814505249262, -0.01600000075995922, 0.25600001215934753, 1.008000047877431, 0.0, 0.0, 0.0, 0.0, 0.0, 1.7632264493307893E9, 0.0, 2025-11-15 12:07:29.330
54.0, 3825.240732778795, -9.039338192902505, -54.52213150402531, -32.88494031038135, -0.01600000075995922, 0.25600001215934753, 1.008000047877431, 0.0, 0.0, 0.0, 0.0, 0.0, 1.7632264493307893E9, 0.0, 2025-11-15 12:07:29.330
55.0, 3664.29413818568, -152.64401669148356, -187.7411078256555, -151.93717559985816, -0.01600000075995922, 0.25600001215934753, 1.008000047877431, 0.0, 0.0, 0.0, 0.0, 0.0, 1.7632264493313642E9, 0.0, 2025-11-15 12:07:29.331
55.0, 3789.6069660009816, -50.79158129822463, -112.45692171761766, -90.13532883208245, -0.01600000075995922, 0.25600001215934753, 1.008000047877431, 0.0, 0.0, 0.0, 0.0, 0.0, 1.7632264493313642E9, 0.0, 2025-11-15 12:07:29.331
56.0, 3918.5811558729038, 75.55719880480319, 14.961469772737473, 21.107995349913836, -0.01600000075995922, 0.25600001215934753, 1.008000047877431, 0.0, 0.0, 0.0, 0.0, 0.0, 1.7632264493457985E9, 0.0, 2025-11-15 12:07:29.345
56.0, 3675.1174086574465, -132.3961983313784, -158.17345877597108, -130.18591745756567, -0.01600000075995922, 0.25600001215934753, 1.008000047877431, 0.0, 0.0, 0.0, 0.0, 0.0, 1.7632264493457985E9, 0.0, 2025-11-15 12:07:29.345
57.0, 3703.791221617721, -125.57088091224432, -173.30883389664814, -141.49911482352763, -0.01600000075995922, 0.25600001215934753, 1.008000047877431, 0.0, 0.0, 0.0, 0.0, 0.0, 1.7632264493463523E9, 0.0, 2025-11-15 12:07:29.346
57.0, 3479.3018568274565, 102.3835011869669, 29.95472869509831, 33.44966520369053, -0.01600000075995922, 0.25600001215934753, 1.008000047877431, 0.0, 0.0, 0.0, 0.0, 0.0, 1.7632264493463523E9, 0.0, 2025-11-15 12:07:29.346
58.0, 3714.4125374918804, -95.81249696481973, -121.85155040631071, -87.76049236021936, -0.01600000075995922, 0.25600001215934753, 1.008000047877431, 0.0, 0.0, 0.0, 0.0, 0.0, 1.7632264493600328E9, 0.0, 2025-11-15 12:07:29.360
58.0, 3672.166627592407, -150.4038166180253, -188.9603152112104, -147.68864925019443, -0.01600000075995922, 0.25600001215934753, 1.008000047877431, 0.0, 0.0, 0.0, 0.0, 0.0, 1.7632264493600328E9, 0.0, 2025-11-15 12:07:29.360
59.0, 3888.4188627302647, 27.78371677082032, -48.94594067009166, -36.68841856531799, -0.01600000075995922, 0.25600001215934753, 1.008000047877431, 0.0, 0.0, 0.0, 0.0, 0.0, 1.7632264493758273E9, 0.0, 2025-11-15 12:07:29.375
59.0, 3816.994253376499, -6.8627164186909795, -46.275652101729065, -27.118014578707516, -0.01600000075995922, 0.25600001215934753, 1.008000047877431, 0.0, 0.0, 0.0, 0.0, 0.0, 1.7632264493758273E9, 0.0, 2025-11-15 12:07:29.375
60.0, 3678.4197403183207, -142.56124641094357, -177.61345874564722, -136.77936107944697, -0.01600000075995922, 0.25600001215934753, 1.008000047877431, 0.0, 0.0, 0.0, 0.0, 0.0, 1.7632264493763707E9, 0.0, 2025-11-15 12:07:29.376
60.0, 3806.9862810950726, -44.28789527527988, -109.02743345825002, -85.95412068162113, -0.01600000075995922, 0.25600001215934753, 1.008000047877431, 0.0, 0.0, 0.0, 0.0, 0.0, 1.7632264493763707E9, 0.0, 2025-11-15 12:07:29.376
61.0, 3917.4292666865513, 66.5477798115462, 13.652504788246006, 26.96841858047992, -0.01600000075995922, 0.25600001215934753, 1.008000047877431, 0.0, 0.0, 0.0, 0.0, 0.0, 1.7632264493899975E9, 0.0, 2025-11-15 12:07:29.389
61.0, 4159.96364876302, -145.48584817629308, -170.34309323178604, -128.22620988078415, -0.01600000075995922, 0.25600001215934753, 1.008000047877431, 0.0, 0.0, 0.0, 0.0, 0.0, 1.7632264493899975E9, 0.0, 2025-11-15 12:07:29.389
62.0, 4223.624225808773, -110.65989978890866, -167.77752186218277, -135.45543649513274, -0.01600000075995922, 0.25600001215934753, 1.008000047877431, 0.0, 0.0, 0.0, 0.0, 0.0, 1.7632264494057848E9, 0.0, 2025-11-15 12:07:29.405
62.0, 4418.9778999942355, 78.93432846479118, 8.038914954755455, 18.310550183057785, -0.01600000075995922, 0.25600001215934753, 1.008000047877431, 0.0, 0.0, 0.0, 0.0, 0.0, 1.7632264494057848E9, 0.0, 2025-11-15 12:07:29.405
63.0, 4196.633367828559, -106.5347901377827, -140.14714098954573, -104.13003446627408, -0.01600000075995922, 0.25600001215934753, 1.008000047877431, 0.0, 0.0, 0.0, 0.0, 0.0, 1.7632264494063485E9, 0.0, 2025-11-15 12:07:29.406
63.0, 4161.5942451437, -155.3330047596246, -197.83135790610686, -156.17448224965483, -0.01600000075995922, 0.25600001215934753, 1.008000047877431, 0.0, 0.0, 0.0, 0.0, 0.0, 1.7632264494063485E9, 0.0, 2025-11-15 12:07:29.406
64.0, 4380.240016253199, 28.823408958502114, -49.27879176614806, -38.10210074856877, -0.01600000075995922, 0.25600001215934753, 1.008000047877431, 0.0, 0.0, 0.0, 0.0, 0.0, 1.7632264494199889E9, 0.0, 2025-11-15 12:07:29.419
64.0, 4318.965495379176, -6.795398219488561, -46.14849550323561, -21.75499804224819, -0.01600000075995922, 0.25600001215934753, 1.008000047877431, 0.0, 0.0, 0.0, 0.0, 0.0, 1.7632264494199889E9, 0.0, 2025-11-15 12:07:29.419
65.0, 4151.283340965863, -163.54582506231964, -194.45048834616318, -163.57200436200947, -0.01600000075995922, 0.25600001215934753, 1.008000047877431, 0.0, 0.0, 0.0, 0.0, 0.0, 1.763226449435799E9, 0.0, 2025-11-15 12:07:29.435
65.0, 4288.324495042209, -50.31287410389632, -113.33953810716048, -88.90864164661616, -0.01600000075995922, 0.25600001215934753, 1.008000047877431, 0.0, 0.0, 0.0, 0.0, 0.0, 1.763226449435799E9, 0.0, 2025-11-15 12:07:29.435
66.0, 4416.090697228443, 78.49676016997546, 22.650704081635922, 41.15011921245605, -0.01600000075995922, 0.25600001215934753, 1.008000047877431, 0.0, 0.0, 0.0, 0.0, 0.0, 1.7632264494363556E9, 0.0, 2025-11-15 12:07:29.436
66.0, 4655.640639140271, -142.98011520598084, -172.63191200466827, -133.9108578134328, -0.01600000075995922, 0.25600001215934753, 1.008000047877431, 0.0, 0.0, 0.0, 0.0, 0.0, 1.7632264494363556E9, 0.0, 2025-11-15 12:07:29.436
67.0, 4691.453921115957, -123.5027162367478, -176.2184760621749, -144.77900708466768, -0.01600000075995922, 0.25600001215934753, 1.008000047877431, 0.0, 0.0, 0.0, 0.0, 0.0, 1.763226449449993E9, 0.0, 2025-11-15 12:07:29.449
67.0, 4446.761616765056, 88.80766434781253, 6.756129269953817, 11.67596766166389, -0.01600000075995922, 0.25600001215934753, 1.008000047877431, 0.0, 0.0, 0.0, 0.0, 0.0, 1.763226449449993E9, 0.0, 2025-11-15 12:07:29.449
68.0, 4204.726511332672, -102.51439768541604, -135.95471313921735, -87.83529035933316, -0.01600000075995922, 0.25600001215934753, 1.008000047877431, 0.0, 0.0, 0.0, 0.0, 0.0, 1.763226449465836E9, 0.0, 2025-11-15 12:07:29.465
68.0, 4161.220255148131, -157.45352803450078, -204.7127738245763, -171.27245837077498, -0.01600000075995922, 0.25600001215934753, 1.008000047877431, 0.0, 0.0, 0.0, 0.0, 0.0, 1.763226449465836E9, 0.0, 2025-11-15 12:07:29.465
69.0, 4395.038800377864, 33.74511730019003, -44.719853720162064, -30.20717194210738, -0.01600000075995922, 0.25600001215934753, 1.008000047877431, 0.0, 0.0, 0.0, 0.0, 0.0, 1.7632264494663455E9, 0.0, 2025-11-15 12:07:29.466
69.0, 4303.321493864525, -14.447233528830111, -53.45999991660938, -19.125848373398185, -0.01600000075995922, 0.25600001215934753, 1.008000047877431, 0.0, 0.0, 0.0, 0.0, 0.0, 1.7632264494663455E9, 0.0, 2025-11-15 12:07:29.466
70.0, 4147.872552206274, -161.68335488438606, -190.53107319260016, -150.89374351222068, -0.01600000075995922, 0.25600001215934753, 1.008000047877431, 0.0, 0.0, 0.0, 0.0, 0.0, 1.7632264494800525E9, 0.0, 2025-11-15 12:07:29.480
70.0, 4289.266949831042, -54.2472488572821, -119.72354733152315, -95.8237166646868, -0.01600000075995922, 0.25600001215934753, 1.008000047877431, 0.0, 0.0, 0.0, 0.0, 0.0, 1.7632264494800525E9, 0.0, 2025-11-15 12:07:29.480
71.0, 4398.576745735947, 61.09126577619463, 2.776875717099756, 7.778991907835007, -0.01600000075995922, 0.25600001215934753, 1.008000047877431, 0.0, 0.0, 0.0, 0.0, 0.0, 1.7632264494958436E9, 0.0, 2025-11-15 12:07:29.495
71.0, 4155.917077010963, -146.45822216477245, -174.251288685482, -133.4358905190602, -0.01600000075995922, 0.25600001215934753, 1.008000047877431, 0.0, 0.0, 0.0, 0.0, 0.0, 1.7632264494958436E9, 0.0, 2025-11-15 12:07:29.495
72.0, 4220.654745243955, -111.04136958438903, -166.8425468732603, -138.45857615955174, -0.01600000075995922, 0.25600001215934753, 1.008000047877431, 0.0, 0.0, 0.0, 0.0, 0.0, 1.7632264494963667E9, 0.0, 2025-11-15 12:07:29.496
72.0, 4446.511043468025, 93.9724661866203, 15.08114657131955, 27.918353169225156, -0.01600000075995922, 0.25600001215934753, 1.008000047877431, 0.0, 0.0, 0.0, 0.0, 0.0, 1.7632264494963667E9, 0.0, 2025-11-15 12:07:29.496
73.0, 4222.161924926098, -86.75445927213877, -116.15568277379498, -84.64889559708536, -0.01600000075995922, 0.25600001215934753, 1.008000047877431, 0.0, 0.0, 0.0, 0.0, 0.0, 1.763226449510041E9, 0.0, 2025-11-15 12:07:29.510
73.0, 4141.260409084614, -165.0081259449944, -201.55255836201832, -168.9724198980257, -0.01600000075995922, 0.25600001215934753, 1.008000047877431, 0.0, 0.0, 0.0, 0.0, 0.0, 1.763226449510041E9, 0.0, 2025-11-15 12:07:29.510
74.0, 4384.970989697147, 30.427826039493084, -47.6332357856445, -35.91051937453449, -0.01600000075995922, 0.25600001215934753, 1.008000047877431, 0.0, 0.0, 0.0, 0.0, 0.0, 1.763226449525748E9, 0.0, 2025-11-15 12:07:29.525
74.0, 4311.12666507205, -15.767418213188648, -59.81035004137084, -40.60035391896963, -0.01600000075995922, 0.25600001215934753, 1.008000047877431, 0.0, 0.0, 0.0, 0.0, 0.0, 1.763226449525748E9, 0.0, 2025-11-15 12:07:29.525
75.0, 4147.625718809199, -157.57694473303854, -191.9223159761168, -152.62157729174942, -0.01600000075995922, 0.25600001215934753, 1.008000047877431, 0.0, 0.0, 0.0, 0.0, 0.0, 1.763226449526432E9, 0.0, 2025-11-15 12:07:29.526
75.0, 4284.640693585854, -54.84563285019249, -118.79605214251205, -107.7913965228945, -0.01600000075995922, 0.25600001215934753, 1.008000047877431, 0.0, 0.0, 0.0, 0.0, 0.0, 1.763226449526432E9, 0.0, 2025-11-15 12:07:29.526
76.0, 4420.0998699809425, 79.01286636386067, 17.336306244600564, 26.485971486195922, -0.01600000075995922, 0.25600001215934753, 1.008000047877431, 0.0, 0.0, 0.0, 0.0, 0.0, 1.7632264495400994E9, 0.0, 2025-11-15 12:07:29.540
76.0, 4652.499123177491, -143.55605979915708, -171.82783351419494, -138.7353287562728, -0.01600000075995922, 0.25600001215934753, 1.008000047877431, 0.0, 0.0, 0.0, 0.0, 0.0, 1.7632264495400994E9, 0.0, 2025-11-15 12:07:29.540
77.0, 4685.032512892038, -125.40632531419396, -173.08817979926243, -140.65015753358603, -0.01600000075995922, 0.25600001215934753, 1.008000047877431, 0.0, 0.0, 0.0, 0.0, 0.0, 1.7632264495557008E9, 0.0, 2025-11-15 12:07:29.555
77.0, 4445.86404077569, 92.55130420345813, 18.936983425635844, 24.94139280449599, -0.01600000075995922, 0.25600001215934753, 1.008000047877431, 0.0, 0.0, 0.0, 0.0, 0.0, 1.7632264495557008E9, 0.0, 2025-11-15 12:07:29.555
78.0, 4216.937284688, -88.7066870490089, -118.42206214694306, -84.74987289588898, -0.01600000075995922, 0.25600001215934753, 1.008000047877431, 0.0, 0.0, 0.0, 0.0, 0.0, 1.7632264495563986E9, 0.0, 2025-11-15 12:07:29.556
78.0, 4136.219023944344, -171.68010746594518, -217.33867607498541, -188.3525814684108, -0.01600000075995922, 0.25600001215934753, 1.008000047877431, 0.0, 0.0, 0.0, 0.0, 0.0, 1.7632264495563986E9, 0.0, 2025-11-15 12:07:29.556
79.0, 3895.46857414674, 34.384640192613006, -44.47676022304222, -27.3087494764477, -0.01600000075995922, 0.25600001215934753, 1.008000047877431, 0.0, 0.0, 0.0, 0.0, 0.0, 1.7632264495700808E9, 0.0, 2025-11-15 12:07:29.570
79.0, 3834.287550771609, 2.7637860672548413, -48.62056937394664, -32.765263511799276, -0.01600000075995922, 0.25600001215934753, 1.008000047877431, 0.0, 0.0, 0.0, 0.0, 0.0, 1.7632264495700808E9, 0.0, 2025-11-15 12:07:29.570
80.0, 3673.034284382127, -147.1762829562649, -186.48824134049937, -151.1854557087645, -0.01600000075995922, 0.25600001215934753, 1.008000047877431, 0.0, 0.0, 0.0, 0.0, 0.0, 1.7632264495856924E9, 0.0, 2025-11-15 12:07:29.585
80.0, 3814.3090052083135, -41.72980370558798, -113.15254310937598, -89.25271244253963, -0.01600000075995922, 0.25600001215934753, 1.008000047877431, 0.0, 0.0, 0.0, 0.0, 0.0, 1.7632264495856924E9, 0.0, 2025-11-15 12:07:29.585
81.0, 3922.350975028239, 73.72464782651514, 7.313374363351613, 21.586702544242144, -0.01600000075995922, 0.25600001215934753, 1.008000047877431, 0.0, 0.0, 0.0, 0.0, 0.0, 1.7632264495864108E9, 0.0, 2025-11-15 12:07:29.586
81.0, 4163.935422515962, -146.2936665667221, -178.64567113341764, -132.6579913282767, -0.01600000075995922, 0.25600001215934753, 1.008000047877431, 0.0, 0.0, 0.0, 0.0, 0.0, 1.7632264495864108E9, 0.0, 2025-11-15 12:07:29.586
82.0, 4192.616715276148, -132.1381452344358, -182.98769498197362, -147.65125025063753, -0.01600000075995922, 0.25600001215934753, 1.008000047877431, 0.0, 0.0, 0.0, 0.0, 0.0, 1.7632264496000519E9, 0.0, 2025-11-15 12:07:29.600
82.0, 3952.6217252695933, 89.69776053726673, 13.596406288910657, 25.76417079474777, -0.01600000075995922, 0.25600001215934753, 1.008000047877431, 0.0, 0.0, 0.0, 0.0, 0.0, 1.7632264496000519E9, 0.0, 2025-11-15 12:07:29.600
83.0, 3722.917069991119, -88.29155815392733, -124.28996517742053, -95.9321737634018, -0.01600000075995922, 0.25600001215934753, 1.008000047877431, 0.0, 0.0, 0.0, 0.0, 0.0, 1.7632264496157014E9, 0.0, 2025-11-15 12:07:29.615
83.0, 3677.5296441288665, -152.9993071872741, -197.80143870646134, -158.30996512435377, -0.01600000075995922, 0.25600001215934753, 1.008000047877431, 0.0, 0.0, 0.0, 0.0, 0.0, 1.7632264496157014E9, 0.0, 2025-11-15 12:07:29.615
84.0, 3894.036192463711, 24.817976105958223, -61.126794825773686, -57.16811072267592, -0.01600000075995922, 0.25600001215934753, 1.008000047877431, 0.0, 0.0, 0.0, 0.0, 0.0, 1.7632264496163957E9, 0.0, 2025-11-15 12:07:29.616
84.0, 3827.1406019562855, -2.0831242753192782, -44.42814152361825, -22.050450138747692, -0.01600000075995922, 0.25600001215934753, 1.008000047877431, 0.0, 0.0, 0.0, 0.0, 0.0, 1.7632264496163957E9, 0.0, 2025-11-15 12:07:29.616
85.0, 3646.4959542965516, -177.1964599005878, -203.38510934030637, -160.5239858981222, -0.01600000075995922, 0.25600001215934753, 1.008000047877431, 0.0, 0.0, 0.0, 0.0, 0.0, 1.763226449630026E9, 0.0, 2025-11-15 12:07:29.630
85.0, 3787.759455422871, -59.99921498913318, -123.69532108446583, -97.36455544643104, -0.01600000075995922, 0.25600001215934753, 1.008000047877431, 0.0, 0.0, 0.0, 0.0, 0.0, 1.763226449630026E9, 0.0, 2025-11-15 12:07:29.630
86.0, 3922.8670812221244, 69.79027307312936, 10.372612527105957, 24.066256214864552, -0.01600000075995922, 0.25600001215934753, 1.008000047877431, 0.0, 0.0, 0.0, 0.0, 0.0, 1.7632264496457217E9, 0.0, 2025-11-15 12:07:29.645
86.0, 4155.797400212381, -154.4092494705692, -178.63445143355057, -145.08193898107857, -0.01600000075995922, 0.25600001215934753, 1.008000047877431, 0.0, 0.0, 0.0, 0.0, 0.0, 1.7632264496457217E9, 0.0, 2025-11-15 12:07:29.645
87.0, 4195.6759534399025, -138.70914945658296, -188.57884541573003, -149.08363193366677, -0.01600000075995922, 0.25600001215934753, 1.008000047877431, 0.0, 0.0, 0.0, 0.0, 0.0, 1.7632264496464083E9, 0.0, 2025-11-15 12:07:29.646
87.0, 3962.296846454963, 95.28143117111176, 17.822493238840252, 25.259284300729632, -0.01600000075995922, 0.25600001215934753, 1.008000047877431, 0.0, 0.0, 0.0, 0.0, 0.0, 1.7632264496464083E9, 0.0, 2025-11-15 12:07:29.646
88.0, 3737.1212100228295, -82.68544812034816, -113.75840690219775, -90.12410913221538, -0.01600000075995922, 0.25600001215934753, 1.008000047877431, 0.0, 0.0, 0.0, 0.0, 0.0, 1.763226449660016E9, 0.0, 2025-11-15 12:07:29.660
88.0, 3674.848135860637, -157.75645993091166, -195.59863763255998, -155.9276488525793, -0.01600000075995922, 0.25600001215934753, 1.008000047877431, 0.0, 0.0, 0.0, 0.0, 0.0, 1.763226449660016E9, 0.0, 2025-11-15 12:07:29.660
89.0, 3880.2584010269493, 24.18967291340232, -53.79659091262147, -30.375467440113425, -0.01600000075995922, 0.25600001215934753, 1.008000047877431, 0.0, 0.0, 0.0, 0.0, 0.0, 1.763226449675707E9, 0.0, 2025-11-15 12:07:29.675
89.0, 3822.7125604087487, -13.807710636407137, -50.48303955188021, -26.018483991734684, -0.01600000075995922, 0.25600001215934753, 1.008000047877431, 0.0, 0.0, 0.0, 0.0, 0.0, 1.763226449675707E9, 0.0, 2025-11-15 12:07:29.675
90.0, 3652.3713371269405, -165.32227754127234, -191.06587888626382, -144.09086549282074, -0.01600000075995922, 0.25600001215934753, 1.008000047877431, 0.0, 0.0, 0.0, 0.0, 0.0, 1.7632264496764016E9, 0.0, 2025-11-15 12:07:29.676
90.0, 3795.8301595272496, -54.82319345045835, -113.07774511026219, -73.18984213285148, -0.01600000075995922, 0.25600001215934753, 1.008000047877431, 0.0, 0.0, 0.0, 0.0, 0.0, 1.7632264496764016E9, 0.0, 2025-11-15 12:07:29.676
91.0, 3921.629174336791, 71.50314725283533, 14.740815675351769, 25.966125392355025, -0.01600000075995922, 0.25600001215934753, 1.008000047877431, 0.0, 0.0, 0.0, 0.0, 0.0, 1.7632264496900706E9, 0.0, 2025-11-15 12:07:29.690
91.0, 4148.366219000425, -151.854897800833, -176.7345822560601, -133.2900344207883, -0.01600000075995922, 0.25600001215934753, 1.008000047877431, 0.0, 0.0, 0.0, 0.0, 0.0, 1.7632264496900706E9, 0.0, 2025-11-15 12:07:29.690
92.0, 4191.049697194714, -131.0236550476402, -173.38363189576194, -135.14502479881048, -0.01600000075995922, 0.25600001215934753, 1.008000047877431, 0.0, 0.0, 0.0, 0.0, 0.0, 1.7632264497054372E9, 0.0, 2025-11-15 12:07:29.705
92.0, 3957.532213911414, 93.63213529065251, 22.991034977603704, 34.433258892036974, -0.01600000075995922, 0.25600001215934753, 1.008000047877431, 0.0, 0.0, 0.0, 0.0, 0.0, 1.7632264497054372E9, 0.0, 2025-11-15 12:07:29.705
93.0, 3733.437408566475, -81.13712953869253, -108.05505946977064, -59.67010379303247, -0.01600000075995922, 0.25600001215934753, 1.008000047877431, 0.0, 0.0, 0.0, 0.0, 0.0, 1.763226449720708E9, 0.0, 2025-11-15 12:07:29.720
93.0, 3663.6583551932126, -164.0394918564707, -201.41792196361348, -162.03116558026522, -0.01600000075995922, 0.25600001215934753, 1.008000047877431, 0.0, 0.0, 0.0, 0.0, 0.0, 1.763226449720708E9, 0.0, 2025-11-15 12:07:29.720
94.0, 3419.4933767360635, 49.258222316391766, -22.220615586731583, -10.640015373937786, -0.01600000075995922, 0.25600001215934753, 1.008000047877431, 0.0, 0.0, 0.0, 0.0, 0.0, 1.7632264497214005E9, 0.0, 2025-11-15 12:07:29.721
94.0, 3325.513430749532, -18.94633317552507, -57.62998836720362, -36.441585168242455, -0.01600000075995922, 0.25600001215934753, 1.008000047877431, 0.0, 0.0, 0.0, 0.0, 0.0, 1.7632264497214005E9, 0.0, 2025-11-15 12:07:29.721
95.0, 3154.0165783814155, -175.4873256208375, -207.1586683955975, -165.5242321388796, -0.01600000075995922, 0.25600001215934753, 1.008000047877431, 0.0, 0.0, 0.0, 0.0, 0.0, 1.7632264497357192E9, 0.0, 2025-11-15 12:07:29.735
95.0, 3295.2576401080005, -61.90282406657934, -120.30323182465509, -81.3353442363441, -0.01600000075995922, 0.25600001215934753, 1.008000047877431, 0.0, 0.0, 0.0, 0.0, 0.0, 1.7632264497357192E9, 0.0, 2025-11-15 12:07:29.735
96.0, 3432.261395184789, 75.75915340241045, 23.97088876599446, 48.457883725874126, -0.01600000075995922, 0.25600001215934753, 1.008000047877431, 0.0, 0.0, 0.0, 0.0, 0.0, 1.7632264497364051E9, 0.0, 2025-11-15 12:07:29.736
96.0, 3621.7602559896186, 298.77873751008883, -213.94284691521898, -184.35462841577828, -0.01600000075995922, 0.25600001215934753, 1.008000047877431, 0.0, 0.0, 0.0, 0.0, 0.0, 1.7632264497364051E9, 0.0, 2025-11-15 12:07:29.736
97.0, 3737.69341471605, 395.6421463624574, -138.77459770580754, -108.5356366140768, -0.01600000075995922, 0.25600001215934753, 1.008000047877431, 0.0, 0.0, 0.0, 0.0, 0.0, 1.7632264497500558E9, 0.0, 2025-11-15 12:07:29.750
97.0, 3973.8306979183108, 604.403361889068, 44.37578292423859, 51.41240469086915, -0.01600000075995922, 0.25600001215934753, 1.008000047877431, 0.0, 0.0, 0.0, 0.0, 0.0, 1.7632264497500558E9, 0.0, 2025-11-15 12:07:29.750
98.0, 4171.923848821316, 363.5687643424608, -149.81104247504845, -125.38014601450413, -0.01600000075995922, 0.25600001215934753, 1.008000047877431, 0.0, 0.0, 0.0, 0.0, 0.0, 1.7632264497656949E9, 0.0, 2025-11-15 12:07:29.765
98.0, 4168.83095155796, 352.4051629747264, -172.3925584075041, -144.89120408333838, -0.01600000075995922, 0.25600001215934753, 1.008000047877431, 0.0, 0.0, 0.0, 0.0, 0.0, 1.7632264497656949E9, 0.0, 2025-11-15 12:07:29.765
99.0, 4390.348965833429, 531.3967748540454, -25.665063445921987, -6.7430396201089025, -0.01600000075995922, 0.25600001215934753, 1.008000047877431, 0.0, 0.0, 0.0, 0.0, 0.0, 1.7632264497663977E9, 0.0, 2025-11-15 12:07:29.766
99.0, 4320.203402264509, 482.53124203300104, -41.79151205485687, -25.39766059909016, -0.01600000075995922, 0.25600001215934753, 1.008000047877431, 0.0, 0.0, 0.0, 0.0, 0.0, 1.7632264497663977E9, 0.0, 2025-11-15 12:07:29.766
100.0, 4179.197954235133, 348.1005381257273, -173.96331638889387, -147.53531335201114, -0.01600000075995922, 0.25600001215934753, 1.008000047877431, 0.0, 0.0, 0.0, 0.0, 0.0, 1.763226449780784E9, 0.0, 2025-11-15 12:07:29.780
100.0, 4264.703286922071, 441.46714051952586, -102.05625994084403, -86.46274707559496, -0.01600000075995922, 0.25600001215934753, 1.008000047877431, 0.0, 0.0, 0.0, 0.0, 0.0, 1.763226449780784E9, 0.0, 2025-11-15 12:07:29.780
0.0, 1.0677414373494685, 72.76536348788068, 15.898314711637795, 25.117168102413416, -0.01600000075995922, 0.25600001215934753, 1.008000047877431, 0.0, 0.0, 0.0, 0.0, 0.0, 1.763226449781404E9, 0.0, 2025-11-15 12:07:29.781
1.0, 234.8170985179022, -155.0880413125269, -181.98727174382657, -154.3344514714554, -0.01600000075995922, 0.27200001291930676, 1.008000047877431, 0.0, 0.0, 0.0, 0.0, 0.0, 1.7632264497950525E9, 0.0, 2025-11-15 12:07:29.795
1.0, 311.5149668091908, -86.39729882637039, -134.5466408059001, -96.84470935259014, -0.01600000075995922, 0.27200001291930676, 1.008000047877431, 0.0, 0.0, 0.0, 0.0, 0.0, 1.7632264497950525E9, 0.0, 2025-11-15 12:07:29.795
2.0, 522.2396298125386, 99.52808757079765, 30.046356244012713, 37.47005765605718, -0.01600000075995922, 0.27200001291930676, 1.008000047877431, 0.0, 0.0, 0.0, 0.0, 0.0, 1.7632264498106852E9, 0.0, 2025-11-15 12:07:29.810
2.0, 280.63835277501494, -100.97916875360534, -121.71130415797234, -87.58097716234624, -0.01600000075995922, 0.27200001291930676, 1.008000047877431, 0.0, 0.0, 0.0, 0.0, 0.0, 1.7632264498106852E9, 0.0, 2025-11-15 12:07:29.810
3.0, 265.4244397552684, -132.2709116828628, -167.60735641419888, -127.71010368689895, -0.01600000075995922, 0.27200001291930676, 1.008000047877431, 0.0, 0.0, 0.0, 0.0, 0.0, 1.7632264498113852E9, 0.0, 2025-11-15 12:07:29.811
3.0, 477.5328657422215, 49.16285486752167, -30.031396644189954, -23.213559024967253, -0.01600000075995922, 0.27200001291930676, 1.008000047877431, 0.0, 0.0, 0.0, 0.0, 0.0, 1.7632264498113852E9, 0.0, 2025-11-15 12:07:29.811
4.0, 392.9924272438511, 1.3145748344250023, -37.200784859247506, -19.066009974107146, -0.01600000075995922, 0.27200001291930676, 1.008000047877431, 0.0, 0.0, 0.0, 0.0, 0.0, 1.763226449825029E9, 0.0, 2025-11-15 12:07:29.825
4.0, 225.9984144223854, -163.18866461655125, -196.77483616862446, -165.75984583608806, -0.01600000075995922, 0.27200001291930676, 1.008000047877431, 0.0, 0.0, 0.0, 0.0, 0.0, 1.763226449825029E9, 0.0, 2025-11-15 12:07:29.825
5.0, 362.1345127094537, -40.05245857546106, -104.22727186512202, -86.92649467010051, -0.01600000075995922, 0.27200001291930676, 1.008000047877431, 0.0, 0.0, 0.0, 0.0, 0.0, 1.7632264498406672E9, 0.0, 2025-11-15 12:07:29.840
5.0, 478.28832553327084, 70.71589831216261, 13.149488244205713, 28.045509767718613, -0.01600000075995922, 0.27200001291930676, 1.008000047877431, 0.0, 0.0, 0.0, 0.0, 0.0, 1.7632264498406672E9, 0.0, 2025-11-15 12:07:29.840
6.0, 233.34731783531606, -145.1586069301702, -172.3046707585454, -143.97118869423866, -0.01600000075995922, 0.27200001291930676, 1.008000047877431, 0.0, 0.0, 0.0, 0.0, 0.0, 1.7632264498413863E9, 0.0, 2025-11-15 12:07:29.841
6.0, 306.3015462709591, -92.38487865542993, -140.20136953890324, -97.24113874789327, -0.01600000075995922, 0.27200001291930676, 1.008000047877431, 0.0, 0.0, 0.0, 0.0, 0.0, 1.7632264498413863E9, 0.0, 2025-11-15 12:07:29.841
7.0, 525.2577290767804, 94.47922263061628, 24.765617506578565, 27.192812577821314, -0.01600000075995922, 0.27200001291930676, 1.008000047877431, 0.0, 0.0, 0.0, 0.0, 0.0, 1.7632264498550177E9, 0.0, 2025-11-15 12:07:29.855
7.0, 293.83271981868893, -94.0266947359778, -119.68053848203272, -85.35947658866644, -0.01600000075995922, 0.27200001291930676, 1.008000047877431, 0.0, 0.0, 0.0, 0.0, 0.0, 1.7632264498550177E9, 0.0, 2025-11-15 12:07:29.855
8.0, 251.25021892320365, -140.47625218564644, -179.24218517635018, -138.26036146190017, -0.01600000075995922, 0.27200001291930676, 1.008000047877431, 0.0, 0.0, 0.0, 0.0, 0.0, 1.7632264498706658E9, 0.0, 2025-11-15 12:07:29.870
8.0, 473.37783689145, 49.72757976083085, -25.479938398115337, -8.87478259485215, -0.01600000075995922, 0.27200001291930676, 1.008000047877431, 0.0, 0.0, 0.0, 0.0, 0.0, 1.7632264498706658E9, 0.0, 2025-11-15 12:07:29.870
9.0, 395.5205996138975, 1.4716506325639784, -39.87481332756579, -22.1963062370196, -0.01600000075995922, 0.27200001291930676, 1.008000047877431, 0.0, 0.0, 0.0, 0.0, 0.0, 1.763226449871384E9, 0.0, 2025-11-15 12:07:29.871
9.0, 236.23452060110867, -145.07258923118934, -182.6006153365597, -153.16012288536876, -0.01600000075995922, 0.27200001291930676, 1.008000047877431, 0.0, 0.0, 0.0, 0.0, 0.0, 1.763226449871384E9, 0.0, 2025-11-15 12:07:29.871
10.0, 390.5240932730958, -17.52330124238506, -78.54163896944374, -64.01212764158845, -0.01600000075995922, 0.27200001291930676, 0.9920000471174717, 0.0, 0.0, 0.0, 0.0, 0.0, 1.7632264498850343E9, 0.0, 2025-11-15 12:07:29.885
10.0, 510.44024545233697, 103.69059622148052, 46.28500185161829, 67.90162359550595, -0.01600000075995922, 0.27200001291930676, 0.9920000471174717, 0.0, 0.0, 0.0, 0.0, 0.0, 1.7632264498850343E9, 0.0, 2025-11-15 12:07:29.885
11.0, 752.2079480378889, -123.97581358114257, -147.89434374775738, -109.76232379954308, -0.01600000075995922, 0.288000013679266, 0.9920000471174717, 0.0, 0.0, 0.0, 0.0, 0.0, 1.76322644990085E9, 0.0, 2025-11-15 12:07:29.900
11.0, 807.4051314839162, -90.22695638099685, -141.64123102184385, -115.77982282824814, -0.01600000075995922, 0.288000013679266, 0.9920000471174717, 0.0, 0.0, 0.0, 0.0, 0.0, 1.76322644990085E9, 0.0, 2025-11-15 12:07:29.900
12.0, 1042.2671088012867, 122.43871469935402, 52.964463172480464, 51.13191219419241, -0.01600000075995922, 0.288000013679266, 0.9920000471174717, 0.0, 0.0, 0.0, 0.0, 0.0, 1.7632264499014044E9, 0.0, 2025-11-15 12:07:29.901
12.0, 799.2820687801577, -60.756544730160385, -83.53066551033407, -56.35655243229121, -0.01600000075995922, 0.288000013679266, 0.9920000471174717, 0.0, 0.0, 0.0, 0.0, 0.0, 1.7632264499014044E9, 0.0, 2025-11-15 12:07:29.901
13.0, 747.0020072995685, -131.1938204956241, -163.43736796360463, -127.52310868911445, -0.01600000075995922, 0.288000013679266, 0.9920000471174717, 0.0, 0.0, 0.0, 0.0, 0.0, 1.7632264499149873E9, 0.0, 2025-11-15 12:07:29.914
13.0, 502.5004378464073, 68.35228154016659, -3.096637163311243, 7.980946505442262, -0.01600000075995922, 0.288000013679266, 0.9920000471174717, 0.0, 0.0, 0.0, 0.0, 0.0, 1.7632264499149873E9, 0.0, 2025-11-15 12:07:29.914
14.0, 392.57355844881386, 6.527995372656733, -28.767310459166765, -4.712273944169283, -0.01600000075995922, 0.288000013679266, 0.9920000471174717, 0.0, 0.0, 0.0, 0.0, 0.0, 1.7632264499307332E9, 0.0, 2025-11-15 12:07:29.930
14.0, 239.71636745985597, -136.87846842827275, -162.00872618053108, -123.98890323098749, -0.01600000075995922, 0.288000013679266, 0.9920000471174717, 0.0, 0.0, 0.0, 0.0, 0.0, 1.7632264499307332E9, 0.0, 2025-11-15 12:07:29.930
15.0, 401.80737143941224, -14.176090782042593, -75.82647160161287, -54.03033465985209, -0.01600000075995922, 0.288000013679266, 0.9920000471174717, 0.0, 0.0, 0.0, 0.0, 0.0, 1.763226449931406E9, 0.0, 2025-11-15 12:07:29.931
15.0, 511.9100261349231, 103.05107332905754, 54.76335505116731, 80.83419764228165, -0.01600000075995922, 0.288000013679266, 0.9920000471174717, 0.0, 0.0, 0.0, 0.0, 0.0, 1.763226449931406E9, 0.0, 2025-11-15 12:07:29.931
16.0, 727.9808761249296, -135.92853383952752, -162.01994588039815, -134.16891091037542, -0.01600000075995922, 0.288000013679266, 0.9920000471174717, 0.0, 0.0, 0.0, 0.0, 0.0, 1.7632264499449952E9, 0.0, 2025-11-15 12:07:29.944
16.0, 782.3066628812812, -108.42156966542825, -152.97686778753996, -123.10254694148898, -0.01600000075995922, 0.288000013679266, 0.9920000471174717, 0.0, 0.0, 0.0, 0.0, 0.0, 1.7632264499449952E9, 0.0, 2025-11-15 12:07:29.944
17.0, 1023.5264701233245, 101.00160815333948, 23.830642517656088, 29.212358553893864, -0.01600000075995922, 0.288000013679266, 0.9920000471174717, 0.0, 0.0, 0.0, 0.0, 0.0, 1.76322644996081E9, 0.0, 2025-11-15 12:07:29.960
17.0, 804.0728806233965, -72.48487099120393, -98.4902653330937, -66.19622921571136, -0.01600000075995922, 0.288000013679266, 0.9920000471174717, 0.0, 0.0, 0.0, 0.0, 0.0, 1.76322644996081E9, 0.0, 2025-11-15 12:07:29.960
18.0, 728.7812147154473, -153.4985838313587, -186.41531329136342, -148.9228162355721, -0.01600000075995922, 0.288000013679266, 0.9920000471174717, 0.0, 0.0, 0.0, 0.0, 0.0, 1.7632264499613876E9, 0.0, 2025-11-15 12:07:29.961
18.0, 945.8337884438224, 28.608364711049944, -39.88603302743286, -21.994351639412344, -0.01600000075995922, 0.288000013679266, 0.9920000471174717, 0.0, 0.0, 0.0, 0.0, 0.0, 1.7632264499613876E9, 0.0, 2025-11-15 12:07:29.961
19.0, 883.7963279788382, -3.6931512062437832, -40.32360132224858, -18.598522479645908, -0.01600000075995922, 0.288000013679266, 0.9920000471174717, 0.0, 0.0, 0.0, 0.0, 0.0, 1.763226449975005E9, 0.0, 2025-11-15 12:07:29.975
19.0, 728.5568207181059, -140.15088088950142, -165.39707554038614, -115.77982282824814, -0.01600000075995922, 0.288000013679266, 0.9920000471174717, 0.0, 0.0, 0.0, 0.0, 0.0, 1.763226449975005E9, 0.0, 2025-11-15 12:07:29.975
20.0, 848.2784980996512, -67.58560204925016, -130.99747574795038, -99.98622531536967, -0.01600000075995922, 0.288000013679266, 0.9920000471174717, 0.0, 0.0, 0.0, 0.0, 0.0, 1.7632264499908028E9, 0.0, 2025-11-15 12:07:29.990
20.0, 965.5243617105298, 53.478699416387826, -2.890942665748298, 13.979746034368873, -0.01600000075995922, 0.288000013679266, 0.9920000471174717, 0.0, 0.0, 0.0, 0.0, 0.0, 1.7632264499908028E9, 0.0, 2025-11-15 12:07:29.990
21.0, 728.0182751244865, -151.6435934533365, -174.09982273727655, -140.26494783814996, -0.01600000075995922, 0.27200001291930676, 0.9920000471174717, 0.0, 0.0, 0.0, 0.0, 0.0, 1.7632264499913836E9, 0.0, 2025-11-15 12:07:29.991
21.0, 769.9575132275932, -121.1895881141536, -170.23650608304888, -141.08772582840174, -0.01600000075995922, 0.27200001291930676, 0.9920000471174717, 0.0, 0.0, 0.0, 0.0, 0.0, 1.7632264499913836E9, 0.0, 2025-11-15 12:07:29.991
22.0, 530.725462811999, 101.85430534323677, 28.733651359565556, 37.90388605091721, -0.01600000075995922, 0.27200001291930676, 0.9920000471174717, 0.0, 0.0, 0.0, 0.0, 0.0, 1.763226450005057E9, 0.0, 2025-11-15 12:07:30.005
22.0, 770.5035386211239, -107.86806447198614, -134.9131510015577, -103.58026917278767, -0.01600000075995922, 0.27200001291930676, 0.9920000471174717, 0.0, 0.0, 0.0, 0.0, 0.0, 1.763226450005057E9, 0.0, 2025-11-15 12:07:30.005
23.0, 733.7440619566478, -150.74227756401524, -186.10116169508547, -149.27810673136264, -0.01600000075995922, 0.27200001291930676, 0.9920000471174717, 0.0, 0.0, 0.0, 0.0, 0.0, 1.7632264500208027E9, 0.0, 2025-11-15 12:07:30.020
23.0, 961.7208834555931, 41.17816846212372, -31.44133892748505, -22.057929938659072, -0.01600000075995922, 0.27200001291930676, 0.9920000471174717, 0.0, 0.0, 0.0, 0.0, 0.0, 1.7632264500208027E9, 0.0, 2025-11-15 12:07:30.020
24.0, 877.973303747829, -15.90392456157133, -57.399984519928694, -38.26665634661913, -0.01600000075995922, 0.27200001291930676, 0.9920000471174717, 0.0, 0.0, 0.0, 0.0, 0.0, 1.7632264500213804E9, 0.0, 2025-11-15 12:07:30.021
24.0, 715.3923728740774, -165.23438989231363, -189.02576346043497, -145.59430527500808, -0.01600000075995922, 0.27200001291930676, 0.9920000471174717, 0.0, 0.0, 0.0, 0.0, 0.0, 1.7632264500213804E9, 0.0, 2025-11-15 12:07:30.021
25.0, 861.4579055435024, -50.95800684625283, -111.4602383794263, -87.53235846292228, -0.01600000075995922, 0.27200001291930676, 0.9920000471174717, 0.0, 0.0, 0.0, 0.0, 0.0, 1.763226450035016E9, 0.0, 2025-11-15 12:07:30.035
25.0, 968.4452235759236, 60.749064930249006, -0.7891188906505704, 9.895775282755494, -0.01600000075995922, 0.27200001291930676, 0.9920000471174717, 0.0, 0.0, 0.0, 0.0, 0.0, 1.763226450035016E9, 0.0, 2025-11-15 12:07:30.035
26.0, 730.2285559982993, -156.1688723997213, -188.65177346486598, -159.2225007135421, -0.01600000075995922, 0.27200001291930676, 0.9920000471174717, 0.0, 0.0, 0.0, 0.0, 0.0, 1.763226450050856E9, 0.0, 2025-11-15 12:07:30.050
26.0, 756.6696486850269, -129.99331260984764, -183.01948413159698, -154.5551055688411, -0.01600000075995922, 0.27200001291930676, 0.9920000471174717, 0.0, 0.0, 0.0, 0.0, 0.0, 1.763226450050856E9, 0.0, 2025-11-15 12:07:30.050
27.0, 517.4899568688124, 95.53387441812083, 12.416467852890491, 19.959846063517034, -0.01600000075995922, 0.27200001291930676, 0.9920000471174717, 0.0, 0.0, 0.0, 0.0, 0.0, 1.7632264500513985E9, 0.0, 2025-11-15 12:07:30.051
27.0, 292.8042473308742, -87.60902641201392, -113.77523645199835, -79.925401953049, -0.01600000075995922, 0.27200001291930676, 0.9920000471174717, 0.0, 0.0, 0.0, 0.0, 0.0, 1.7632264500513985E9, 0.0, 2025-11-15 12:07:30.051
28.0, 239.7088876599446, -154.89356651483104, -193.32664840947837, -162.43507477547973, -0.01600000075995922, 0.27200001291930676, 0.9920000471174717, 0.0, 0.0, 0.0, 0.0, 0.0, 1.7632264500650423E9, 0.0, 2025-11-15 12:07:30.065
28.0, 462.86497811600566, 31.278653279412538, -41.198737911880016, -29.81822234671563, -0.01600000075995922, 0.27200001291930676, 0.9920000471174717, 0.0, 0.0, 0.0, 0.0, 0.0, 1.7632264500650423E9, 0.0, 2025-11-15 12:07:30.065
29.0, 387.0011075148359, -14.815613674465567, -55.98256243672222, -36.69589836522937, -0.01600000075995922, 0.27200001291930676, 0.9920000471174717, 0.0, 0.0, 0.0, 0.0, 0.0, 1.7632264500808122E9, 0.0, 2025-11-15 12:07:30.080
29.0, 216.4354902356863, -162.22003052802756, -192.3168754214421, -158.3024853244424, -0.01600000075995922, 0.27200001291930676, 0.9920000471174717, 0.0, 0.0, 0.0, 0.0, 0.0, 1.7632264500808122E9, 0.0, 2025-11-15 12:07:30.080
30.0, 373.9525965694338, -39.57749128108844, -100.33029611129314, -78.73237386718392, -0.01600000075995922, 0.27200001291930676, 1.008000047877431, 0.0, 0.0, 0.0, 0.0, 0.0, 1.763226450081384E9, 0.0, 2025-11-15 12:07:30.081
30.0, 508.07662868034095, 82.5003230725415, 23.920400116592646, 29.4217929514125, -0.01600000075995922, 0.27200001291930676, 1.008000047877431, 0.0, 0.0, 0.0, 0.0, 0.0, 1.763226450081384E9, 0.0, 2025-11-15 12:07:30.081
31.0, 715.2801758754067, -149.10420138342306, -169.77275848854333, -144.57705248706043, -0.01600000075995922, 0.288000013679266, 1.008000047877431, 0.0, 0.0, 0.0, 0.0, 0.0, 1.7632264500950372E9, 0.0, 2025-11-15 12:07:30.095
31.0, 766.6776209664531, -128.84516332345083, -174.68324713036418, -144.401277189143, -0.01600000075995922, 0.288000013679266, 1.008000047877431, 0.0, 0.0, 0.0, 0.0, 0.0, 1.7632264500950372E9, 0.0, 2025-11-15 12:07:30.095
32.0, 539.6039853068069, 94.50166203035042, 18.000138486735523, 20.004724862985313, -0.01600000075995922, 0.288000013679266, 1.008000047877431, 0.0, 0.0, 0.0, 0.0, 0.0, 1.7632264501108184E9, 0.0, 2025-11-15 12:07:30.110
32.0, 754.2013147142716, -116.61569046834484, -136.52878778241575, -96.67267395462841, -0.01600000075995922, 0.288000013679266, 1.008000047877431, 0.0, 0.0, 0.0, 0.0, 0.0, 1.7632264501108184E9, 0.0, 2025-11-15 12:07:30.110
33.0, 735.6439311341383, -153.0946746361442, -190.50676384288818, -148.50020754057914, -0.01600000075995922, 0.288000013679266, 1.008000047877431, 0.0, 0.0, 0.0, 0.0, 0.0, 1.7632264501113834E9, 0.0, 2025-11-15 12:07:30.111
33.0, 957.9809834999032, 33.32437855517492, -40.93320501502603, -34.54171599075198, -0.01600000075995922, 0.288000013679266, 1.008000047877431, 0.0, 0.0, 0.0, 0.0, 0.0, 1.7632264501113834E9, 0.0, 2025-11-15 12:07:30.111
34.0, 878.8334807376377, -9.84528663335368, -43.719430482015014, -18.811696777120233, -0.01600000075995922, 0.288000013679266, 1.008000047877431, 0.0, 0.0, 0.0, 0.0, 0.0, 1.7632264501250281E9, 0.0, 2025-11-15 12:07:30.125
34.0, 724.4317110669799, -153.1657327353023, -185.44293930288404, -155.45268155820668, -0.01600000075995922, 0.288000013679266, 1.008000047877431, 0.0, 0.0, 0.0, 0.0, 0.0, 1.7632264501250281E9, 0.0, 2025-11-15 12:07:30.125
35.0, 829.0890714270063, -76.63989984197542, -137.30668697319925, -122.59018064755946, -0.01600000075995922, 0.288000013679266, 1.008000047877431, 0.0, 0.0, 0.0, 0.0, 0.0, 1.7632264501408167E9, 0.0, 2025-11-15 12:07:30.140
35.0, 959.8135344781913, 45.520192310679704, -12.293051154352725, -3.62770295701921, -0.01600000075995922, 0.288000013679266, 1.008000047877431, 0.0, 0.0, 0.0, 0.0, 0.0, 1.7632264501408167E9, 0.0, 2025-11-15 12:07:30.140
36.0, 726.9337041373365, -149.47819137899205, -173.27330484706908, -140.0330740408972, -0.01600000075995922, 0.288000013679266, 1.008000047877431, 0.0, 0.0, 0.0, 0.0, 0.0, 1.7632264501413755E9, 0.0, 2025-11-15 12:07:30.141
36.0, 751.3552508479916, -149.36599438032135, -192.08500162418932, -157.09449763875455, -0.01600000075995922, 0.288000013679266, 1.008000047877431, 0.0, 0.0, 0.0, 0.0, 0.0, 1.7632264501413755E9, 0.0, 2025-11-15 12:07:30.141
37.0, 992.7358737881295, 70.67475941265002, -4.936667941510677, 0.44878799468278885, -0.01600000075995922, 0.288000013679266, 1.008000047877431, 0.0, 0.0, 0.0, 0.0, 0.0, 1.7632264501550784E9, 0.0, 2025-11-15 12:07:30.155
37.0, 780.4666321030818, -100.56403985852376, -129.8044476620853, -94.09588288515806, -0.01600000075995922, 0.288000013679266, 1.008000047877431, 0.0, 0.0, 0.0, 0.0, 0.0, 1.7632264501550784E9, 0.0, 2025-11-15 12:07:30.155
38.0, 736.1375979282893, -146.72936491155997, -188.37128096818924, -153.06288548652083, -0.01600000075995922, 0.288000013679266, 1.008000047877431, 0.0, 0.0, 0.0, 0.0, 0.0, 1.7632264501708057E9, 0.0, 2025-11-15 12:07:30.170
38.0, 934.5392905776389, 11.745155810844153, -58.06194681208581, -39.73269712924957, -0.01600000075995922, 0.288000013679266, 1.008000047877431, 0.0, 0.0, 0.0, 0.0, 0.0, 1.7632264501708057E9, 0.0, 2025-11-15 12:07:30.170
39.0, 873.4255854017101, -21.364178496878594, -59.314813297241926, -27.499484374187887, -0.01600000075995922, 0.288000013679266, 1.008000047877431, 0.0, 0.0, 0.0, 0.0, 0.0, 1.7632264501713796E9, 0.0, 2025-11-15 12:07:30.171
39.0, 703.8622613106854, -170.48520943010226, -204.30699467938393, -168.54233140312135, -0.01600000075995922, 0.288000013679266, 1.008000047877431, 0.0, 0.0, 0.0, 0.0, 0.0, 1.7632264501713796E9, 0.0, 2025-11-15 12:07:30.171
40.0, 843.0575977615081, -65.9400460687466, -121.80854155682027, -93.83408988825977, -0.01600000075995922, 0.288000013679266, 0.9920000471174717, 0.0, 0.0, 0.0, 0.0, 0.0, 1.763226450185105E9, 0.0, 2025-11-15 12:07:30.185
40.0, 989.37744362792, 72.21559819439426, 14.735205825418234, 28.685032660141587, -0.01600000075995922, 0.288000013679266, 0.9920000471174717, 0.0, 0.0, 0.0, 0.0, 0.0, 1.763226450185105E9, 0.0, 2025-11-15 12:07:30.185
41.0, 1185.892356749624, 316.72090754751116, -192.2345976224169, -158.7811925187707, -0.01600000075995922, 0.27200001291930676, 0.9920000471174717, 0.0, 0.0, 0.0, 0.0, 0.0, 1.7632264502008529E9, 0.0, 2025-11-15 12:07:30.200
41.0, 1241.8337802868336, 335.7607382219285, -200.24920322746038, -163.3401305647567, -0.01600000075995922, 0.27200001291930676, 0.9920000471174717, 0.0, 0.0, 0.0, 0.0, 0.0, 1.7632264502008529E9, 0.0, 2025-11-15 12:07:30.200
42.0, 1010.2610449804924, 567.2007070798427, 7.610696409828961, 16.231165807694197, -0.01600000075995922, 0.27200001291930676, 0.9920000471174717, 0.0, 0.0, 0.0, 0.0, 0.0, 1.7632264502014024E9, 0.0, 2025-11-15 12:07:30.201
42.0, 1253.8687783442438, 376.2526350421831, -135.45917639508843, -96.85592905245721, -0.01600000075995922, 0.27200001291930676, 0.9920000471174717, 0.0, 0.0, 0.0, 0.0, 0.0, 1.7632264502014024E9, 0.0, 2025-11-15 12:07:30.201
43.0, 1218.661360161379, 328.6324889063835, -200.76904932130128, -164.86226984672248, -0.01600000075995922, 0.27200001291930676, 0.9920000471174717, 0.0, 0.0, 0.0, 0.0, 0.0, 1.763226450215047E9, 0.0, 2025-11-15 12:07:30.215
43.0, 1426.670855796896, 502.69491264410317, -59.13155819941312, -34.22008459456265, -0.01600000075995922, 0.27200001291930676, 0.9920000471174717, 0.0, 0.0, 0.0, 0.0, 0.0, 1.763226450215047E9, 0.0, 2025-11-15 12:07:30.215
44.0, 1356.3719563297927, 460.12737134844065, -68.45138888899237, -39.85611382778734, -0.01600000075995922, 0.27200001291930676, 0.9920000471174717, 0.0, 0.0, 0.0, 0.0, 0.0, 1.763226450230812E9, 0.0, 2025-11-15 12:07:30.230
44.0, 1213.3394825244322, 318.1233700308949, -202.96811049524695, -167.08751032035798, -0.01600000075995922, 0.27200001291930676, 0.9920000471174717, 0.0, 0.0, 0.0, 0.0, 0.0, 1.763226450230812E9, 0.0, 2025-11-15 12:07:30.230
45.0, 1350.3469775011763, 434.71101124957204, -118.68946499377489, -95.65542116668075, -0.01600000075995922, 0.27200001291930676, 0.9920000471174717, 0.0, 0.0, 0.0, 0.0, 0.0, 1.7632264502313845E9, 0.0, 2025-11-15 12:07:30.231
45.0, 1458.811556016095, 534.1586909713224, -12.682000749744475, -2.4421546710655093, -0.01600000075995922, 0.27200001291930676, 0.9920000471174717, 0.0, 0.0, 0.0, 0.0, 0.0, 1.7632264502313845E9, 0.0, 2025-11-15 12:07:30.231
46.0, 1687.4260304574855, 319.2715193172917, -193.47624440770596, -145.8860174715519, -0.01600000075995922, 0.27200001291930676, 0.9920000471174717, 0.0, 0.0, 0.0, 0.0, 0.0, 1.7632264502450612E9, 0.0, 2025-11-15 12:07:30.245
46.0, 1742.8962266002782, 363.34250039514154, -167.21092701889575, -119.29158888664097, -0.01600000075995922, 0.27200001291930676, 0.9920000471174717, 0.0, 0.0, 0.0, 0.0, 0.0, 1.7632264502450612E9, 0.0, 2025-11-15 12:07:30.245
47.0, 1980.8548410809599, 573.6034158039838, 7.270365513861179, 10.02667178120464, -0.01600000075995922, 0.27200001291930676, 0.9920000471174717, 0.0, 0.0, 0.0, 0.0, 0.0, 1.7632264502615612E9, 0.0, 2025-11-15 12:07:30.261
47.0, 1751.400759099517, 373.3280332768336, -140.81845303159207, -110.18493249453604, -0.01600000075995922, 0.27200001291930676, 0.9920000471174717, 0.0, 0.0, 0.0, 0.0, 0.0, 1.7632264502615612E9, 0.0, 2025-11-15 12:07:30.261
48.0, 1688.2675079475157, 314.90705606900156, -203.6525121871382, -169.43990739248693, -0.01600000075995922, 0.27200001291930676, 0.9920000471174717, 0.0, 0.0, 0.0, 0.0, 0.0, 1.7632264502620976E9, 0.0, 2025-11-15 12:07:30.262
48.0, 1927.6211051116697, 518.9971365509555, -45.667918358929455, -40.91076561529189, -0.01600000075995922, 0.27200001291930676, 0.9920000471174717, 0.0, 0.0, 0.0, 0.0, 0.0, 1.7632264502620976E9, 0.0, 2025-11-15 12:07:30.262
49.0, 1852.8567650974728, 469.1180908419192, -56.184517034329474, -34.276183093898, -0.01600000075995922, 0.27200001291930676, 0.9920000471174717, 0.0, 0.0, 0.0, 0.0, 0.0, 1.7632264502750435E9, 0.0, 2025-11-15 12:07:30.275
49.0, 1673.4762036227621, 315.20250816550106, -203.3607999905944, -166.16749493125826, -0.01600000075995922, 0.27200001291930676, 0.9920000471174717, 0.0, 0.0, 0.0, 0.0, 0.0, 1.7632264502750435E9, 0.0, 2025-11-15 12:07:30.275
50.0, 1831.1167266550474, 425.4584987591952, -122.58644074760377, -96.75869165360928, -0.01600000075995922, 0.27200001291930676, 1.008000047877431, 0.0, 0.0, 0.0, 0.0, 0.0, 1.7632264502908115E9, 0.0, 2025-11-15 12:07:30.290
50.0, 1959.470093134325, 551.6015843646601, 1.6754751801490784, 8.83364369533956, -0.01600000075995922, 0.27200001291930676, 1.008000047877431, 0.0, 0.0, 0.0, 0.0, 0.0, 1.7632264502908115E9, 0.0, 2025-11-15 12:07:30.290
51.0, 2199.087353245355, 340.7946435622871, -170.53569807950407, -136.37545188423246, -0.01600000075995922, 0.27200001291930676, 1.008000047877431, 0.0, 0.0, 0.0, 0.0, 0.0, 1.76322645029137E9, 0.0, 2025-11-15 12:07:30.291
51.0, 2223.550038855523, 351.07562854047865, -179.05893007852137, -151.88107710052282, -0.01600000075995922, 0.27200001291930676, 1.008000047877431, 0.0, 0.0, 0.0, 0.0, 0.0, 1.76322645029137E9, 0.0, 2025-11-15 12:07:30.291
52.0, 1991.105906859506, 578.5513034453616, 18.190873384475708, 19.439999969676137, -0.01600000075995922, 0.27200001291930676, 1.008000047877431, 0.0, 0.0, 0.0, 0.0, 0.0, 1.7632264503050969E9, 0.0, 2025-11-15 12:07:30.305
52.0, 1764.9466767390259, 410.32312363851815, -95.74143886566162, -62.66576365754008, -0.01600000075995922, 0.27200001291930676, 1.008000047877431, 0.0, 0.0, 0.0, 0.0, 0.0, 1.7632264503050969E9, 0.0, 2025-11-15 12:07:30.305
53.0, 1695.126484466251, 326.7064404292032, -193.29298930987716, -161.17472849041224, -0.01600000075995922, 0.27200001291930676, 1.008000047877431, 0.0, 0.0, 0.0, 0.0, 0.0, 1.7632264503208272E9, 0.0, 2025-11-15 12:07:30.320
53.0, 1906.4981501619332, 502.93052634131163, -62.08981906436384, -62.39275096077472, -0.01600000075995922, 0.27200001291930676, 1.008000047877431, 0.0, 0.0, 0.0, 0.0, 0.0, 1.7632264503208272E9, 0.0, 2025-11-15 12:07:30.320
54.0, 1861.9335022899322, 480.8277176031843, -48.66731812339276, -35.33831468131393, -0.01600000075995922, 0.27200001291930676, 1.008000047877431, 0.0, 0.0, 0.0, 0.0, 0.0, 1.7632264503213873E9, 0.0, 2025-11-15 12:07:30.321
54.0, 1699.1805360182188, 339.17526688147336, -173.6734741423279, -141.989041717723, -0.01600000075995922, 0.27200001291930676, 1.008000047877431, 0.0, 0.0, 0.0, 0.0, 0.0, 1.7632264503213873E9, 0.0, 2025-11-15 12:07:30.321
55.0, 1847.3254530630074, 449.5397145738825, -100.21435921266675, -83.65782210882753, -0.01600000075995922, 0.27200001291930676, 1.008000047877431, 0.0, 0.0, 0.0, 0.0, 0.0, 1.7632264503350725E9, 0.0, 2025-11-15 12:07:30.335
55.0, 1945.0303394054063, 547.4951742133126, 1.929788377135992, 12.06491725705564, -0.01600000075995922, 0.27200001291930676, 1.008000047877431, 0.0, 0.0, 0.0, 0.0, 0.0, 1.7632264503350725E9, 0.0, 2025-11-15 12:07:30.335
56.0, 1709.4353416967206, 346.10904139932245, -171.8222236642614, -140.38088473677635, -0.01600000075995922, 0.27200001291930676, 1.008000047877431, 0.0, 0.0, 0.0, 0.0, 0.0, 1.763226450350764E9, 0.0, 2025-11-15 12:07:30.350
56.0, 1753.7606359715573, 381.3762979814783, -151.4472487056628, -122.72855694591999, -0.01600000075995922, 0.27200001291930676, 1.008000047877431, 0.0, 0.0, 0.0, 0.0, 0.0, 1.763226450350764E9, 0.0, 2025-11-15 12:07:30.350
57.0, 1977.0625825258903, 572.2720114197582, 12.87647554744035, 12.693220449611545, -0.01600000075995922, 0.27200001291930676, 1.008000047877431, 0.0, 0.0, 0.0, 0.0, 0.0, 1.76322645035143E9, 0.0, 2025-11-15 12:07:30.351
57.0, 1746.9053993527777, 390.90182316862047, -122.7248170459643, -97.46927264519036, -0.01600000075995922, 0.27200001291930676, 1.008000047877431, 0.0, 0.0, 0.0, 0.0, 0.0, 1.76322645035143E9, 0.0, 2025-11-15 12:07:30.351
58.0, 1693.8549184813164, 329.92275439109653, -189.25763725768775, -153.62761037983, -0.01600000075995922, 0.27200001291930676, 1.008000047877431, 0.0, 0.0, 0.0, 0.0, 0.0, 1.7632264503651097E9, 0.0, 2025-11-15 12:07:30.365
58.0, 1930.3362724795006, 518.4211919577792, -42.65355899464339, -38.95853783842176, -0.01600000075995922, 0.27200001291930676, 1.008000047877431, 0.0, 0.0, 0.0, 0.0, 0.0, 1.7632264503651097E9, 0.0, 2025-11-15 12:07:30.365
59.0, 1846.233402275946, 464.4806148968637, -54.63619845267385, -30.281969941221178, -0.01600000075995922, 0.27200001291930676, 1.008000047877431, 0.0, 0.0, 0.0, 0.0, 0.0, 1.7632264503807309E9, 0.0, 2025-11-15 12:07:30.380
59.0, 1694.378504475113, 322.54019187856466, -189.0182836605236, -150.45991511736065, -0.01600000075995922, 0.27200001291930676, 1.008000047877431, 0.0, 0.0, 0.0, 0.0, 0.0, 1.7632264503807309E9, 0.0, 2025-11-15 12:07:30.380
60.0, 1831.3336408524774, 427.70617863256484, -122.48546344880015, -106.28047694079578, -0.01600000075995922, 0.27200001291930676, 1.008000047877431, 0.0, 0.0, 0.0, 0.0, 0.0, 1.7632264503814416E9, 0.0, 2025-11-15 12:07:30.381
60.0, 1941.185722250957, 544.6042315475643, 0.6731819920241833, 10.46424007602036, -0.01600000075995922, 0.27200001291930676, 1.008000047877431, 0.0, 0.0, 0.0, 0.0, 0.0, 1.7632264503814416E9, 0.0, 2025-11-15 12:07:30.381
61.0, 1701.338458292652, 337.8550821971148, -173.7894110409543, -142.29945341404527, -0.01600000075995922, 0.27200001291930676, 1.008000047877431, 0.0, 0.0, 0.0, 0.0, 0.0, 1.7632264503950393E9, 0.0, 2025-11-15 12:07:30.395
61.0, 1744.7100780787878, 351.8722272310406, -178.87941488064826, -147.87564424797893, -0.01600000075995922, 0.27200001291930676, 1.008000047877431, 0.0, 0.0, 0.0, 0.0, 0.0, 1.7632264503950393E9, 0.0, 2025-11-15 12:07:30.395
62.0, 1964.088869579602, 564.0330118173733, -0.09349749889224768, 7.962247005663812, -0.03200000151991844, 0.27200001291930676, 1.008000047877431, 0.0, 0.0, 0.0, 0.0, 0.0, 1.7632264504107156E9, 0.0, 2025-11-15 12:07:30.410
62.0, 1734.9601588943042, 379.27073430642486, -141.89554421883076, -118.21449769940227, -0.03200000151991844, 0.27200001291930676, 1.008000047877431, 0.0, 0.0, 0.0, 0.0, 0.0, 1.7632264504107156E9, 0.0, 2025-11-15 12:07:30.410
63.0, 1728.0899626757018, 355.0885411929339, -173.71835294179618, -148.67598283849657, -0.03200000151991844, 0.27200001291930676, 1.008000047877431, 0.0, 0.0, 0.0, 0.0, 0.0, 1.7632264504114342E9, 0.0, 2025-11-15 12:07:30.411
63.0, 1926.5514937243424, 525.7439160710201, -40.73125041741878, -31.583455125801265, -0.03200000151991844, 0.27200001291930676, 1.008000047877431, 0.0, 0.0, 0.0, 0.0, 0.0, 1.7632264504114342E9, 0.0, 2025-11-15 12:07:30.411
64.0, 1852.4865150018595, 477.0840777475387, -58.2863408094272, -34.91944588627666, -0.03200000151991844, 0.27200001291930676, 1.008000047877431, 0.0, 0.0, 0.0, 0.0, 0.0, 1.763226450425069E9, 0.0, 2025-11-15 12:07:30.425
64.0, 1701.2711400934495, 327.0056324256584, -194.8712270911783, -158.05191202741116, -0.03200000151991844, 0.27200001291930676, 1.008000047877431, 0.0, 0.0, 0.0, 0.0, 0.0, 1.763226450425069E9, 0.0, 2025-11-15 12:07:30.425
