%OpenBCI Raw EXG Data
%Number of channels = 4
%Sample Rate = 200 Hz
%Board = OpenBCI_GUI$BoardGanglionBLE
Sample Index, EXG Channel 0, EXG Channel 1, EXG Channel 2, EXG Channel 3, Accel Channel 0, Accel Channel 1, Accel Channel 2, Other, Other, Other, Other, Other, Timestamp, Marker Channel, Timestamp (Formatted)
47.0, -96.14160816092044, -111.20592518243939, -120.14428607653826, -98.17237383686006, 0.0, 0.0, 0.0, 0.0, 0.0, 0.0, 0.0, 0.0, 1.763226469367015E9, 0.0, 2025-11-15 12:07:49.367
47.0, 79.64864935632795, 28.64015386067331, -18.430226981639862, -36.471504367887974, 0.0, 0.0, 0.0, 0.0, 0.0, 0.0, 0.0, 0.0, 1.763226469367015E9, 0.0, 2025-11-15 12:07:49.367
0.0, -205.27375881792977, -131.20317024551332, -177.01133485278115, -150.2542206197977, 0.0, 0.0, 0.0, 0.0, 0.0, 0.0, 0.0, 0.0, 1.763226469387485E9, 0.0, 2025-11-15 12:07:49.387
1.0, -444.2066172370687, 101.42608679831028, 24.576752558816224, 25.0124509036541, 0.0, 0.17600000835955143, 0.0, 0.0, 0.0, 0.0, 0.0, 0.0, 1.7632264694010117E9, 0.0, 2025-11-15 12:07:49.401
1.0, -676.5179827846587, -76.51461319345981, -102.66586363362148, -68.09983829315752, 0.0, 0.17600000835955143, 0.0, 0.0, 0.0, 0.0, 0.0, 0.0, 1.7632264694010117E9, 0.0, 2025-11-15 12:07:49.401
2.0, -753.6347198709846, -147.9616619469598, -182.24719479074702, -149.82039222493768, -0.01600000075995922, 0.17600000835955143, 0.0, 0.0, 0.0, 0.0, 0.0, 0.0, 1.7632264694339905E9, 0.0, 2025-11-15 12:07:49.433
2.0, -523.8141276938841, 25.068549402989447, -50.21002685511485, -39.224070735275745, -0.01600000075995922, 0.17600000835955143, 0.0, 0.0, 0.0, 0.0, 0.0, 0.0, 1.7632264694339905E9, 0.0, 2025-11-15 12:07:49.433
3.0, -503.7159053320065, 47.05542124249041, -3.02370911417529, 16.88190839998424, -0.01600000075995922, 0.17600000835955143, 0.0, 0.0, 0.0, 0.0, 0.0, 0.0, 1.7632264694347208E9, 0.0, 2025-11-15 12:07:49.434
3.0, -282.13244280731305, -169.8961751870811, -195.4079027348198, -153.519153281115, -0.01600000075995922, 0.17600000835955143, 0.0, 0.0, 0.0, 0.0, 0.0, 0.0, 1.7632264694347208E9, 0.0, 2025-11-15 12:07:49.434
4.0, -143.7898035463877, -68.51122728828341, -130.91332799894735, -111.39666008017957, -0.01600000075995922, 0.17600000835955143, 0.0, 0.0, 0.0, 0.0, 0.0, 0.0, 1.7632264694354694E9, 0.0, 2025-11-15 12:07:49.435
4.0, 17.90103113790974, 96.50063855666667, 33.92650244804099, 41.688664806075394, -0.01600000075995922, 0.17600000835955143, 0.0, 0.0, 0.0, 0.0, 0.0, 0.0, 1.7632264694354694E9, 0.0, 2025-11-15 12:07:49.435
5.0, 259.9118272205815, -128.69743727520108, -152.26815674593672, -93.21700639557093, -0.01600000075995922, 0.17600000835955143, 0.0, 0.0, 0.0, 0.0, 0.0, 0.0, 1.7632264694464211E9, 0.0, 2025-11-15 12:07:49.446
5.0, 280.82534777279943, -118.84280089195818, -159.37022676179186, -116.32584822177887, -0.01600000075995922, 0.17600000835955143, 0.0, 0.0, 0.0, 0.0, 0.0, 0.0, 1.7632264694464211E9, 0.0, 2025-11-15 12:07:49.446
6.0, 44.18504802649841, 96.14160816092044, 12.870865697506815, -4.517799146473408, -0.01600000075995922, 0.17600000835955143, 0.0, 0.0, 0.0, 0.0, 0.0, 0.0, 1.7632264694471369E9, 0.0, 2025-11-15 12:07:49.447
6.0, -144.51160423783585, -63.66431694570929, -95.7320891157724, -77.59918418060988, -0.01600000075995922, 0.17600000835955143, 0.0, 0.0, 0.0, 0.0, 0.0, 0.0, 1.7632264694471369E9, 0.0, 2025-11-15 12:07:49.447
7.0, -232.1337202996947, -140.2911271378398, -179.01966112898663, -144.24420139100403, -0.01600000075995922, 0.17600000835955143, 0.0, 0.0, 0.0, 0.0, 0.0, 0.0, 1.7632264694607654E9, 0.0, 2025-11-15 12:07:49.460
7.0, -46.97501339344308, 24.234551712870598, -41.12206996278837, -25.37896109931171, -0.01600000075995922, 0.17600000835955143, 0.0, 0.0, 0.0, 0.0, 0.0, 0.0, 1.7632264694607654E9, 0.0, 2025-11-15 12:07:49.460
8.0, -93.93319723708555, 2.1504424745216966, -36.91094261268154, -26.17181988991797, -0.01600000075995922, 0.17600000835955143, 0.0, 0.0, 0.0, 0.0, 0.0, 0.0, 1.763226469476428E9, 0.0, 2025-11-15 12:07:49.476
8.0, -266.2640472953208, -164.4845399511978, -192.1093109739013, -161.66091548465192, -0.01600000075995922, 0.17600000835955143, 0.0, 0.0, 0.0, 0.0, 0.0, 0.0, 1.763226469476428E9, 0.0, 2025-11-15 12:07:49.476
9.0, -131.9006615872495, -59.44196989573538, -115.81161197787151, -97.55903024412692, -0.01600000075995922, 0.17600000835955143, 0.0, 0.0, 0.0, 0.0, 0.0, 0.0, 1.7632264694771404E9, 0.0, 2025-11-15 12:07:49.477
9.0, 25.283593650441617, 95.24029227159917, 34.74180063838139, 42.062654801644385, -0.01600000075995922, 0.17600000835955143, 0.0, 0.0, 0.0, 0.0, 0.0, 0.0, 1.7632264694771404E9, 0.0, 2025-11-15 12:07:49.477
10.0, 253.6362750949338, -132.64677162840962, -153.32654843339697, -123.01278934255242, -0.01600000075995922, 0.17600000835955143, 0.5120000243186951, 0.0, 0.0, 0.0, 0.0, 0.0, 1.763226469507142E9, 0.0, 2025-11-15 12:07:49.507
10.0, 269.7664636038244, -132.21668313350528, -175.74350876780227, -153.67622907925397, -0.01600000075995922, 0.17600000835955143, 0.5120000243186951, 0.0, 0.0, 0.0, 0.0, 0.0, 1.763226469507142E9, 0.0, 2025-11-15 12:07:49.507
11.0, 52.51754512777552, 106.13088094256818, 28.944955707062036, 34.73993068840355, -0.01600000075995922, 0.0800000037997961, 0.5120000243186951, 0.0, 0.0, 0.0, 0.0, 0.0, 1.7632264695078561E9, 0.0, 2025-11-15 12:07:49.507
11.0, -180.28374731400982, -79.03156586363912, -97.4711425951682, -61.801846767775714, -0.01600000075995922, 0.0800000037997961, 0.5120000243186951, 0.0, 0.0, 0.0, 0.0, 0.0, 1.7632264695078561E9, 0.0, 2025-11-15 12:07:49.507
12.0, -249.3185605960898, -156.5933510446921, -182.75582118472084, -126.95464389584959, -0.03200000151991844, 0.0800000037997961, 0.5120000243186951, 0.0, 0.0, 0.0, 0.0, 0.0, 1.7632264695085998E9, 0.0, 2025-11-15 12:07:49.508
12.0, -30.79246628517285, 32.9410388097167, -44.278545525390655, -38.33771444577724, -0.03200000151991844, 0.0800000037997961, 0.5120000243186951, 0.0, 0.0, 0.0, 0.0, 0.0, 1.7632264695085998E9, 0.0, 2025-11-15 12:07:49.508
13.0, -36.41727581853047, 18.93885337561369, -26.611258134711534, -10.04537128098309, -0.03200000151991844, 0.0800000037997961, 0.5120000243186951, 0.0, 0.0, 0.0, 0.0, 0.0, 1.7632264695207238E9, 0.0, 2025-11-15 12:07:49.520
13.0, -274.8171984939836, -159.0729047153145, -185.50464765215293, -121.6888647582382, -0.03200000151991844, 0.0800000037997961, 0.5120000243186951, 0.0, 0.0, 0.0, 0.0, 0.0, 1.7632264695207238E9, 0.0, 2025-11-15 12:07:49.520
14.0, -134.53729105601087, -65.72500182129443, -132.98523257439956, -125.23428991623223, -0.03200000151991844, 0.0800000037997961, 0.5120000243186951, 0.0, 0.0, 0.0, 0.0, 0.0, 1.7632264695364707E9, 0.0, 2025-11-15 12:07:49.536
14.0, 45.535151910502464, 88.8226239476353, 14.942770272959024, 11.406694864854217, -0.03200000151991844, 0.0800000037997961, 0.5120000243186951, 0.0, 0.0, 0.0, 0.0, 0.0, 1.7632264695364707E9, 0.0, 2025-11-15 12:07:49.536
15.0, 219.59570569824427, -145.52698707580566, -169.75966883869842, -134.74485550355166, -0.03200000151991844, 0.0800000037997961, 0.5120000243186951, 0.0, 0.0, 0.0, 0.0, 0.0, 1.763226469537252E9, 0.0, 2025-11-15 12:07:49.537
15.0, 278.1326198047027, -129.5052556656301, -173.56314709363505, -133.619145616889, -0.03200000151991844, 0.0800000037997961, 0.5120000243186951, 0.0, 0.0, 0.0, 0.0, 0.0, 1.763226469537252E9, 0.0, 2025-11-15 12:07:49.537
16.0, 514.4793374044821, 89.24897254258394, 11.44222391443327, 9.742439384572208, -0.03200000151991844, 0.0800000037997961, 0.5120000243186951, 0.0, 0.0, 0.0, 0.0, 0.0, 1.7632264695507479E9, 0.0, 2025-11-15 12:07:49.550
16.0, 310.897883316502, -82.12446312699467, -106.7348747854121, -78.76603296678513, -0.03200000151991844, 0.0800000037997961, 0.5120000243186951, 0.0, 0.0, 0.0, 0.0, 0.0, 1.7632264695507479E9, 0.0, 2025-11-15 12:07:49.550
17.0, 260.4915117137134, -146.02065386995673, -175.76220826758072, -145.91593667119741, -0.03200000151991844, 0.0800000037997961, 0.5120000243186951, 0.0, 0.0, 0.0, 0.0, 0.0, 1.763226469566486E9, 0.0, 2025-11-15 12:07:49.566
17.0, 434.11636715661734, 12.44638705253601, -59.81408994132653, -53.768541662953794, -0.03200000151991844, 0.0800000037997961, 0.5120000243186951, 0.0, 0.0, 0.0, 0.0, 0.0, 1.763226469566486E9, 0.0, 2025-11-15 12:07:49.566
18.0, 435.26825634296983, 24.09617541451007, -8.27826855191961, 25.435059598647058, -0.03200000151991844, 0.0800000037997961, 0.5120000243186951, 0.0, 0.0, 0.0, 0.0, 0.0, 1.7632264695672543E9, 0.0, 2025-11-15 12:07:49.567
18.0, 260.3082566158846, -154.9627546640113, -187.20630213199183, -160.47162729874253, -0.03200000151991844, 0.0800000037997961, 0.5120000243186951, 0.0, 0.0, 0.0, 0.0, 0.0, 1.7632264695672543E9, 0.0, 2025-11-15 12:07:49.567
19.0, 324.17078825924546, -66.83201220817864, -119.94046152895316, -93.13472859654576, -0.03200000151991844, 0.0800000037997961, 0.5120000243186951, 0.0, 0.0, 0.0, 0.0, 0.0, 1.7632264695807424E9, 0.0, 2025-11-15 12:07:49.580
19.0, 513.3087487183511, 82.82382441870868, 17.822493238840252, 10.367002677172422, -0.03200000151991844, 0.0800000037997961, 0.5120000243186951, 0.0, 0.0, 0.0, 0.0, 0.0, 1.7632264695807424E9, 0.0, 2025-11-15 12:07:49.580
20.0, 730.5389676946215, -138.67549035698175, -149.8260020748712, -102.95570588018745, -0.03200000151991844, 0.0800000037997961, 0.7680000364780426, 0.0, 0.0, 0.0, 0.0, 0.0, 1.763226469596478E9, 0.0, 2025-11-15 12:07:49.596
20.0, 755.2073478023522, -135.9154441896826, -178.6232317336835, -148.10003824532032, -0.03200000151991844, 0.0800000037997961, 0.7680000364780426, 0.0, 0.0, 0.0, 0.0, 0.0, 1.763226469596478E9, 0.0, 2025-11-15 12:07:49.596
21.0, 521.3046548236161, 88.97221994586289, 18.70136972842738, 21.250111548230052, -0.03200000151991844, 0.1600000075995922, 0.7680000364780426, 0.0, 0.0, 0.0, 0.0, 0.0, 1.7632264695972688E9, 0.0, 2025-11-15 12:07:49.597
21.0, 314.69388177152723, -84.99296639300883, -102.6621237336658, -86.43656777590513, -0.03200000151991844, 0.1600000075995922, 0.7680000364780426, 0.0, 0.0, 0.0, 0.0, 0.0, 1.7632264695972688E9, 0.0, 2025-11-15 12:07:49.597
22.0, 286.18462440930307, -141.81700631976128, -184.27422056673095, -155.52373965736479, -0.03200000151991844, 0.1600000075995922, 0.7680000364780426, 0.0, 0.0, 0.0, 0.0, 0.0, 1.7632264696108348E9, 0.0, 2025-11-15 12:07:49.610
22.0, 435.2084179436788, 8.42973450012505, -56.95306647522375, -51.78639468643814, -0.03200000151991844, 0.1600000075995922, 0.7680000364780426, 0.0, 0.0, 0.0, 0.0, 0.0, 1.7632264696108348E9, 0.0, 2025-11-15 12:07:49.610
23.0, 400.28523215744644, 1.3014851845800877, -29.99960749456659, -8.321277401410043, -0.03200000151991844, 0.1600000075995922, 0.7680000364780426, 0.0, 0.0, 0.0, 0.0, 0.0, 1.7632264696264613E9, 0.0, 2025-11-15 12:07:49.626
23.0, 239.39473606366664, -145.7326815733686, -165.86643298482522, -125.7653557099402, -0.03200000151991844, 0.1600000075995922, 0.7680000364780426, 0.0, 0.0, 0.0, 0.0, 0.0, 1.7632264696264613E9, 0.0, 2025-11-15 12:07:49.626
24.0, 361.74556311406195, -57.48974211886525, -115.90884937671944, -95.37492867000401, -0.03200000151991844, 0.1600000075995922, 0.7680000364780426, 0.0, 0.0, 0.0, 0.0, 0.0, 1.763226469627253E9, 0.0, 2025-11-15 12:07:49.627
24.0, 497.03644401114434, 75.26548660825938, 15.87400536192581, 22.663793731480837, -0.03200000151991844, 0.1600000075995922, 0.7680000364780426, 0.0, 0.0, 0.0, 0.0, 0.0, 1.763226469627253E9, 0.0, 2025-11-15 12:07:49.627
25.0, 278.4355517011136, -124.1347593292594, -147.66060000052676, -110.46542499121279, -0.03200000151991844, 0.1600000075995922, 0.7680000364780426, 0.0, 0.0, 0.0, 0.0, 0.0, 1.7632264696408257E9, 0.0, 2025-11-15 12:07:49.640
25.0, 251.01460522599518, -131.6145592406392, -173.286394496914, -148.46280854102224, -0.03200000151991844, 0.1600000075995922, 0.7680000364780426, 0.0, 0.0, 0.0, 0.0, 0.0, 1.7632264696408257E9, 0.0, 2025-11-15 12:07:49.640
26.0, 39.28951898450032, 98.11253543756902, 21.812966491561383, 14.652928026393056, -0.03200000151991844, 0.1600000075995922, 0.7680000364780426, 0.0, 0.0, 0.0, 0.0, 0.0, 1.7632264696564922E9, 0.0, 2025-11-15 12:07:49.656
26.0, -173.7277026916854, -66.97786830645055, -87.04804141866043, -56.00500183645636, -0.03200000151991844, 0.1600000075995922, 0.7680000364780426, 0.0, 0.0, 0.0, 0.0, 0.0, 1.7632264696564922E9, 0.0, 2025-11-15 12:07:49.656
27.0, -200.98783346870914, -121.97309715487063, -162.5416619242169, -138.5857327580452, -0.03200000151991844, 0.1600000075995922, 0.7680000364780426, 0.0, 0.0, 0.0, 0.0, 0.0, 1.7632264696572592E9, 0.0, 2025-11-15 12:07:49.657
27.0, -10.974736419972032, 36.7594766644761, -37.19143510935828, -21.545563644729555, -0.03200000151991844, 0.1600000075995922, 0.7680000364780426, 0.0, 0.0, 0.0, 0.0, 0.0, 1.7632264696572592E9, 0.0, 2025-11-15 12:07:49.657
28.0, -103.90377051895484, 5.071304339915514, -26.263447438832372, -8.549411298707128, -0.03200000151991844, 0.1600000075995922, 0.7680000364780426, 0.0, 0.0, 0.0, 0.0, 0.0, 1.7632264696707647E9, 0.0, 2025-11-15 12:07:49.670
28.0, -273.7064482071437, -164.3386838529259, -192.0382528747432, -157.43482853472233, -0.03200000151991844, 0.1600000075995922, 0.7680000364780426, 0.0, 0.0, 0.0, 0.0, 0.0, 1.7632264696707647E9, 0.0, 2025-11-15 12:07:49.670
29.0, -140.70812598289922, -55.42531734332442, -106.24494789121673, -45.37994606234133, -0.03200000151991844, 0.1600000075995922, 0.7680000364780426, 0.0, 0.0, 0.0, 0.0, 0.0, 1.7632264696864927E9, 0.0, 2025-11-15 12:07:49.686
29.0, 16.850119250360876, 69.58083867561072, 1.2622162350453436, -13.751612137071788, -0.03200000151991844, 0.1600000075995922, 0.7680000364780426, 0.0, 0.0, 0.0, 0.0, 0.0, 1.7632264696864927E9, 0.0, 2025-11-15 12:07:49.686
30.0, 234.82457831781358, -155.0412925630808, -179.94715631799772, -151.50334720499814, -0.03200000151991844, 0.1600000075995922, 0.8960000425577164, 0.0, 0.0, 0.0, 0.0, 0.0, 1.7632264696872706E9, 0.0, 2025-11-15 12:07:49.687
30.0, 264.7288183635101, -125.18941111676395, -167.7251632628031, -129.52021526545286, -0.03200000151991844, 0.1600000075995922, 0.8960000425577164, 0.0, 0.0, 0.0, 0.0, 0.0, 1.7632264696872706E9, 0.0, 2025-11-15 12:07:49.687
31.0, 38.82577138999477, 88.77774514816701, 8.824293945450336, 18.246971883811057, -0.03200000151991844, 0.1600000075995922, 0.8960000425577164, 0.0, 0.0, 0.0, 0.0, 0.0, 1.7632264697007928E9, 0.0, 2025-11-15 12:07:49.700
31.0, -202.4463944514282, -106.3103961404413, -132.40554808126763, -88.53839155100286, -0.03200000151991844, 0.1600000075995922, 0.8960000425577164, 0.0, 0.0, 0.0, 0.0, 0.0, 1.7632264697007928E9, 0.0, 2025-11-15 12:07:49.700
32.0, -251.37924547167495, -162.9324814695865, -210.77141175279394, -172.33085005823523, -0.03200000151991844, 0.1600000075995922, 0.8960000425577164, 0.0, 0.0, 0.0, 0.0, 0.0, 1.7632264697164996E9, 0.0, 2025-11-15 12:07:49.716
32.0, -47.524778686929494, 15.576683315448463, -65.36410147557035, -46.69265094678849, -0.03200000151991844, 0.1600000075995922, 0.8960000425577164, 0.0, 0.0, 0.0, 0.0, 0.0, 1.7632264697164996E9, 0.0, 2025-11-15 12:07:49.716
33.0, -43.79609843110666, 26.291496688500047, -16.999715248588473, 4.719753744080663, -0.03200000151991844, 0.1600000075995922, 0.8960000425577164, 0.0, 0.0, 0.0, 0.0, 0.0, 1.7632264697172806E9, 0.0, 2025-11-15 12:07:49.717
33.0, -259.1881565791555, -162.08352417964488, -190.04862609831616, -160.30707170069218, -0.03200000151991844, 0.1600000075995922, 0.8960000425577164, 0.0, 0.0, 0.0, 0.0, 0.0, 1.7632264697172806E9, 0.0, 2025-11-15 12:07:49.717
34.0, -170.5076488298364, -92.58122340310365, -148.08320869551972, -127.07432069443166, -0.03200000151991844, 0.1600000075995922, 0.8960000425577164, 0.0, 0.0, 0.0, 0.0, 0.0, 1.763226469747144E9, 0.0, 2025-11-15 12:07:49.747
34.0, 39.19976138556376, 87.38650236465037, 26.472881836351007, 35.35701418109238, -0.03200000151991844, 0.1600000075995922, 0.8960000425577164, 0.0, 0.0, 0.0, 0.0, 0.0, 1.763226469747144E9, 0.0, 2025-11-15 12:07:49.747
35.0, 231.39509005844593, -151.9259558999911, -173.07322019943967, -136.61480548139662, -0.03200000151991844, 0.1600000075995922, 0.8960000425577164, 0.0, 0.0, 0.0, 0.0, 0.0, 1.7632264697478344E9, 0.0, 2025-11-15 12:07:49.747
35.0, 278.6075870990753, -123.74954963382334, -162.59402052359655, -124.06744113005698, -0.03200000151991844, 0.1600000075995922, 0.8960000425577164, 0.0, 0.0, 0.0, 0.0, 0.0, 1.7632264697478344E9, 0.0, 2025-11-15 12:07:49.747
36.0, 80.98566359048709, 105.36046155169606, 22.919976878445596, 33.150473207235336, -0.03200000151991844, 0.1600000075995922, 0.8960000425577164, 0.0, 0.0, 0.0, 0.0, 0.0, 1.7632264697485633E9, 0.0, 2025-11-15 12:07:49.748
36.0, 279.1723119923845, -110.43176589161158, -129.6380221140571, -96.84470935259014, -0.03200000151991844, 0.1600000075995922, 0.8960000425577164, 0.0, 0.0, 0.0, 0.0, 0.0, 1.7632264697485633E9, 0.0, 2025-11-15 12:07:49.748
37.0, 222.5165675636381, -161.02887239214033, -193.46315475786105, -158.1080105267465, -0.03200000151991844, 0.1600000075995922, 0.8960000425577164, 0.0, 0.0, 0.0, 0.0, 0.0, 1.7632264697608087E9, 0.0, 2025-11-15 12:07:49.760
37.0, 445.9980293158442, 20.10196226183325, -51.2646786426194, -29.623747549019754, -0.03200000151991844, 0.1600000075995922, 0.8960000425577164, 0.0, 0.0, 0.0, 0.0, 0.0, 1.7632264697608087E9, 0.0, 2025-11-15 12:07:49.760
38.0, 421.3520886078477, 17.25589839555323, -25.747341244947165, -4.83569064270705, -0.03200000151991844, 0.1600000075995922, 0.8960000425577164, 0.0, 0.0, 0.0, 0.0, 0.0, 1.7632264697765152E9, 0.0, 2025-11-15 12:07:49.776
38.0, 217.12363182753325, -158.10427062679082, -186.53312013996765, -142.90157730691135, -0.03200000151991844, 0.1600000075995922, 0.8960000425577164, 0.0, 0.0, 0.0, 0.0, 0.0, 1.7632264697765152E9, 0.0, 2025-11-15 12:07:49.776
39.0, 356.33018797822297, -65.1041784286499, -130.9282875987701, -110.17371279466897, -0.03200000151991844, 0.1600000075995922, 0.8960000425577164, 0.0, 0.0, 0.0, 0.0, 0.0, 1.7632264697771788E9, 0.0, 2025-11-15 12:07:49.777
39.0, 503.25963753741235, 80.96135424077511, 21.371658296789974, 36.97639086190611, -0.03200000151991844, 0.1600000075995922, 0.8960000425577164, 0.0, 0.0, 0.0, 0.0, 0.0, 1.7632264697771788E9, 0.0, 2025-11-15 12:07:49.777
40.0, 270.9445320898667, -129.21728336904198, -156.62140029435977, -96.90828765183687, -0.03200000151991844, 0.1600000075995922, 0.9600000455975533, 0.0, 0.0, 0.0, 0.0, 0.0, 1.7632264697907984E9, 0.0, 2025-11-15 12:07:49.790
40.0, 243.86765641067177, -145.13429758045822, -192.9956672633998, -151.41732950601727, -0.03200000151991844, 0.1600000075995922, 0.9600000455975533, 0.0, 0.0, 0.0, 0.0, 0.0, 1.7632264697907984E9, 0.0, 2025-11-15 12:07:49.790
41.0, 60.53963053273037, -379.0444703591056, 28.877637507859617, 25.81278949417174, -0.03200000151991844, 0.17600000835955143, 0.9600000455975533, 0.0, 0.0, 0.0, 0.0, 0.0, 1.7632264698065736E9, 0.0, 2025-11-15 12:07:49.806
41.0, 288.4697032822296, -586.0180137068965, -120.35933032399043, -86.5973834739998, -0.03200000151991844, 0.17600000835955143, 0.9600000455975533, 0.0, 0.0, 0.0, 0.0, 0.0, 1.7632264698065736E9, 0.0, 2025-11-15 12:07:49.806
42.0, 242.68584802467376, -644.0425615194254, -193.82592505356297, -151.32009210716933, -0.03200000151991844, 0.17600000835955143, 0.9600000455975533, 0.0, 0.0, 0.0, 0.0, 0.0, 1.7632264698071525E9, 0.0, 2025-11-15 12:07:49.807
42.0, 459.9590758504346, -470.832834971603, -52.6372219263576, -27.41720657516271, -0.03200000151991844, 0.17600000835955143, 0.9600000455975533, 0.0, 0.0, 0.0, 0.0, 0.0, 1.7632264698071525E9, 0.0, 2025-11-15 12:07:49.807
43.0, 452.68497043661773, -460.0058245998807, -19.995375113096088, 0.4749672943726182, -0.03200000151991844, 0.17600000835955143, 0.9600000455975533, 0.0, 0.0, 0.0, 0.0, 0.0, 1.7632264698208659E9, 0.0, 2025-11-15 12:07:49.820
43.0, 215.53417434636503, -651.0511340363882, -189.45772190531716, -148.09255844540894, -0.03200000151991844, 0.17600000835955143, 0.9600000455975533, 0.0, 0.0, 0.0, 0.0, 0.0, 1.7632264698208659E9, 0.0, 2025-11-15 12:07:49.820
44.0, 364.70382397901267, -542.6837929203175, -118.45946114649996, -85.08272399194539, -0.03200000151991844, 0.17600000835955143, 0.9600000455975533, 0.0, 0.0, 0.0, 0.0, 0.0, 1.7632264698364604E9, 0.0, 2025-11-15 12:07:49.836
44.0, 503.0988218393177, -397.3998993416317, 29.719114997889847, 40.91824541520327, -0.03200000151991844, 0.17600000835955143, 0.9600000455975533, 0.0, 0.0, 0.0, 0.0, 0.0, 1.7632264698364604E9, 0.0, 2025-11-15 12:07:49.836
45.0, 747.2638002964668, -636.8170748050325, -175.1713040745817, -133.15539802238345, -0.03200000151991844, 0.17600000835955143, 0.9600000455975533, 0.0, 0.0, 0.0, 0.0, 0.0, 1.7632264698371508E9, 0.0, 2025-11-15 12:07:49.837
45.0, 761.5913570267148, -619.2694642129354, -173.86233909009025, -129.5089955655858, -0.03200000151991844, 0.17600000835955143, 0.9600000455975533, 0.0, 0.0, 0.0, 0.0, 0.0, 1.7632264698371508E9, 0.0, 2025-11-15 12:07:49.837
46.0, 534.8692719629034, -400.9079255000688, 8.884132344741374, 28.864547858014703, -0.03200000151991844, 0.17600000835955143, 0.9600000455975533, 0.0, 0.0, 0.0, 0.0, 0.0, 1.7632264698507664E9, 0.0, 2025-11-15 12:07:49.850
46.0, 294.6554978089407, -581.53761355998, -114.1847554971464, -60.34328578505665, -0.03200000151991844, 0.17600000835955143, 0.9600000455975533, 0.0, 0.0, 0.0, 0.0, 0.0, 1.7632264698507664E9, 0.0, 2025-11-15 12:07:49.850
47.0, 238.09699077904224, -645.7068169997074, -189.5512194042094, -149.42770272959024, -0.03200000151991844, 0.17600000835955143, 0.9600000455975533, 0.0, 0.0, 0.0, 0.0, 0.0, 1.763226469866456E9, 0.0, 2025-11-15 12:07:49.866
47.0, 454.86907201074064, -466.21779842628166, -46.271912201773375, -27.76501727104187, -0.03200000151991844, 0.17600000835955143, 0.9600000455975533, 0.0, 0.0, 0.0, 0.0, 0.0, 1.763226469866456E9, 0.0, 2025-11-15 12:07:49.866
48.0, 409.0777369532734, -483.9598838160746, -34.03869944671169, 1.0322123877704144, -0.03200000151991844, 0.17600000835955143, 0.9600000455975533, 0.0, 0.0, 0.0, 0.0, 0.0, 1.763226469867142E9, 0.0, 2025-11-15 12:07:49.867
48.0, 226.39858371764421, -650.9875557371415, -193.2612001602538, -138.38377816043794, -0.03200000151991844, 0.17600000835955143, 0.9600000455975533, 0.0, 0.0, 0.0, 0.0, 0.0, 1.763226469867142E9, 0.0, 2025-11-15 12:07:49.867
49.0, 362.287848607637, -545.8402684829198, -108.93393595935777, -66.23362821526825, -0.03200000151991844, 0.17600000835955143, 0.9600000455975533, 0.0, 0.0, 0.0, 0.0, 0.0, 1.763226469880772E9, 0.0, 2025-11-15 12:07:49.880
49.0, 527.1089795548469, -402.7703956780024, 21.9550826898776, 41.43809150904417, -0.03200000151991844, 0.17600000835955143, 0.9600000455975533, 0.0, 0.0, 0.0, 0.0, 0.0, 1.763226469880772E9, 0.0, 2025-11-15 12:07:49.880
50.0, 763.9437540988438, -625.1523268432356, -164.55372810037807, -122.9866100428626, -0.03200000151991844, 0.17600000835955143, 0.9920000471174717, 0.0, 0.0, 0.0, 0.0, 0.0, 1.763226469896512E9, 0.0, 2025-11-15 12:07:49.896
50.0, 748.2997525841929, -627.6094411141239, -180.94944950612262, -146.5143206641078, -0.03200000151991844, 0.17600000835955143, 0.9920000471174717, 0.0, 0.0, 0.0, 0.0, 0.0, 1.763226469896512E9, 0.0, 2025-11-15 12:07:49.896
51.0, 523.006309303455, -397.93470503529534, 21.218322398606688, 44.871319668367505, -0.03200000151991844, 0.17600000835955143, 0.9920000471174717, 0.0, 0.0, 0.0, 0.0, 0.0, 1.7632264698971784E9, 0.0, 2025-11-15 12:07:49.897
51.0, 317.2519733412191, -567.1315189306624, -102.8079798319377, -63.821392743848264, -0.03200000151991844, 0.17600000835955143, 0.9920000471174717, 0.0, 0.0, 0.0, 0.0, 0.0, 1.7632264698971784E9, 0.0, 2025-11-15 12:07:49.897
52.0, 251.1903805239126, -630.0216765855439, -172.12328561069444, -109.79972279909998, -0.03200000151991844, 0.17600000835955143, 0.9920000471174717, 0.0, 0.0, 0.0, 0.0, 0.0, 1.7632264699107633E9, 0.0, 2025-11-15 12:07:49.910
52.0, 473.64710968825966, -454.14540136931464, -32.93916885973886, -12.812897248193622, -0.03200000151991844, 0.17600000835955143, 0.9920000471174717, 0.0, 0.0, 0.0, 0.0, 0.0, 1.7632264699107633E9, 0.0, 2025-11-15 12:07:49.910
53.0, 424.59832176938653, -473.37222704151645, -24.81610615598038, -16.728572501800954, -0.03200000151991844, 0.17600000835955143, 0.9920000471174717, 0.0, 0.0, 0.0, 0.0, 0.0, 1.763226469926458E9, 0.0, 2025-11-15 12:07:49.926
53.0, 213.97089616488665, -649.5402144542895, -183.49258147599176, -136.4352902835235, -0.03200000151991844, 0.17600000835955143, 0.9920000471174717, 0.0, 0.0, 0.0, 0.0, 0.0, 1.763226469926458E9, 0.0, 2025-11-15 12:07:49.926
54.0, 368.48860273417085, -550.5039237276651, -126.86301634693518, -106.7554442351684, -0.03200000151991844, 0.17600000835955143, 0.9920000471174717, 0.0, 0.0, 0.0, 0.0, 0.0, 1.763226469927141E9, 0.0, 2025-11-15 12:07:49.927
54.0, 535.5574135547504, -387.73973775608465, 40.688241567928344, 50.896298496983945, -0.03200000151991844, 0.17600000835955143, 0.9920000471174717, 0.0, 0.0, 0.0, 0.0, 0.0, 1.763226469927141E9, 0.0, 2025-11-15 12:07:49.927
55.0, 300.4785220399499, -617.5266708335839, -160.58195434743538, -127.84847998525947, -0.03200000151991844, 0.17600000835955143, 0.9920000471174717, 0.0, 0.0, 0.0, 0.0, 0.0, 1.763226469940807E9, 0.0, 2025-11-15 12:07:49.940
55.0, 229.50644058082253, -629.2325576948933, -178.8812848306261, -134.62891860492527, -0.03200000151991844, 0.17600000835955143, 0.9920000471174717, 0.0, 0.0, 0.0, 0.0, 0.0, 1.763226469940807E9, 0.0, 2025-11-15 12:07:49.940
56.0, 46.87029619468376, -868.6590829081833, 38.4069025949575, 53.52544816583395, -0.03200000151991844, 0.17600000835955143, 0.9920000471174717, 0.0, 0.0, 0.0, 0.0, 0.0, 1.7632264699564447E9, 0.0, 2025-11-15 12:07:49.956
56.0, -184.04234676947817, -1068.3173819426447, -116.03974587516859, -83.9270949056372, -0.03200000151991844, 0.17600000835955143, 0.9920000471174717, 0.0, 0.0, 0.0, 0.0, 0.0, 1.7632264699564447E9, 0.0, 2025-11-15 12:07:49.956
57.0, -258.56359328655526, -1140.172079791315, -197.69298160774633, -158.20150802563876, -0.03200000151991844, 0.17600000835955143, 0.9920000471174717, 0.0, 0.0, 0.0, 0.0, 0.0, 1.7632264699571605E9, 0.0, 2025-11-15 12:07:49.957
57.0, -41.72045395569876, -961.8985287034884, -59.933766739908606, -45.93719115573913, -0.03200000151991844, 0.17600000835955143, 0.9920000471174717, 0.0, 0.0, 0.0, 0.0, 0.0, 1.7632264699571605E9, 0.0, 2025-11-15 12:07:49.957
58.0, -78.44627152057365, -975.4818453425542, -36.34621771937236, -0.2692727968096733, -0.03200000151991844, 0.17600000835955143, 0.9920000471174717, 0.0, 0.0, 0.0, 0.0, 0.0, 1.7632264699871883E9, 0.0, 2025-11-15 12:07:49.987
58.0, -272.9210692164488, -1149.432072081603, -200.13513627881184, -152.74873389024287, -0.03200000151991844, 0.17600000835955143, 0.9920000471174717, 0.0, 0.0, 0.0, 0.0, 0.0, 1.7632264699871883E9, 0.0, 2025-11-15 12:07:49.987
59.0, -131.62764889048412, -1045.3356967149302, -128.84142342349514, -97.0466639501974, -0.03200000151991844, 0.17600000835955143, 0.9920000471174717, 0.0, 0.0, 0.0, 0.0, 0.0, 1.763226469987872E9, 0.0, 2025-11-15 12:07:49.987
59.0, 39.846764077898115, -891.3079170398414, 21.749388192314655, 38.790242340415716, -0.03200000151991844, 0.17600000835955143, 0.9920000471174717, 0.0, 0.0, 0.0, 0.0, 0.0, 1.763226469987872E9, 0.0, 2025-11-15 12:07:49.987
60.0, 201.7227238100022, -659.0395603417419, -188.41054991772398, -147.22490165568888, -0.03200000151991844, 0.17600000835955143, 1.0240000486373901, 0.0, 0.0, 0.0, 0.0, 0.0, 1.7632264699886236E9, 0.0, 2025-11-15 12:07:49.988
60.0, 281.0572215700522, -611.5652703042142, -168.21509015699849, -127.56050768867135, -0.03200000151991844, 0.17600000835955143, 1.0240000486373901, 0.0, 0.0, 0.0, 0.0, 0.0, 1.7632264699886236E9, 0.0, 2025-11-15 12:07:49.988
61.0, 43.893335829954594, -390.6119809220545, 23.58941897051409, 38.25543664675206, -0.03200000151991844, 0.17600000835955143, 1.0240000486373901, 0.0, 0.0, 0.0, 0.0, 0.0, 1.763226470000771E9, 0.0, 2025-11-15 12:07:50.000
61.0, -194.9291955404915, -582.1434773528017, -118.7810925426893, -82.46479402296245, -0.03200000151991844, 0.17600000835955143, 1.0240000486373901, 0.0, 0.0, 0.0, 0.0, 0.0, 1.763226470000771E9, 0.0, 2025-11-15 12:07:50.000
62.0, -233.09861448826268, -643.2235234291293, -196.1858019256033, -159.00932641606778, -0.03200000151991844, 0.17600000835955143, 1.0240000486373901, 0.0, 0.0, 0.0, 0.0, 0.0, 1.7632264700164697E9, 0.0, 2025-11-15 12:07:50.016
62.0, -27.5125740240328, -467.4594452115707, -57.962839463260025, -43.89894567988813, -0.03200000151991844, 0.17600000835955143, 1.0240000486373901, 0.0, 0.0, 0.0, 0.0, 0.0, 1.7632264700164697E9, 0.0, 2025-11-15 12:07:50.016
63.0, -67.88105414574966, -469.3817537887953, -17.84493263857439, 14.48089262843132, -0.03200000151991844, 0.17600000835955143, 1.0240000486373901, 0.0, 0.0, 0.0, 0.0, 0.0, 1.7632264700172668E9, 0.0, 2025-11-15 12:07:50.017
63.0, -249.6140126925893, -640.6205530599691, -178.37265843665227, -123.64109253510833, -0.03200000151991844, 0.17600000835955143, 1.0240000486373901, 0.0, 0.0, 0.0, 0.0, 0.0, 1.7632264700172668E9, 0.0, 2025-11-15 12:07:50.017
64.0, -113.2198613085784, -556.0389756620862, -135.65552114276215, -105.07248925510794, -0.03200000151991844, 0.17600000835955143, 1.0240000486373901, 0.0, 0.0, 0.0, 0.0, 0.0, 1.763226470030753E9, 0.0, 2025-11-15 12:07:50.030
64.0, -14.953989972826093, -414.64831793727353, 24.131704464089125, 47.51916883699596, -0.03200000151991844, 0.17600000835955143, 1.0240000486373901, 0.0, 0.0, 0.0, 0.0, 0.0, 1.763226470030753E9, 0.0, 2025-11-15 12:07:50.030
65.0, 227.01192731037736, -638.6234464836307, -172.6917504039593, -142.6248247101903, -0.03200000151991844, 0.17600000835955143, 1.0240000486373901, 0.0, 0.0, 0.0, 0.0, 0.0, 1.7632264700463147E9, 0.0, 2025-11-15 12:07:50.046
65.0, 283.6265328396112, -606.9277943591587, -165.26804899191484, -134.34094630833715, -0.03200000151991844, 0.17600000835955143, 1.0240000486373901, 0.0, 0.0, 0.0, 0.0, 0.0, 1.7632264700463147E9, 0.0, 2025-11-15 12:07:50.046
66.0, 55.87597528798506, -390.798975919839, 16.427510555367917, 25.158307001926005, -0.03200000151991844, 0.17600000835955143, 1.0240000486373901, 0.0, 0.0, 0.0, 0.0, 0.0, 1.7632264700614927E9, 0.0, 2025-11-15 12:07:50.061
66.0, -184.09470536885783, -575.1012457362376, -111.30503253126517, -70.01092717051506, -0.03200000151991844, 0.17600000835955143, 1.0240000486373901, 0.0, 0.0, 0.0, 0.0, 0.0, 1.7632264700614927E9, 0.0, 2025-11-15 12:07:50.061
67.0, -227.15217355871573, -629.6140274903737, -178.44745643576607, -132.98336262442172, -0.03200000151991844, 0.17600000835955143, 1.0240000486373901, 0.0, 0.0, 0.0, 0.0, 0.0, 1.763226470062281E9, 0.0, 2025-11-15 12:07:50.062
67.0, -18.76120812771842, -457.58610932854936, -49.046917968895286, -37.56729505490512, -0.03200000151991844, 0.17600000835955143, 1.0240000486373901, 0.0, 0.0, 0.0, 0.0, 0.0, 1.763226470062281E9, 0.0, 2025-11-15 12:07:50.062
68.0, -93.69758353987709, -483.67191151948646, -31.446948777418584, -8.519492099061608, -0.03200000151991844, 0.17600000835955143, 1.0240000486373901, 0.0, 0.0, 0.0, 0.0, 0.0, 1.7632264700764666E9, 0.0, 2025-11-15 12:07:50.076
68.0, -252.52739475807175, -645.3814457035623, -187.1090647331439, -152.1428700974211, -0.03200000151991844, 0.17600000835955143, 1.0240000486373901, 0.0, 0.0, 0.0, 0.0, 0.0, 1.7632264700764666E9, 0.0, 2025-11-15 12:07:50.076
69.0, -143.0081644556485, -546.9809379694052, -110.49721414083615, -79.41677555907518, -0.03200000151991844, 0.17600000835955143, 1.0240000486373901, 0.0, 0.0, 0.0, 0.0, 0.0, 1.7632264700771687E9, 0.0, 2025-11-15 12:07:50.077
69.0, 23.08827237645164, -396.9772906466387, 28.604624811094254, 39.51204303186387, -0.03200000151991844, 0.17600000835955143, 1.0240000486373901, 0.0, 0.0, 0.0, 0.0, 0.0, 1.7632264700771687E9, 0.0, 2025-11-15 12:07:50.077
70.0, 262.98976488411427, -613.461399581749, -151.95400514965877, -113.54336265474558, -0.03200000151991844, 0.17600000835955143, 1.0240000486373901, 0.0, 0.0, 0.0, 0.0, 0.0, 1.7632264700908267E9, 0.0, 2025-11-15 12:07:50.090
70.0, 281.0497417701408, -606.9464938589372, -164.07502090604976, -130.49258925393224, -0.03200000151991844, 0.17600000835955143, 1.0240000486373901, 0.0, 0.0, 0.0, 0.0, 0.0, 1.7632264700908267E9, 0.0, 2025-11-15 12:07:50.090
71.0, 49.069357368629426, -396.4985834523104, 19.008041524793953, 32.19679871853441, -0.03200000151991844, 0.17600000835955143, 1.0240000486373901, 0.0, 0.0, 0.0, 0.0, 0.0, 1.7632264701064696E9, 0.0, 2025-11-15 12:07:50.106
71.0, -194.78333944221959, -582.4277097494341, -123.76263928366825, -99.47011912148446, -0.03200000151991844, 0.17600000835955143, 1.0240000486373901, 0.0, 0.0, 0.0, 0.0, 0.0, 1.7632264701064696E9, 0.0, 2025-11-15 12:07:50.106
72.0, -229.56066913018003, -624.7671171477996, -174.10917248716578, -141.03536722902209, -0.03200000151991844, 0.17600000835955143, 1.0240000486373901, 0.0, 0.0, 0.0, 0.0, 0.0, 1.7632264701071696E9, 0.0, 2025-11-15 12:07:50.107
72.0, -54.79888410074636, -468.6449934975244, -46.331750601064414, -33.11681410763413, -0.03200000151991844, 0.17600000835955143, 1.0240000486373901, 0.0, 0.0, 0.0, 0.0, 0.0, 1.7632264701071696E9, 0.0, 2025-11-15 12:07:50.107
73.0, -70.35686791641638, -468.0578292044811, -18.69762982847169, 2.621669868938625, -0.03200000151991844, 0.17600000835955143, 1.0240000486373901, 0.0, 0.0, 0.0, 0.0, 0.0, 1.7632264701208255E9, 0.0, 2025-11-15 12:07:50.120
73.0, -265.5422466038726, -652.2740813218988, -194.30463224789128, -156.31659844797105, -0.03200000151991844, 0.17600000835955143, 1.0240000486373901, 0.0, 0.0, 0.0, 0.0, 0.0, 1.7632264701208255E9, 0.0, 2025-11-15 12:07:50.120
74.0, -135.81633684085682, -547.6017613620497, -118.25002674898133, -94.72044617775828, -0.03200000151991844, 0.17600000835955143, 1.0240000486373901, 0.0, 0.0, 0.0, 0.0, 0.0, 1.7632264701364796E9, 0.0, 2025-11-15 12:07:50.136
74.0, 24.180323163513094, -400.0327889104374, 29.259107303339988, 41.0192227140069, -0.03200000151991844, 0.17600000835955143, 1.0240000486373901, 0.0, 0.0, 0.0, 0.0, 0.0, 1.7632264701364796E9, 0.0, 2025-11-15 12:07:50.136
75.0, 240.31475145276636, -630.4816842800938, -167.26889546820894, -123.94402443151921, -0.03200000151991844, 0.17600000835955143, 1.0240000486373901, 0.0, 0.0, 0.0, 0.0, 0.0, 1.763226470137194E9, 0.0, 2025-11-15 12:07:50.137
75.0, 287.837660189718, -609.9496335233562, -175.61261226935312, -147.31091935466975, -0.03200000151991844, 0.17600000835955143, 1.0240000486373901, 0.0, 0.0, 0.0, 0.0, 0.0, 1.763226470137194E9, 0.0, 2025-11-15 12:07:50.137
76.0, 53.99106571031734, -382.9077870133333, 26.910450131166726, 30.020176944322884, -0.03200000151991844, 0.17600000835955143, 1.0240000486373901, 0.0, 0.0, 0.0, 0.0, 0.0, 1.763226470150823E9, 0.0, 2025-11-15 12:07:50.150
76.0, 294.60687910951674, -590.9434619485401, -130.6777143017389, -90.5616774270311, -0.03200000151991844, 0.17600000835955143, 1.0240000486373901, 0.0, 0.0, 0.0, 0.0, 0.0, 1.763226470150823E9, 0.0, 2025-11-15 12:07:50.150
77.0, 263.40489377919585, -635.0593218258582, -186.697675738018, -143.9973679939285, -0.03200000151991844, 0.17600000835955143, 1.0240000486373901, 0.0, 0.0, 0.0, 0.0, 0.0, 1.7632264701665263E9, 0.0, 2025-11-15 12:07:50.166
77.0, 478.90914892591536, -467.7997761075385, -63.35577519936487, -39.32878793403506, -0.03200000151991844, 0.17600000835955143, 1.0240000486373901, 0.0, 0.0, 0.0, 0.0, 0.0, 1.7632264701665263E9, 0.0, 2025-11-15 12:07:50.166
78.0, 382.2850936707109, -496.42497036838904, -46.42898799991235, -18.89397457614541, -0.03200000151991844, 0.17600000835955143, 1.0240000486373901, 0.0, 0.0, 0.0, 0.0, 0.0, 1.7632264701671836E9, 0.0, 2025-11-15 12:07:50.167
78.0, 230.84158486500382, -659.3163129384629, -201.45906086312607, -161.93766808137298, -0.03200000151991844, 0.17600000835955143, 1.0240000486373901, 0.0, 0.0, 0.0, 0.0, 0.0, 1.7632264701671836E9, 0.0, 2025-11-15 12:07:50.167
79.0, 349.40015336032957, -566.099306542892, -139.3468023990281, -111.22462468221784, -0.03200000151991844, 0.17600000835955143, 1.0240000486373901, 0.0, 0.0, 0.0, 0.0, 0.0, 1.763226470180848E9, 0.0, 2025-11-15 12:07:50.180
79.0, 516.9102723756805, -405.9455707403831, 21.050026900600642, 41.00052321422845, -0.03200000151991844, 0.17600000835955143, 1.0240000486373901, 0.0, 0.0, 0.0, 0.0, 0.0, 1.763226470180848E9, 0.0, 2025-11-15 12:07:50.180
80.0, 732.4201373723336, -634.3188216346316, -171.59595971694216, -133.09181972313672, -0.03200000151991844, 0.17600000835955143, 1.0240000486373901, 0.0, 0.0, 0.0, 0.0, 0.0, 1.7632264701964805E9, 0.0, 2025-11-15 12:07:50.196
80.0, 753.943261617329, -626.4874711274169, -186.9258096353151, -157.64052303228527, -0.03200000151991844, 0.17600000835955143, 1.0240000486373901, 0.0, 0.0, 0.0, 0.0, 0.0, 1.7632264701964805E9, 0.0, 2025-11-15 12:07:50.196
81.0, 521.5103493211791, -411.1477715787478, -4.549588296096772, 3.1265563629567623, -0.03200000151991844, 0.17600000835955143, 1.0240000486373901, 0.0, 0.0, 0.0, 0.0, 0.0, 1.7632264701971903E9, 0.0, 2025-11-15 12:07:50.197
81.0, 303.818252700381, -581.4029771615751, -121.41772201145068, -85.9279413819313, -0.03200000151991844, 0.17600000835955143, 1.0240000486373901, 0.0, 0.0, 0.0, 0.0, 0.0, 1.7632264701971903E9, 0.0, 2025-11-15 12:07:50.197
82.0, 243.2991916174069, -647.6852240762673, -192.38606357062235, -151.89603670034558, -0.03200000151991844, 0.17600000835955143, 1.0240000486373901, 0.0, 0.0, 0.0, 0.0, 0.0, 1.7632264702271519E9, 0.0, 2025-11-15 12:07:50.227
82.0, 461.5073944320902, -461.99919127626345, -49.98189295781776, -42.081354301422834, -0.03200000151991844, 0.17600000835955143, 1.0240000486373901, 0.0, 0.0, 0.0, 0.0, 0.0, 1.7632264702271519E9, 0.0, 2025-11-15 12:07:50.227
83.0, 401.3772829445079, -497.27392765833065, -42.4085955475457, -10.999045769684017, -0.03200000151991844, 0.17600000835955143, 1.0240000486373901, 0.0, 0.0, 0.0, 0.0, 0.0, 1.763226470227842E9, 0.0, 2025-11-15 12:07:50.227
83.0, 228.5191069925204, -658.3738581496291, -203.60576343769208, -168.46005360409617, -0.03200000151991844, 0.17600000835955143, 1.0240000486373901, 0.0, 0.0, 0.0, 0.0, 0.0, 1.763226470227842E9, 0.0, 2025-11-15 12:07:50.227
84.0, 354.63601329829544, -551.2780830184929, -123.49710638681427, -100.94737960398197, -0.03200000151991844, 0.17600000835955143, 1.0240000486373901, 0.0, 0.0, 0.0, 0.0, 0.0, 1.7632264702285771E9, 0.0, 2025-11-15 12:07:50.228
84.0, 497.1299415100366, -409.6966903959401, 14.471542878542095, 35.28221618197858, -0.03200000151991844, 0.17600000835955143, 1.0240000486373901, 0.0, 0.0, 0.0, 0.0, 0.0, 1.7632264702285771E9, 0.0, 2025-11-15 12:07:50.228
85.0, 257.8922812445089, -617.4593526343815, -154.9122660146095, -113.92109255027026, -0.03200000151991844, 0.17600000835955143, 1.0240000486373901, 0.0, 0.0, 0.0, 0.0, 0.0, 1.763226470240831E9, 0.0, 2025-11-15 12:07:50.240
85.0, 282.47838355321437, -619.5910956091247, -182.6623236858286, -147.04538645781577, -0.03200000151991844, 0.17600000835955143, 1.0240000486373901, 0.0, 0.0, 0.0, 0.0, 0.0, 1.763226470240831E9, 0.0, 2025-11-15 12:07:50.240
86.0, 514.685031902045, -408.1670713140629, -5.708957282360643, 3.0704578636214137, -0.03200000151991844, 0.17600000835955143, 1.0240000486373901, 0.0, 0.0, 0.0, 0.0, 0.0, 1.7632264702564547E9, 0.0, 2025-11-15 12:07:50.256
86.0, 300.41494374070317, -568.1338121187873, -111.80617912532762, -73.20480173267424, -0.03200000151991844, 0.17600000835955143, 1.0240000486373901, 0.0, 0.0, 0.0, 0.0, 0.0, 1.7632264702564547E9, 0.0, 2025-11-15 12:07:50.256
87.0, 237.5958441849798, -645.7778750988655, -197.4424083107151, -164.3349439529702, -0.03200000151991844, 0.17600000835955143, 1.0240000486373901, 0.0, 0.0, 0.0, 0.0, 0.0, 1.7632264702571604E9, 0.0, 2025-11-15 12:07:50.257
87.0, 459.22979535907507, -458.6781601156108, -48.91228157049045, -38.401292745023966, -0.03200000151991844, 0.17600000835955143, 1.0240000486373901, 0.0, 0.0, 0.0, 0.0, 0.0, 1.7632264702571604E9, 0.0, 2025-11-15 12:07:50.257
88.0, 455.5946126021445, -451.74064569780603, -13.611365888733417, 14.275198130868375, -0.03200000151991844, 0.17600000835955143, 1.0240000486373901, 0.0, 0.0, 0.0, 0.0, 0.0, 1.7632264702708068E9, 0.0, 2025-11-15 12:07:50.270
88.0, 692.2124729487114, -659.7950201327913, -207.44290079222992, -165.86456303484738, -0.03200000151991844, 0.17600000835955143, 1.0240000486373901, 0.0, 0.0, 0.0, 0.0, 0.0, 1.7632264702708068E9, 0.0, 2025-11-15 12:07:50.270
89.0, 830.226001013536, -559.1580522251315, -134.44379355711862, -108.53937651403248, -0.03200000151991844, 0.17600000835955143, 1.0240000486373901, 0.0, 0.0, 0.0, 0.0, 0.0, 1.7632264702870393E9, 0.0, 2025-11-15 12:07:50.287
89.0, 1009.3036305918358, -397.44477814109996, 25.044240053277463, 37.81786835193634, -0.03200000151991844, 0.17600000835955143, 1.0240000486373901, 0.0, 0.0, 0.0, 0.0, 0.0, 1.7632264702870393E9, 0.0, 2025-11-15 12:07:50.287
90.0, 778.3348891283385, -610.9855858110823, -158.0575218773447, -111.54999597836286, -0.03200000151991844, 0.17600000835955143, 1.0240000486373901, 0.0, 0.0, 0.0, 0.0, 0.0, 1.7632264703014765E9, 0.0, 2025-11-15 12:07:50.301
90.0, 729.4431770076044, -632.9313187510706, -188.32079231878743, -153.42191588226706, -0.03200000151991844, 0.17600000835955143, 1.0240000486373901, 0.0, 0.0, 0.0, 0.0, 0.0, 1.7632264703014765E9, 0.0, 2025-11-15 12:07:50.301
91.0, 532.8272865870968, -867.85500441771, 31.719961474183947, 52.34363977983594, -0.03200000151991844, 0.17600000835955143, 1.0240000486373901, 0.0, 0.0, 0.0, 0.0, 0.0, 1.7632264703021595E9, 0.0, 2025-11-15 12:07:50.302
91.0, 315.999106856063, -1054.154380810447, -103.2530279266648, -73.04772593453526, -0.03200000151991844, 0.17600000835955143, 1.0240000486373901, 0.0, 0.0, 0.0, 0.0, 0.0, 1.7632264703021595E9, 0.0, 2025-11-15 12:07:50.302
92.0, 236.556151997298, -1129.7788978144526, -192.42720247013494, -151.15927640907466, -0.03200000151991844, 0.17600000835955143, 1.0240000486373901, 0.0, 0.0, 0.0, 0.0, 0.0, 1.7632264703164408E9, 0.0, 2025-11-15 12:07:50.316
92.0, 452.96920283325016, -951.5577053260058, -56.17890718439594, -39.57936123106629, -0.03200000151991844, 0.17600000835955143, 1.0240000486373901, 0.0, 0.0, 0.0, 0.0, 0.0, 1.7632264703164408E9, 0.0, 2025-11-15 12:07:50.316
93.0, 424.43750607129186, -966.2555121518672, -34.92131583625451, -6.4999461229890585, -0.03200000151991844, 0.17600000835955143, 1.0240000486373901, 0.0, 0.0, 0.0, 0.0, 0.0, 1.7632264703171463E9, 0.0, 2025-11-15 12:07:50.317
93.0, 224.218222043477, -1132.187393385917, -191.39872998232022, -132.42237763106823, -0.03200000151991844, 0.17600000835955143, 1.0240000486373901, 0.0, 0.0, 0.0, 0.0, 0.0, 1.7632264703171463E9, 0.0, 2025-11-15 12:07:50.317
94.0, 345.6864327043295, -1048.0209448831156, -135.0496573499404, -115.03184283711016, -0.03200000151991844, 0.17600000835955143, 1.0240000486373901, 0.0, 0.0, 0.0, 0.0, 0.0, 1.763226470330803E9, 0.0, 2025-11-15 12:07:50.330
94.0, 513.7874559126794, -887.8746888805181, 28.451288912910968, 43.88024618010968, -0.03200000151991844, 0.17600000835955143, 1.0240000486373901, 0.0, 0.0, 0.0, 0.0, 0.0, 1.763226470330803E9, 0.0, 2025-11-15 12:07:50.330
95.0, 720.5160358133726, -1127.9575665360317, -173.1031393990852, -126.81626759748906, -0.03200000151991844, 0.17600000835955143, 1.0240000486373901, 0.0, 0.0, 0.0, 0.0, 0.0, 1.7632264703464446E9, 0.0, 2025-11-15 12:07:50.346
95.0, 761.2809453303926, -1111.8124184273183, -185.34383195405826, -146.41334336530417, -0.03200000151991844, 0.17600000835955143, 1.0240000486373901, 0.0, 0.0, 0.0, 0.0, 0.0, 1.7632264703464446E9, 0.0, 2025-11-15 12:07:50.346
96.0, 537.6629772298038, -879.1981209833175, 17.8785917381756, 30.356767940334976, -0.03200000151991844, 0.17600000835955143, 1.0240000486373901, 0.0, 0.0, 0.0, 0.0, 0.0, 1.763226470347137E9, 0.0, 2025-11-15 12:07:50.347
96.0, 334.17128074076027, -1058.1298944633454, -109.39768355386332, -66.47298181243241, -0.03200000151991844, 0.17600000835955143, 1.0240000486373901, 0.0, 0.0, 0.0, 0.0, 0.0, 1.763226470347137E9, 0.0, 2025-11-15 12:07:50.347
97.0, 224.7717272369191, -1129.195473421365, -191.37629058258608, -153.49671388138086, -0.03200000151991844, 0.17600000835955143, 1.0240000486373901, 0.0, 0.0, 0.0, 0.0, 0.0, 1.7632264703771896E9, 0.0, 2025-11-15 12:07:50.377
97.0, 460.46022244449705, -950.8957430338487, -55.81613688869402, -42.29452859889716, -0.03200000151991844, 0.17600000835955143, 1.0240000486373901, 0.0, 0.0, 0.0, 0.0, 0.0, 1.7632264703771896E9, 0.0, 2025-11-15 12:07:50.377
98.0, 392.1434699539095, -987.857174295932, -53.80407071253285, -23.40055402275175, -0.03200000151991844, 0.17600000835955143, 1.0240000486373901, 0.0, 0.0, 0.0, 0.0, 0.0, 1.7632264703778684E9, 0.0, 2025-11-15 12:07:50.377
98.0, 227.91324319969863, -1151.1262467615306, -208.261938882526, -161.46270078700036, -0.03200000151991844, 0.17600000835955143, 1.0240000486373901, 0.0, 0.0, 0.0, 0.0, 0.0, 1.7632264703778684E9, 0.0, 2025-11-15 12:07:50.377
99.0, 400.49840645492077, -1031.023099584505, -129.9671333101578, -88.65432844962925, -0.03200000151991844, 0.17600000835955143, 1.0240000486373901, 0.0, 0.0, 0.0, 0.0, 0.0, 1.76322647037862E9, 0.0, 2025-11-15 12:07:50.378
99.0, 462.2890335228294, -919.4992829058319, -1.8344209282658994, 19.514797968789935, -0.03200000151991844, 0.17600000835955143, 1.0240000486373901, 0.0, 0.0, 0.0, 0.0, 0.0, 1.76322647037862E9, 0.0, 2025-11-15 12:07:50.378
100.0, 232.79381264187396, -1129.4871856179088, -183.87405127147213, -136.12113868724555, -0.03200000151991844, 0.17600000835955143, 1.0240000486373901, 0.0, 0.0, 0.0, 0.0, 0.0, 1.763226470391545E9, 0.0, 2025-11-15 12:07:50.391
100.0, 296.20381639059633, -1096.2245154120028, -173.61176579305902, -133.7650017151609, -0.03200000151991844, 0.17600000835955143, 1.0240000486373901, 0.0, 0.0, 0.0, 0.0, 0.0, 1.763226470391545E9, 0.0, 2025-11-15 12:07:50.391
0.0, 30.38481719000265, 87.58471706230193, 2.5076029202900827, 7.006702566985041, -0.03200000151991844, 0.17600000835955143, 1.0240000486373901, 0.0, 0.0, 0.0, 0.0, 0.0, 1.7632264703921893E9, 0.0, 2025-11-15 12:07:50.392
1.0, -200.31839137664065, -95.70777976606041, -123.95337418140844, -87.42203141422942, -0.03200000151991844, 0.17600000835955143, 1.0240000486373901, 0.0, 0.0, 0.0, 0.0, 0.0, 1.7632264704058344E9, 0.0, 2025-11-15 12:07:50.405
1.0, -240.88508619600907, -147.13514405675232, -191.83255837718025, -147.19311250606552, -0.03200000151991844, 0.17600000835955143, 1.0240000486373901, 0.0, 0.0, 0.0, 0.0, 0.0, 1.7632264704058344E9, 0.0, 2025-11-15 12:07:50.405
2.0, -34.30049244360998, 20.704086154699326, -64.70213918341324, -46.60850319778547, -0.03200000151991844, 0.17600000835955143, 1.0240000486373901, 0.0, 0.0, 0.0, 0.0, 0.0, 1.763226470421474E9, 0.0, 2025-11-15 12:07:50.421
2.0, -106.48430148838088, -17.6747671905905, -57.974059163127095, -23.12193147605285, -0.03200000151991844, 0.17600000835955143, 1.0240000486373901, 0.0, 0.0, 0.0, 0.0, 0.0, 1.763226470421474E9, 0.0, 2025-11-15 12:07:50.421
3.0, -263.1524505321868, -161.99750648066401, -203.63942253729329, -154.67665231740102, -0.03200000151991844, 0.17600000835955143, 1.0240000486373901, 0.0, 0.0, 0.0, 0.0, 0.0, 1.7632264704222012E9, 0.0, 2025-11-15 12:07:50.422
3.0, -127.5960367382504, -64.52075403556228, -132.44294708082452, -100.9903884534724, -0.03200000151991844, 0.17600000835955143, 1.0240000486373901, 0.0, 0.0, 0.0, 0.0, 0.0, 1.7632264704222012E9, 0.0, 2025-11-15 12:07:50.422
4.0, 12.833466697949916, 75.81899180170149, 4.302754899021238, 21.726948792580515, -0.03200000151991844, 0.17600000835955143, 1.0240000486373901, 0.0, 0.0, 0.0, 0.0, 0.0, 1.7632264704358833E9, 0.0, 2025-11-15 12:07:50.435
4.0, 254.36555558629334, -147.0005076583475, -181.00554800545797, -131.6762675899081, -0.03200000151991844, 0.17600000835955143, 1.0240000486373901, 0.0, 0.0, 0.0, 0.0, 0.0, 1.7632264704358833E9, 0.0, 2025-11-15 12:07:50.435
5.0, 266.3930738437921, -125.70925721060485, -179.4721890236251, -133.63223526673391, -0.03200000151991844, 0.17600000835955143, 1.0240000486373901, 0.0, 0.0, 0.0, 0.0, 0.0, 1.7632264704514945E9, 0.0, 2025-11-15 12:07:50.451
5.0, 61.942093016114086, 116.55398211907595, 28.675682910252362, 48.23535967851058, -0.03200000151991844, 0.17600000835955143, 1.0240000486373901, 0.0, 0.0, 0.0, 0.0, 0.0, 1.7632264704514945E9, 0.0, 2025-11-15 12:07:50.451
6.0, 289.7001303676516, -97.94050003960729, -131.77724488871172, -81.18387828813866, -0.03200000151991844, 0.17600000835955143, 1.0240000486373901, 0.0, 0.0, 0.0, 0.0, 0.0, 1.7632264704521792E9, 0.0, 2025-11-15 12:07:50.452
6.0, 222.71104236133397, -168.80038450006396, -219.24976495234296, -184.31909936619923, -0.03200000151991844, 0.17600000835955143, 1.0240000486373901, 0.0, 0.0, 0.0, 0.0, 0.0, 1.7632264704521792E9, 0.0, 2025-11-15 12:07:50.452
7.0, 466.1822693767026, 30.61108113732189, -58.92773365182802, -43.76991913141683, -0.03200000151991844, 0.17600000835955143, 1.0240000486373901, 0.0, 0.0, 0.0, 0.0, 0.0, 1.76322647046586E9, 0.0, 2025-11-15 12:07:50.465
7.0, 415.0877561820671, 8.235259702429175, -41.6680953563191, -14.808133874554187, -0.03200000151991844, 0.17600000835955143, 1.0240000486373901, 0.0, 0.0, 0.0, 0.0, 0.0, 1.76322647046586E9, 0.0, 2025-11-15 12:07:50.465
8.0, 225.4449092289433, -167.1510886196047, -203.05973804416135, -146.99489780841395, -0.03200000151991844, 0.17600000835955143, 1.0240000486373901, 0.0, 0.0, 0.0, 0.0, 0.0, 1.763226470481486E9, 0.0, 2025-11-15 12:07:50.481
8.0, 351.397259936668, -62.44510956015438, -128.14206213178113, -87.12657931772992, -0.03200000151991844, 0.17600000835955143, 1.0240000486373901, 0.0, 0.0, 0.0, 0.0, 0.0, 1.763226470481486E9, 0.0, 2025-11-15 12:07:50.481
9.0, 533.9193373741582, 84.10287020355463, 13.637545188423246, 17.0632935478352, -0.03200000151991844, 0.17600000835955143, 1.0240000486373901, 0.0, 0.0, 0.0, 0.0, 0.0, 1.7632264704821908E9, 0.0, 2025-11-15 12:07:50.482
9.0, 727.3899719319306, 327.8003611662425, -198.93462839303538, -151.03024986060336, -0.03200000151991844, 0.17600000835955143, 1.0240000486373901, 0.0, 0.0, 0.0, 0.0, 0.0, 1.7632264704821908E9, 0.0, 2025-11-15 12:07:50.482
10.0, 753.1691023265012, 354.94829494459555, -187.15768343256786, -142.20408596517518, -0.03200000151991844, 0.17600000835955143, 1.0400000493973494, 0.0, 0.0, 0.0, 0.0, 0.0, 1.7632264704958684E9, 0.0, 2025-11-15 12:07:50.495
10.0, 518.2454166598618, 578.1530041000806, 4.654305494856089, 16.476129254791886, -0.03200000151991844, 0.17600000835955143, 1.0400000493973494, 0.0, 0.0, 0.0, 0.0, 0.0, 1.7632264704958684E9, 0.0, 2025-11-15 12:07:50.495
11.0, 294.5881796097383, 392.0593222049065, -133.80053076473996, -90.05118108307943, -0.03200000151991844, 0.17600000835955143, 1.0400000493973494, 0.0, 0.0, 0.0, 0.0, 0.0, 1.763226470511489E9, 0.0, 2025-11-15 12:07:50.511
11.0, 248.8978218510747, 342.629064490553, -189.8504114006646, -138.8643553047441, -0.03200000151991844, 0.17600000835955143, 1.0400000493973494, 0.0, 0.0, 0.0, 0.0, 0.0, 1.763226470511489E9, 0.0, 2025-11-15 12:07:50.511
12.0, 470.43079572636634, 532.3878483423032, -45.299538213294, -20.649857605341822, -0.03200000151991844, 0.17600000835955143, 1.0400000493973494, 0.0, 0.0, 0.0, 0.0, 0.0, 1.7632264705121944E9, 0.0, 2025-11-15 12:07:50.512
12.0, 407.17412787582725, 484.79014160623774, -52.319330430123955, -18.581692929845303, -0.03200000151991844, 0.17600000835955143, 1.0400000493973494, 0.0, 0.0, 0.0, 0.0, 0.0, 1.7632264705121944E9, 0.0, 2025-11-15 12:07:50.512
13.0, 224.27806044276804, 321.1433392451145, -206.6724814013578, -158.61850687069818, -0.03200000151991844, 0.17600000835955143, 1.0400000493973494, 0.0, 0.0, 0.0, 0.0, 0.0, 1.76322647054222E9, 0.0, 2025-11-15 12:07:50.542
13.0, 350.64927994553, 429.0843317662366, -128.73670622473583, -96.60722570540383, -0.03200000151991844, 0.17600000835955143, 1.0400000493973494, 0.0, 0.0, 0.0, 0.0, 0.0, 1.76322647054222E9, 0.0, 2025-11-15 12:07:50.542
14.0, 508.63013387378305, 575.5388140310533, 22.415090384427458, 36.38735661888495, -0.03200000151991844, 0.17600000835955143, 1.0400000493973494, 0.0, 0.0, 0.0, 0.0, 0.0, 1.7632264705428944E9, 0.0, 2025-11-15 12:07:50.542
14.0, 743.4902412411757, 344.5999917672016, -177.85281234281138, -134.24931875942275, -0.03200000151991844, 0.17600000835955143, 1.0400000493973494, 0.0, 0.0, 0.0, 0.0, 0.0, 1.7632264705428944E9, 0.0, 2025-11-15 12:07:50.542
15.0, 787.3817071211524, 375.192373404745, -166.8762059728615, -118.10043075075373, -0.03200000151991844, 0.17600000835955143, 1.0400000493973494, 0.0, 0.0, 0.0, 0.0, 0.0, 1.763226470543655E9, 0.0, 2025-11-15 12:07:50.543
15.0, 1024.655919909943, 593.1986216218211, 17.328826444689184, 22.231835286598653, -0.03200000151991844, 0.17600000835955143, 1.0400000493973494, 0.0, 0.0, 0.0, 0.0, 0.0, 1.763226470543655E9, 0.0, 2025-11-15 12:07:50.543
16.0, 1250.6562042823061, 363.9315346381627, -152.3878335445188, -107.09390518115833, -0.03200000151991844, 0.17600000835955143, 1.0400000493973494, 0.0, 0.0, 0.0, 0.0, 0.0, 1.7632264705558157E9, 0.0, 2025-11-15 12:07:50.555
16.0, 1222.6032147146761, 332.1012461152859, -201.38052296405658, -150.73105786414817, -0.03200000151991844, 0.17600000835955143, 1.0400000493973494, 0.0, 0.0, 0.0, 0.0, 0.0, 1.7632264705558157E9, 0.0, 2025-11-15 12:07:50.555
17.0, 1442.0979431141168, 526.3105109143071, -47.25550589011982, -23.757714468520135, -0.03200000151991844, 0.17600000835955143, 1.0400000493973494, 0.0, 0.0, 0.0, 0.0, 0.0, 1.7632264705714507E9, 0.0, 2025-11-15 12:07:50.571
17.0, 1388.5799747481942, 491.9183909217827, -41.72045395569876, -10.301554427947849, -0.03200000151991844, 0.17600000835955143, 1.0400000493973494, 0.0, 0.0, 0.0, 0.0, 0.0, 1.7632264705714507E9, 0.0, 2025-11-15 12:07:50.571
18.0, 1218.4033070644364, 329.04574785148725, -195.84173112967983, -151.77448995178565, -0.03200000151991844, 0.17600000835955143, 1.0400000493973494, 0.0, 0.0, 0.0, 0.0, 0.0, 1.7632264705721495E9, 0.0, 2025-11-15 12:07:50.572
18.0, 1343.3384049842134, 434.10327750677243, -124.54427837440744, -98.05082708830014, -0.03200000151991844, 0.17600000835955143, 1.0400000493973494, 0.0, 0.0, 0.0, 0.0, 0.0, 1.7632264705721495E9, 0.0, 2025-11-15 12:07:50.572
19.0, 1490.8176198368892, 572.647871365305, 15.391558267641813, 26.6972758336924, -0.03200000151991844, 0.17600000835955143, 1.0400000493973494, 0.0, 0.0, 0.0, 0.0, 0.0, 1.763226470585809E9, 0.0, 2025-11-15 12:07:50.585
19.0, 1250.8955578794703, 363.8529967390932, -159.06355496542528, -111.65284322714433, -0.03200000151991844, 0.17600000835955143, 1.0400000493973494, 0.0, 0.0, 0.0, 0.0, 0.0, 1.763226470585809E9, 0.0, 2025-11-15 12:07:50.585
20.0, 1267.7325874799863, 368.7447858811356, -171.8427931140177, -136.20902633620426, -0.03200000151991844, 0.17600000835955143, 1.0400000493973494, 0.0, 0.0, 0.0, 0.0, 0.0, 1.763226470601555E9, 0.0, 2025-11-15 12:07:50.601
20.0, 1509.7489934125915, 581.4702953607775, 7.3844324625097215, 20.455382807645947, -0.03200000151991844, 0.17600000835955143, 1.0400000493973494, 0.0, 0.0, 0.0, 0.0, 0.0, 1.763226470601555E9, 0.0, 2025-11-15 12:07:50.601
21.0, 1287.9317871406674, 399.542862016242, -122.15822220267728, -80.33118109824136, -0.03200000151991844, 0.17600000835955143, 1.0400000493973494, 0.0, 0.0, 0.0, 0.0, 0.0, 1.7632264706023173E9, 0.0, 2025-11-15 12:07:50.602
21.0, 1245.4801827436313, 364.7056939289905, -168.21509015699849, -127.50627913931385, -0.03200000151991844, 0.17600000835955143, 1.0400000493973494, 0.0, 0.0, 0.0, 0.0, 0.0, 1.7632264706023173E9, 0.0, 2025-11-15 12:07:50.602
22.0, 1464.9449919434264, 537.4666324821301, -34.28927274374291, -17.06703344779089, -0.03200000151991844, 0.17600000835955143, 1.0400000493973494, 0.0, 0.0, 0.0, 0.0, 0.0, 1.7632264706158173E9, 0.0, 2025-11-15 12:07:50.615
22.0, 1409.7889473969117, 506.64985684724525, -25.335952249821275, 5.1330126891843975, -0.03200000151991844, 0.17600000835955143, 1.0400000493973494, 0.0, 0.0, 0.0, 0.0, 0.0, 1.7632264706158173E9, 0.0, 2025-11-15 12:07:50.615
23.0, 1216.237904990092, 338.5450937389396, -191.4062097822316, -147.09587510721758, -0.03200000151991844, 0.17600000835955143, 1.0400000493973494, 0.0, 0.0, 0.0, 0.0, 0.0, 1.7632264706315763E9, 0.0, 2025-11-15 12:07:50.631
23.0, 1362.7522256541997, 451.149741504807, -111.7388609261252, -90.22695638099685, -0.03200000151991844, 0.17600000835955143, 1.0400000493973494, 0.0, 0.0, 0.0, 0.0, 0.0, 1.7632264706315763E9, 0.0, 2025-11-15 12:07:50.631
24.0, 1501.8091858066618, 592.4207224310376, 37.427048806566745, 50.703693649265915, -0.03200000151991844, 0.17600000835955143, 1.0400000493973494, 0.0, 0.0, 0.0, 0.0, 0.0, 1.7632264706322908E9, 0.0, 2025-11-15 12:07:50.632
24.0, 1729.5260842586868, 359.94854118535295, -163.86184660857543, -121.24194671353325, -0.03200000151991844, 0.17600000835955143, 1.0400000493973494, 0.0, 0.0, 0.0, 0.0, 0.0, 1.7632264706322908E9, 0.0, 2025-11-15 12:07:50.632
25.0, 1779.865137662273, 390.0921348282136, -161.0905807414092, -122.72294709598646, -0.03200000151991844, 0.17600000835955143, 1.0400000493973494, 0.0, 0.0, 0.0, 0.0, 0.0, 1.7632264706458223E9, 0.0, 2025-11-15 12:07:50.645
25.0, 1539.7429910572246, 612.762038290035, 38.657475891988724, 48.51959207514301, -0.03200000151991844, 0.17600000835955143, 1.0400000493973494, 0.0, 0.0, 0.0, 0.0, 0.0, 1.7632264706458223E9, 0.0, 2025-11-15 12:07:50.645
26.0, 1766.8315863166936, 407.2021771254949, -110.25038074376062, -72.64942658925429, -0.03200000151991844, 0.17600000835955143, 1.0400000493973494, 0.0, 0.0, 0.0, 0.0, 0.0, 1.7632264706615071E9, 0.0, 2025-11-15 12:07:50.661
26.0, 1733.0341104171239, 355.35968393972144, -173.85111939022318, -136.91586742782965, -0.03200000151991844, 0.17600000835955143, 1.0400000493973494, 0.0, 0.0, 0.0, 0.0, 0.0, 1.7632264706615071E9, 0.0, 2025-11-15 12:07:50.661
27.0, 1950.8010050370358, 542.2013458260335, -37.9244555006735, -29.749034197535366, -0.03200000151991844, 0.17600000835955143, 1.0400000493973494, 0.0, 0.0, 0.0, 0.0, 0.0, 1.7632264706622844E9, 0.0, 2025-11-15 12:07:50.662
27.0, 1896.9464456751011, 519.4552742955275, -20.593759106006473, 9.351619839202613, -0.03200000151991844, 0.17600000835955143, 1.0400000493973494, 0.0, 0.0, 0.0, 0.0, 0.0, 1.7632264706622844E9, 0.0, 2025-11-15 12:07:50.662
28.0, 1710.1234832885675, 344.68226956622675, -187.64761032676324, -152.52620984287933, -0.03200000151991844, 0.17600000835955143, 1.0400000493973494, 0.0, 0.0, 0.0, 0.0, 0.0, 1.7632264706757908E9, 0.0, 2025-11-15 12:07:50.675
28.0, 1857.3371652443893, 456.7259323387407, -113.26848000800237, -85.95225073164329, -0.03200000151991844, 0.17600000835955143, 1.0400000493973494, 0.0, 0.0, 0.0, 0.0, 0.0, 1.7632264706757908E9, 0.0, 2025-11-15 12:07:50.675
29.0, 1991.2816821574233, 592.4955204301514, 26.087672140914947, 47.27420538989827, -0.03200000151991844, 0.17600000835955143, 1.0400000493973494, 0.0, 0.0, 0.0, 0.0, 0.0, 1.763226470691511E9, 0.0, 2025-11-15 12:07:50.691
29.0, 2221.029346285388, 368.65128838224337, -154.90104631474242, -109.04987285798416, -0.03200000151991844, 0.17600000835955143, 1.0400000493973494, 0.0, 0.0, 0.0, 0.0, 0.0, 1.763226470691511E9, 0.0, 2025-11-15 12:07:50.691
30.0, 2256.3975801663473, 382.803069814574, -163.45419751340523, -123.80003828322515, -0.03200000151991844, 0.17600000835955143, 1.0240000486373901, 0.0, 0.0, 0.0, 0.0, 0.0, 1.76322647069228E9, 0.0, 2025-11-15 12:07:50.692
30.0, 2037.7237598071806, 612.6348816915415, 36.36491721915081, 46.36914960062131, -0.03200000151991844, 0.17600000835955143, 1.0240000486373901, 0.0, 0.0, 0.0, 0.0, 0.0, 1.76322647069228E9, 0.0, 2025-11-15 12:07:50.692
31.0, 1794.5479848883115, 417.83471269952133, -104.0309271174483, -65.65955357206985, -0.03200000151991844, 0.17600000835955143, 1.0240000486373901, 0.0, 0.0, 0.0, 0.0, 0.0, 1.7632264707058616E9, 0.0, 2025-11-15 12:07:50.705
31.0, 1717.3115710034035, 355.2213076413609, -177.4414233476855, -141.24293167656288, -0.03200000151991844, 0.17600000835955143, 1.0240000486373901, 0.0, 0.0, 0.0, 0.0, 0.0, 1.7632264707058616E9, 0.0, 2025-11-15 12:07:50.705
32.0, 1951.2871920312755, 552.6618460020982, -23.18550977529958, -15.668310864362866, -0.03200000151991844, 0.17600000835955143, 1.0240000486373901, 0.0, 0.0, 0.0, 0.0, 0.0, 1.7632264707215264E9, 0.0, 2025-11-15 12:07:50.721
32.0, 1880.8648758656345, 510.09056480647996, -23.308926473837346, -0.8620469397865236, -0.03200000151991844, 0.17600000835955143, 1.0240000486373901, 0.0, 0.0, 0.0, 0.0, 0.0, 1.7632264707215264E9, 0.0, 2025-11-15 12:07:50.721
33.0, 1724.7764113149606, 363.7744588400237, -164.2844553035684, -129.12939572008327, -0.03200000151991844, 0.17600000835955143, 1.0240000486373901, 0.0, 0.0, 0.0, 0.0, 0.0, 1.7632264707222855E9, 0.0, 2025-11-15 12:07:50.722
33.0, 1865.4078693487681, 474.6550127263181, -86.22152352845296, -64.16359358979389, -0.03200000151991844, 0.17600000835955143, 1.0240000486373901, 0.0, 0.0, 0.0, 0.0, 0.0, 1.7632264707222855E9, 0.0, 2025-11-15 12:07:50.722
34.0, 1988.4730172907002, 589.9860475598834, 33.52633315278217, 49.15911496756598, -0.03200000151991844, 0.17600000835955143, 1.0240000486373901, 0.0, 0.0, 0.0, 0.0, 0.0, 1.7632264707357967E9, 0.0, 2025-11-15 12:07:50.735
34.0, 2228.4979264969006, 368.1239624884911, -155.6078874063678, -113.4816543054767, -0.03200000151991844, 0.17600000835955143, 1.0240000486373901, 0.0, 0.0, 0.0, 0.0, 0.0, 1.7632264707357967E9, 0.0, 2025-11-15 12:07:50.735
35.0, 2255.3204889791086, 389.00756384106353, -156.74481699289754, -128.02612523315474, -0.03200000151991844, 0.17600000835955143, 1.0240000486373901, 0.0, 0.0, 0.0, 0.0, 0.0, 1.7632264707515078E9, 0.0, 2025-11-15 12:07:50.751
35.0, 2025.658842550125, 617.9866785281338, 41.1108502629213, 46.4476874996908, -0.03200000151991844, 0.17600000835955143, 1.0240000486373901, 0.0, 0.0, 0.0, 0.0, 0.0, 1.7632264707515078E9, 0.0, 2025-11-15 12:07:50.751
36.0, 2269.726583608426, 418.98286198591813, -105.61664469866082, -75.67126575345173, -0.03200000151991844, 0.17600000835955143, 1.0240000486373901, 0.0, 0.0, 0.0, 0.0, 0.0, 1.7632264707522874E9, 0.0, 2025-11-15 12:07:50.752
36.0, 2238.6068760771304, 376.92768698418513, -158.14353957632557, -118.50433994596824, -0.03200000151991844, 0.17600000835955143, 1.0240000486373901, 0.0, 0.0, 0.0, 0.0, 0.0, 1.7632264707522874E9, 0.0, 2025-11-15 12:07:50.752
37.0, 2450.868637962267, 560.7175905066542, -23.17429007543251, -17.616798741277307, -0.03200000151991844, 0.17600000835955143, 1.0240000486373901, 0.0, 0.0, 0.0, 0.0, 0.0, 1.7632264707658286E9, 0.0, 2025-11-15 12:07:50.765
37.0, 2380.334124797955, 513.527532865759, -22.71054248092696, 4.856260092463344, -0.03200000151991844, 0.17600000835955143, 1.0240000486373901, 0.0, 0.0, 0.0, 0.0, 0.0, 1.7632264707658286E9, 0.0, 2025-11-15 12:07:50.765
38.0, 2195.5755871869624, 344.28210027096793, -187.1464637327008, -146.55732951359823, -0.03200000151991844, 0.17600000835955143, 1.0240000486373901, 0.0, 0.0, 0.0, 0.0, 0.0, 1.7632264707815416E9, 0.0, 2025-11-15 12:07:50.781
38.0, 2350.7702156482264, 461.14649408636615, -107.60627147508785, -82.27592907520011, -0.03200000151991844, 0.17600000835955143, 1.0240000486373901, 0.0, 0.0, 0.0, 0.0, 0.0, 1.7632264707815416E9, 0.0, 2025-11-15 12:07:50.781
39.0, 2499.1881453897804, 599.8780829426832, 33.58243165211752, 47.40510188834742, -0.03200000151991844, 0.17600000835955143, 1.0240000486373901, 0.0, 0.0, 0.0, 0.0, 0.0, 1.7632264707822912E9, 0.0, 2025-11-15 12:07:50.782
39.0, 2691.1179411658086, 360.3786296802573, -161.19155804021284, -117.67408215580508, -0.03200000151991844, 0.17600000835955143, 1.0240000486373901, 0.0, 0.0, 0.0, 0.0, 0.0, 1.7632264707822912E9, 0.0, 2025-11-15 12:07:50.782
40.0, 2740.694054978434, 383.99983780039474, -155.0207231133245, -114.7756596901454, -0.03200000151991844, 0.17600000835955143, 1.0240000486373901, 0.0, 0.0, 0.0, 0.0, 0.0, 1.7632264708121743E9, 0.0, 2025-11-15 12:07:50.812
40.0, 2499.397579787299, 600.2595527381636, 30.137983792927116, 38.49292029393837, -0.03200000151991844, 0.17600000835955143, 1.0240000486373901, 0.0, 0.0, 0.0, 0.0, 0.0, 1.7632264708121743E9, 0.0, 2025-11-15 12:07:50.812
41.0, 2263.2341172853485, 411.0580139798112, -111.19657543255016, -75.2374373585917, -0.03200000151991844, 0.17600000835955143, 1.0240000486373901, 0.0, 0.0, 0.0, 0.0, 0.0, 1.7632264708128717E9, 0.0, 2025-11-15 12:07:50.812
41.0, 2218.3291385173798, 358.3665635040961, -176.93279695371166, -124.3011848772876, -0.03200000151991844, 0.17600000835955143, 1.0240000486373901, 0.0, 0.0, 0.0, 0.0, 0.0, 1.7632264708128717E9, 0.0, 2025-11-15 12:07:50.812
42.0, 2459.3395113619044, 561.3870325987227, -13.947956884745508, 0.09536744887009263, -0.03200000151991844, 0.17600000835955143, 1.0240000486373901, 0.0, 0.0, 0.0, 0.0, 0.0, 1.7632264708136067E9, 0.0, 2025-11-15 12:07:50.813
42.0, 2397.1449750987813, 519.9564208895899, -18.836006126832217, 15.436437067110091, -0.03200000151991844, 0.17600000835955143, 1.0240000486373901, 0.0, 0.0, 0.0, 0.0, 0.0, 1.7632264708136067E9, 0.0, 2025-11-15 12:07:50.813
43.0, 2227.839704104699, 352.5098801734857, -178.44371653581038, -131.4182144929655, -0.03200000151991844, 0.17600000835955143, 1.0240000486373901, 0.0, 0.0, 0.0, 0.0, 0.0, 1.7632264708258436E9, 0.0, 2025-11-15 12:07:50.825
43.0, 2314.4183880789205, 443.1650550994091, -120.21347422571853, -90.35037307953462, -0.03200000151991844, 0.17600000835955143, 1.0240000486373901, 0.0, 0.0, 0.0, 0.0, 0.0, 1.7632264708258436E9, 0.0, 2025-11-15 12:07:50.825
44.0, 2472.840550201945, 584.6978290225379, 32.01915347063914, 45.449134211521596, -0.03200000151991844, 0.17600000835955143, 1.0240000486373901, 0.0, 0.0, 0.0, 0.0, 0.0, 1.7632264708415244E9, 0.0, 2025-11-15 12:07:50.841
44.0, 2694.102381330449, 356.0366058317013, -162.18263152847067, -116.98220066400245, -0.03200000151991844, 0.17600000835955143, 1.0240000486373901, 0.0, 0.0, 0.0, 0.0, 0.0, 1.7632264708415244E9, 0.0, 2025-11-15 12:07:50.841
45.0, 2754.576563613955, 393.45430488837883, -154.96462461398914, -117.5207462576218, -0.03200000151991844, 0.17600000835955143, 1.0240000486373901, 0.0, 0.0, 0.0, 0.0, 0.0, 1.7632264708422072E9, 0.0, 2025-11-15 12:07:50.842
45.0, 2989.1954474342056, 603.1093565043993, 28.200715615879744, 46.5224854988046, -0.03200000151991844, 0.17600000835955143, 1.0240000486373901, 0.0, 0.0, 0.0, 0.0, 0.0, 1.7632264708422072E9, 0.0, 2025-11-15 12:07:50.842
46.0, 2749.449160774704, 396.41630565328524, -121.52617911016569, -79.2428702111356, -0.03200000151991844, 0.17600000835955143, 1.0240000486373901, 0.0, 0.0, 0.0, 0.0, 0.0, 1.7632264708558788E9, 0.0, 2025-11-15 12:07:50.855
46.0, 2699.413039267529, 348.5231468207203, -190.8078257893212, -140.18827988905832, -0.03200000151991844, 0.17600000835955143, 1.0240000486373901, 0.0, 0.0, 0.0, 0.0, 0.0, 1.7632264708558788E9, 0.0, 2025-11-15 12:07:50.855
47.0, 2476.0306848641485, 564.7641622587107, -15.840346262324601, -0.7947287405841053, -0.03200000151991844, 0.17600000835955143, 1.0240000486373901, 0.0, 0.0, 0.0, 0.0, 0.0, 1.7632264708714876E9, 0.0, 2025-11-15 12:07:50.871
47.0, 2366.346898963675, 498.2537814467214, -40.87523656571284, -5.316267787013203, -0.03200000151991844, 0.17600000835955143, 1.0240000486373901, 0.0, 0.0, 0.0, 0.0, 0.0, 1.7632264708714876E9, 0.0, 2025-11-15 12:07:50.871
48.0, 2196.218849979341, 338.82932613557205, -194.38691004691646, -148.718991687987, -0.03200000151991844, 0.17600000835955143, 1.0240000486373901, 0.0, 0.0, 0.0, 0.0, 0.0, 1.763226470872182E9, 0.0, 2025-11-15 12:07:50.872
48.0, 2335.33938843105, 456.14624784560874, -105.99811449414119, -77.32430153386667, -0.03200000151991844, 0.17600000835955143, 1.0240000486373901, 0.0, 0.0, 0.0, 0.0, 0.0, 1.763226470872182E9, 0.0, 2025-11-15 12:07:50.872
49.0, 2479.789284319617, 587.5700721885078, 34.36407074285671, 43.56796453380957, -0.03200000151991844, 0.17600000835955143, 1.0240000486373901, 0.0, 0.0, 0.0, 0.0, 0.0, 1.7632264708858533E9, 0.0, 2025-11-15 12:07:50.885
49.0, 2678.5892763142474, 344.27462047105655, -173.6192455929704, -125.4829932632856, -0.03200000151991844, 0.17600000835955143, 1.0240000486373901, 0.0, 0.0, 0.0, 0.0, 0.0, 1.7632264708858533E9, 0.0, 2025-11-15 12:07:50.885
50.0, 2738.678248902317, 380.0953822466545, -166.29652147972956, -124.15158887906, -0.03200000151991844, 0.17600000835955143, 1.0240000486373901, 0.0, 0.0, 0.0, 0.0, 0.0, 1.7632264709015424E9, 0.0, 2025-11-15 12:07:50.901
50.0, 2507.2289302945137, 610.7125731143169, 40.81165826646611, 57.974059163127095, -0.03200000151991844, 0.17600000835955143, 1.0240000486373901, 0.0, 0.0, 0.0, 0.0, 0.0, 1.7632264709015424E9, 0.0, 2025-11-15 12:07:50.901
51.0, 2269.0234824167565, 413.48520905105397, -106.46934188855812, -65.46133887441829, -0.03200000151991844, 0.17600000835955143, 1.0240000486373901, 0.0, 0.0, 0.0, 0.0, 0.0, 1.7632264709021873E9, 0.0, 2025-11-15 12:07:50.902
51.0, 2199.8465529363602, 332.7258094078861, -199.35723708802834, -145.4241398270242, -0.03200000151991844, 0.17600000835955143, 1.0240000486373901, 0.0, 0.0, 0.0, 0.0, 0.0, 1.7632264709021873E9, 0.0, 2025-11-15 12:07:50.902
52.0, 2433.306067770347, 537.6162284803577, -34.13967674551532, -15.361639067996293, -0.03200000151991844, 0.17600000835955143, 1.0240000486373901, 0.0, 0.0, 0.0, 0.0, 0.0, 1.7632264709158316E9, 0.0, 2025-11-15 12:07:50.915
52.0, 2366.6161717604846, 500.4715421204455, -26.02409384166822, 7.189957664813846, -0.03200000151991844, 0.17600000835955143, 1.0240000486373901, 0.0, 0.0, 0.0, 0.0, 0.0, 1.7632264709158316E9, 0.0, 2025-11-15 12:07:50.915
53.0, 2198.0850600572303, 353.5533122611232, -176.79442065535113, -124.82477087108418, -0.03200000151991844, 0.17600000835955143, 1.0240000486373901, 0.0, 0.0, 0.0, 0.0, 0.0, 1.763226470931486E9, 0.0, 2025-11-15 12:07:50.931
53.0, 2328.7085458096117, 446.68804085766897, -112.10537112178281, -83.89530575601384, -0.03200000151991844, 0.17600000835955143, 1.0240000486373901, 0.0, 0.0, 0.0, 0.0, 0.0, 1.763226470931486E9, 0.0, 2025-11-15 12:07:50.931
54.0, 2467.978680259548, 591.257613544818, 38.48918039398268, 63.08276250259951, -0.03200000151991844, 0.17600000835955143, 1.0240000486373901, 0.0, 0.0, 0.0, 0.0, 0.0, 1.7632264709321852E9, 0.0, 2025-11-15 12:07:50.932
54.0, 2706.6534855817445, 364.0811306363903, -153.37890703277662, -106.57779898727313, -0.03200000151991844, 0.17600000835955143, 1.0240000486373901, 0.0, 0.0, 0.0, 0.0, 0.0, 1.7632264709321852E9, 0.0, 2025-11-15 12:07:50.932
55.0, 2734.1903689554892, 374.8931814082898, -164.18347800476477, -115.49746038159356, -0.03200000151991844, 0.17600000835955143, 1.0240000486373901, 0.0, 0.0, 0.0, 0.0, 0.0, 1.7632264709458182E9, 0.0, 2025-11-15 12:07:50.945
55.0, 2511.3428202457726, 606.5687639634125, 35.011073435191065, 51.21605994319543, -0.03200000151991844, 0.17600000835955143, 1.0240000486373901, 0.0, 0.0, 0.0, 0.0, 0.0, 1.7632264709458182E9, 0.0, 2025-11-15 12:07:50.945
56.0, 2727.6380642331205, 381.8007766264491, -138.07149651413783, -97.87131189042702, -0.03200000151991844, 0.17600000835955143, 1.0240000486373901, 0.0, 0.0, 0.0, 0.0, 0.0, 1.7632264709615247E9, 0.0, 2025-11-15 12:07:50.961
56.0, 2700.542489054147, 342.6589836901985, -194.94041524035856, -141.90863386867568, -0.03200000151991844, 0.17600000835955143, 1.0240000486373901, 0.0, 0.0, 0.0, 0.0, 0.0, 1.7632264709615247E9, 0.0, 2025-11-15 12:07:50.961
57.0, 2931.8366018137895, 549.9466786342673, -24.154143863823265, -2.6684186183847487, -0.03200000151991844, 0.17600000835955143, 1.0240000486373901, 0.0, 0.0, 0.0, 0.0, 0.0, 1.763226470962196E9, 0.0, 2025-11-15 12:07:50.962
57.0, 2844.091069053393, 492.22880261810496, -35.87873022491112, -0.562854943331331, -0.03200000151991844, 0.17600000835955143, 1.0240000486373901, 0.0, 0.0, 0.0, 0.0, 0.0, 1.763226470962196E9, 0.0, 2025-11-15 12:07:50.962
58.0, 2687.4864983088337, 344.12876437278464, -180.5455403109081, -134.3054172587581, -0.03200000151991844, 0.17600000835955143, 1.0240000486373901, 0.0, 0.0, 0.0, 0.0, 0.0, 1.763226470975848E9, 0.0, 2025-11-15 12:07:50.975
58.0, 2819.9986335388385, 452.3053705911152, -108.08871856937185, -71.76681019971147, -0.03200000151991844, 0.17600000835955143, 1.0240000486373901, 0.0, 0.0, 0.0, 0.0, 0.0, 1.763226470975848E9, 0.0, 2025-11-15 12:07:50.975
59.0, 2946.2501762430184, 576.1932965232991, 19.5839861179702, 42.52453244617209, -0.03200000151991844, 0.17600000835955143, 1.0240000486373901, 0.0, 0.0, 0.0, 0.0, 0.0, 1.7632264709914656E9, 0.0, 2025-11-15 12:07:50.991
59.0, 3171.4800412245095, 340.79651351226494, -175.79212746722624, -128.1121429321356, -0.03200000151991844, 0.17600000835955143, 1.0240000486373901, 0.0, 0.0, 0.0, 0.0, 0.0, 1.7632264709914656E9, 0.0, 2025-11-15 12:07:50.991
60.0, 3224.395885697566, 372.7090798341669, -170.57122712908313, -126.12625605566427, -0.03200000151991844, 0.17600000835955143, 1.0240000486373901, 0.0, 0.0, 0.0, 0.0, 0.0, 1.7632264709921756E9, 0.0, 2025-11-15 12:07:50.992
60.0, 2986.113769870717, 589.2866862681694, 15.997422060463578, 35.65059632761404, -0.03200000151991844, 0.17600000835955143, 1.0240000486373901, 0.0, 0.0, 0.0, 0.0, 0.0, 1.7632264709921756E9, 0.0, 2025-11-15 12:07:50.992
61.0, 3225.9180249795318, 389.85278123104945, -128.77036532433704, -79.41490560909733, -0.03200000151991844, 0.1600000075995922, 1.0240000486373901, 0.0, 0.0, 0.0, 0.0, 0.0, 1.7632264710222287E9, 0.0, 2025-11-15 12:07:51.022
61.0, 3189.4353009117767, 346.23806794779375, -184.93244295893237, -129.21915331901982, -0.03200000151991844, 0.1600000075995922, 1.0240000486373901, 0.0, 0.0, 0.0, 0.0, 0.0, 1.7632264710222287E9, 0.0, 2025-11-15 12:07:51.022
62.0, 3427.7080669887364, 542.6501338207163, -34.68570213904604, -6.206363976467401, -0.03200000151991844, 0.1600000075995922, 1.0240000486373901, 0.0, 0.0, 0.0, 0.0, 0.0, 1.7632264710229104E9, 0.0, 2025-11-15 12:07:51.022
62.0, 3340.1457893261686, 487.5165286739357, -51.23475944297388, -14.931550573091954, -0.03200000151991844, 0.1600000075995922, 1.0240000486373901, 0.0, 0.0, 0.0, 0.0, 0.0, 1.7632264710229104E9, 0.0, 2025-11-15 12:07:51.022
63.0, 3156.576539901085, 315.71300450945273, -209.50358566781506, -158.45021137269214, -0.03200000151991844, 0.1600000075995922, 1.0240000486373901, 0.0, 0.0, 0.0, 0.0, 0.0, 1.7632264710236416E9, 0.0, 2025-11-15 12:07:51.023
63.0, 3314.7743080267683, 448.98807933041826, -105.76624069688842, -72.96731808548793, -0.03200000151991844, 0.1600000075995922, 1.0240000486373901, 0.0, 0.0, 0.0, 0.0, 0.0, 1.7632264710236416E9, 0.0, 2025-11-15 12:07:51.023
64.0, 3448.4719915427268, 578.5382137955166, 24.35983836138621, 51.111342744436115, -0.03200000151991844, 0.1600000075995922, 1.0240000486373901, 0.0, 0.0, 0.0, 0.0, 0.0, 1.7632264710358052E9, 0.0, 2025-11-15 12:07:51.035
64.0, 3673.1259119310416, 350.98774089151993, -169.2473025447689, -114.15109639754519, -0.03200000151991844, 0.1600000075995922, 1.0240000486373901, 0.0, 0.0, 0.0, 0.0, 0.0, 1.7632264710358052E9, 0.0, 2025-11-15 12:07:51.035
65.0, 3718.857408589218, 375.8655553967692, -167.8037011618726, -123.25401288969442, -0.03200000151991844, 0.1600000075995922, 1.0240000486373901, 0.0, 0.0, 0.0, 0.0, 0.0, 1.7632264710515208E9, 0.0, 2025-11-15 12:07:51.051
65.0, 3486.241241195239, 599.8556435429491, 23.9933281657286, 47.049811392556876, -0.03200000151991844, 0.1600000075995922, 1.0240000486373901, 0.0, 0.0, 0.0, 0.0, 0.0, 1.7632264710515208E9, 0.0, 2025-11-15 12:07:51.051
66.0, 3723.2181319375522, 396.5808612513356, -124.94818756962195, -81.16143888840452, -0.03200000151991844, 0.1600000075995922, 1.0240000486373901, 0.0, 0.0, 0.0, 0.0, 0.0, 1.763226471052294E9, 0.0, 2025-11-15 12:07:51.052
66.0, 3666.1958773131482, 327.6881641675718, -203.65438213711604, -159.43754496099427, -0.03200000151991844, 0.1600000075995922, 1.0240000486373901, 0.0, 0.0, 0.0, 0.0, 0.0, 1.763226471052294E9, 0.0, 2025-11-15 12:07:51.052
67.0, 3905.8374467738904, 535.8210765016265, -38.13388989819214, -15.836606362368912, -0.03200000151991844, 0.1600000075995922, 1.0240000486373901, 0.0, 0.0, 0.0, 0.0, 0.0, 1.7632264710657892E9, 0.0, 2025-11-15 12:07:51.065
67.0, 3821.102533477824, 483.2418230245821, -47.37144278874621, -2.3879261217080057, -0.03200000151991844, 0.1600000075995922, 1.0240000486373901, 0.0, 0.0, 0.0, 0.0, 0.0, 1.7632264710657892E9, 0.0, 2025-11-15 12:07:51.065
68.0, 3654.6994248493575, 313.5401226351969, -214.13358181295916, -150.7160982643254, -0.03200000151991844, 0.1600000075995922, 1.0240000486373901, 0.0, 0.0, 0.0, 0.0, 0.0, 1.7632264710813365E9, 0.0, 2025-11-15 12:07:51.081
68.0, 3814.5016100560315, 437.364470268134, -125.26607906585559, -85.36882633855566, -0.03200000151991844, 0.1600000075995922, 1.0240000486373901, 0.0, 0.0, 0.0, 0.0, 0.0, 1.7632264710813365E9, 0.0, 2025-11-15 12:07:51.081
69.0, 3907.3221870562993, 555.0740814735182, 3.509896108414978, 31.13279718114063, -0.03200000151991844, 0.1600000075995922, 1.0240000486373901, 0.0, 0.0, 0.0, 0.0, 0.0, 1.7632264710965233E9, 0.0, 2025-11-15 12:07:51.096
69.0, 4147.560270559974, 334.2853476894088, -191.22669458435848, -138.59134260797873, -0.03200000151991844, 0.1600000075995922, 1.0240000486373901, 0.0, 0.0, 0.0, 0.0, 0.0, 1.7632264710965233E9, 0.0, 2025-11-15 12:07:51.096
70.0, 4206.415076162666, 367.68639419367537, -178.55965343443677, -130.8908885992132, -0.03200000151991844, 0.1600000075995922, 1.0240000486373901, 0.0, 0.0, 0.0, 0.0, 0.0, 1.7632264710972915E9, 0.0, 2025-11-15 12:07:51.097
70.0, 4448.7792927911505, 593.0153665239923, 20.35814540879801, 43.60162363341078, -0.03200000151991844, 0.1600000075995922, 1.0240000486373901, 0.0, 0.0, 0.0, 0.0, 0.0, 1.7632264710972915E9, 0.0, 2025-11-15 12:07:51.097
71.0, 4225.754098833539, 408.7729351068847, -114.94395518815145, -67.54820304969326, -0.03200000151991844, 0.1600000075995922, 1.0240000486373901, 0.0, 0.0, 0.0, 0.0, 0.0, 1.7632264711115253E9, 0.0, 2025-11-15 12:07:51.111
71.0, 4166.125133940019, 341.6679102019407, -191.42864918196574, -133.5275180679746, -0.03200000151991844, 0.1600000075995922, 1.0240000486373901, 0.0, 0.0, 0.0, 0.0, 0.0, 1.7632264711115253E9, 0.0, 2025-11-15 12:07:51.111
72.0, 4392.198346361518, 523.4270480484702, -46.855336594861, -17.13435164699331, -0.04800000227987766, 0.1600000075995922, 1.0240000486373901, 0.0, 0.0, 0.0, 0.0, 0.0, 1.7632264711123116E9, 0.0, 2025-11-15 12:07:51.112
72.0, 4310.791944026016, 474.89436632348225, -59.567256544250995, -20.159930711146444, -0.04800000227987766, 0.1600000075995922, 1.0240000486373901, 0.0, 0.0, 0.0, 0.0, 0.0, 1.7632264711123116E9, 0.0, 2025-11-15 12:07:51.112
73.0, 4159.950559113175, 333.38029190013185, -196.0698650269769, -142.48083856189623, -0.04800000227987766, 0.1600000075995922, 1.0240000486373901, 0.0, 0.0, 0.0, 0.0, 0.0, 1.7632264711258717E9, 0.0, 2025-11-15 12:07:51.125
73.0, 4289.668989076279, 437.2260939697735, -121.2232472137548, -77.60479403054342, -0.04800000227987766, 0.1600000075995922, 1.0240000486373901, 0.0, 0.0, 0.0, 0.0, 0.0, 1.7632264711258717E9, 0.0, 2025-11-15 12:07:51.125
74.0, 4422.181124306284, 565.123192654457, 16.517268154304475, 43.7811388312839, -0.04800000227987766, 0.1600000075995922, 1.0240000486373901, 0.0, 0.0, 0.0, 0.0, 0.0, 1.7632264711415496E9, 0.0, 2025-11-15 12:07:51.141
74.0, 4649.621270161588, 340.34398561762646, -178.6568908332847, -122.27789900125936, -0.04800000227987766, 0.1600000075995922, 1.0240000486373901, 0.0, 0.0, 0.0, 0.0, 0.0, 1.7632264711415496E9, 0.0, 2025-11-15 12:07:51.141
75.0, 4679.31233590981, 353.2279409649782, -188.57884541573003, -133.58361656730995, -0.04800000227987766, 0.1600000075995922, 1.0240000486373901, 0.0, 0.0, 0.0, 0.0, 0.0, 1.7632264711423085E9, 0.0, 2025-11-15 12:07:51.142
75.0, 4454.276945726015, 583.5982984355651, 13.51412848988548, 30.066925693769008, -0.04800000227987766, 0.1600000075995922, 1.0240000486373901, 0.0, 0.0, 0.0, 0.0, 0.0, 1.7632264711423085E9, 0.0, 2025-11-15 12:07:51.142
76.0, 4692.177591757383, 375.7944972976111, -145.35308172786608, -92.2091033575125, -0.04800000227987766, 0.1600000075995922, 1.0240000486373901, 0.0, 0.0, 0.0, 0.0, 0.0, 1.7632264711722076E9, 0.0, 2025-11-15 12:07:51.172
76.0, 4665.504625273403, 333.3989913999103, -205.55425131460652, -146.44887241488323, -0.04800000227987766, 0.1600000075995922, 1.0240000486373901, 0.0, 0.0, 0.0, 0.0, 0.0, 1.7632264711722076E9, 0.0, 2025-11-15 12:07:51.172
77.0, 4889.001046625432, 544.8566747945733, -30.8111657849513, 4.960977291222662, -0.04800000227987766, 0.1600000075995922, 1.0240000486373901, 0.0, 0.0, 0.0, 0.0, 0.0, 1.7632264711728888E9, 0.0, 2025-11-15 12:07:51.172
77.0, 4795.226795136463, 467.0592759163119, -63.02666400326416, -17.89729123795405, -0.04800000227987766, 0.1600000075995922, 1.0240000486373901, 0.0, 0.0, 0.0, 0.0, 0.0, 1.7632264711728888E9, 0.0, 2025-11-15 12:07:51.172
78.0, 4626.056160540786, 310.25649047410116, -207.9290877864696, -160.92976504331455, -0.04800000227987766, 0.1600000075995922, 1.0240000486373901, 0.0, 0.0, 0.0, 0.0, 0.0, 1.7632264711736293E9, 0.0, 2025-11-15 12:07:51.173
78.0, 4776.13086596271, 433.24684041691944, -123.09693709155545, -80.73509029345587, -0.04800000227987766, 0.1600000075995922, 1.0240000486373901, 0.0, 0.0, 0.0, 0.0, 0.0, 1.7632264711736293E9, 0.0, 2025-11-15 12:07:51.173
79.0, 4907.569649905432, 561.166378501337, 4.912358591798693, 33.821785249281675, -0.04800000227987766, 0.1600000075995922, 1.0240000486373901, 0.0, 0.0, 0.0, 0.0, 0.0, 1.7632264711858249E9, 0.0, 2025-11-15 12:07:51.185
79.0, 5133.962623773143, 332.871665506158, -188.84063841262832, -134.77664465317503, -0.04800000227987766, 0.1600000075995922, 1.0240000486373901, 0.0, 0.0, 0.0, 0.0, 0.0, 1.7632264711858249E9, 0.0, 2025-11-15 12:07:51.185
80.0, 5179.29395113606, 363.3294107452966, -178.90372423036024, -133.3442629701458, -0.04800000227987766, 0.1600000075995922, 1.0240000486373901, 0.0, 0.0, 0.0, 0.0, 0.0, 1.7632264712015405E9, 0.0, 2025-11-15 12:07:51.201
80.0, 4945.656791054178, 582.1696566524915, 0.8283878401853144, 10.918637920636684, -0.04800000227987766, 0.1600000075995922, 1.0240000486373901, 0.0, 0.0, 0.0, 0.0, 0.0, 1.7632264712015405E9, 0.0, 2025-11-15 12:07:51.201
81.0, 5190.412673704326, 386.082962075714, -137.8246631170623, -84.53108874848112, -0.04800000227987766, 0.1600000075995922, 1.0240000486373901, 0.0, 0.0, 0.0, 0.0, 0.0, 1.7632264712021925E9, 0.0, 2025-11-15 12:07:51.202
81.0, 5150.429403278045, 333.6533045968972, -208.90894157486036, -162.4257250255905, -0.04800000227987766, 0.1600000075995922, 1.0240000486373901, 0.0, 0.0, 0.0, 0.0, 0.0, 1.7632264712021925E9, 0.0, 2025-11-15 12:07:51.202
82.0, 5363.1960516572, 522.8922423548065, -53.42634081700817, -30.257660591509193, -0.04800000227987766, 0.1600000075995922, 1.0240000486373901, 0.0, 0.0, 0.0, 0.0, 0.0, 1.7632264712158923E9, 0.0, 2025-11-15 12:07:51.215
82.0, 5301.454043288715, 482.89027242874727, -52.99251242214814, -7.137599065434188, -0.04800000227987766, 0.1600000075995922, 1.0240000486373901, 0.0, 0.0, 0.0, 0.0, 0.0, 1.7632264712158923E9, 0.0, 2025-11-15 12:07:51.215
83.0, 5128.408872338943, 328.22670976119116, -203.7815387356095, -140.48373198555782, -0.04800000227987766, 0.1600000075995922, 1.0240000486373901, 0.0, 0.0, 0.0, 0.0, 0.0, 1.7632264712314858E9, 0.0, 2025-11-15 12:07:51.231
83.0, 5293.173904786818, 435.4496414908208, -127.8578297351487, -87.08544041821733, -0.04800000227987766, 0.1600000075995922, 1.0240000486373901, 0.0, 0.0, 0.0, 0.0, 0.0, 1.7632264712314858E9, 0.0, 2025-11-15 12:07:51.231
84.0, 5386.420830382034, 554.1465862845071, 7.5452481606043875, 40.703201167751104, -0.04800000227987766, 0.1600000075995922, 1.0240000486373901, 0.0, 0.0, 0.0, 0.0, 0.0, 1.7632264712321868E9, 0.0, 2025-11-15 12:07:51.232
84.0, 5612.428594554309, 327.5348282693885, -185.70660224976018, -125.12396286753938, -0.04800000227987766, 0.1600000075995922, 1.0240000486373901, 0.0, 0.0, 0.0, 0.0, 0.0, 1.7632264712321868E9, 0.0, 2025-11-15 12:07:51.232
85.0, 5667.098452106584, 360.5244857785292, -185.06333945738152, -132.43920718086883, -0.04800000227987766, 0.1600000075995922, 1.0240000486373901, 0.0, 0.0, 0.0, 0.0, 0.0, 1.7632264712458425E9, 0.0, 2025-11-15 12:07:51.245
85.0, 5447.16428546235, 605.4430540767498, 29.094551705289632, 53.149588220287114, -0.04800000227987766, 0.1600000075995922, 1.0240000486373901, 0.0, 0.0, 0.0, 0.0, 0.0, 1.7632264712458425E9, 0.0, 2025-11-15 12:07:51.245
86.0, 5677.641230081674, 385.92214637761936, -140.7866638819687, -88.71603679889813, -0.04800000227987766, 0.1600000075995922, 1.0240000486373901, 0.0, 0.0, 0.0, 0.0, 0.0, 1.7632264712614963E9, 0.0, 2025-11-15 12:07:51.261
86.0, 5634.4304259936325, 330.9830160285346, -210.28148485859856, -157.5414156834595, -0.04800000227987766, 0.1600000075995922, 1.0240000486373901, 0.0, 0.0, 0.0, 0.0, 0.0, 1.7632264712614963E9, 0.0, 2025-11-15 12:07:51.261
87.0, 5865.376728057396, 534.4672327176668, -45.471573611255735, -20.75831470405683, -0.04800000227987766, 0.1600000075995922, 1.0240000486373901, 0.0, 0.0, 0.0, 0.0, 0.0, 1.7632264712621949E9, 0.0, 2025-11-15 12:07:51.262
87.0, 5773.895035241265, 466.78252331959084, -68.76741043524817, -25.354651749599725, -0.04800000227987766, 0.1600000075995922, 1.0240000486373901, 0.0, 0.0, 0.0, 0.0, 0.0, 1.7632264712621949E9, 0.0, 2025-11-15 12:07:51.262
88.0, 5620.29734406108, 324.2137971087359, -210.5283182556741, -153.26671003410593, -0.04800000227987766, 0.1600000075995922, 1.0240000486373901, 0.0, 0.0, 0.0, 0.0, 0.0, 1.763226471275939E9, 0.0, 2025-11-15 12:07:51.275
88.0, 5782.657620837446, 457.7843240262009, -110.58323183981702, -70.86175441043451, -0.04800000227987766, 0.1600000075995922, 1.0240000486373901, 0.0, 0.0, 0.0, 0.0, 0.0, 1.763226471275939E9, 0.0, 2025-11-15 12:07:51.275
89.0, 5901.754734926391, 572.6890102648176, 16.225555957760662, 50.82711034780368, -0.04800000227987766, 0.1600000075995922, 1.0240000486373901, 0.0, 0.0, 0.0, 0.0, 0.0, 1.7632264712914882E9, 0.0, 2025-11-15 12:07:51.291
89.0, 6117.159882724285, 337.7410152484663, -186.3648246419616, -131.54911099141464, -0.04800000227987766, 0.1600000075995922, 1.0240000486373901, 0.0, 0.0, 0.0, 0.0, 0.0, 1.7632264712914882E9, 0.0, 2025-11-15 12:07:51.291
90.0, 6152.763730302453, 359.4960132907145, -189.9289492997341, -136.54935723217204, -0.04800000227987766, 0.1600000075995922, 1.0400000493973494, 0.0, 0.0, 0.0, 0.0, 0.0, 1.763226471292213E9, 0.0, 2025-11-15 12:07:51.292
90.0, 5924.411048857961, 585.8684177086689, 6.928164667915553, 29.375044201966375, -0.04800000227987766, 0.1600000075995922, 1.0400000493973494, 0.0, 0.0, 0.0, 0.0, 0.0, 1.763226471292213E9, 0.0, 2025-11-15 12:07:51.292
91.0, 5694.0706105870195, 392.3098955019377, -131.76976508880034, -77.95260472642258, -0.04800000227987766, 0.1600000075995922, 1.0400000493973494, 0.0, 0.0, 0.0, 0.0, 0.0, 1.7632264713058248E9, 0.0, 2025-11-15 12:07:51.305
91.0, 5639.389533334877, 334.5882795858197, -207.64485538983718, -157.51149648381397, -0.04800000227987766, 0.1600000075995922, 1.0400000493973494, 0.0, 0.0, 0.0, 0.0, 0.0, 1.7632264713058248E9, 0.0, 2025-11-15 12:07:51.305
92.0, 5858.297097441275, 525.8766825194471, -53.66195451421663, -22.934936478268355, -0.03200000151991844, 0.1600000075995922, 1.0400000493973494, 0.0, 0.0, 0.0, 0.0, 0.0, 1.763226471321483E9, 0.0, 2025-11-15 12:07:51.321
92.0, 5779.998551968951, 469.29573608981445, -62.59283560840413, -14.198530181776732, -0.03200000151991844, 0.1600000075995922, 1.0400000493973494, 0.0, 0.0, 0.0, 0.0, 0.0, 1.763226471321483E9, 0.0, 2025-11-15 12:07:51.321
93.0, 5621.505331746768, 317.6465327865444, -213.5277180201374, -151.89416675036773, -0.03200000151991844, 0.1600000075995922, 1.0400000493973494, 0.0, 0.0, 0.0, 0.0, 0.0, 1.7632264713222165E9, 0.0, 2025-11-15 12:07:51.322
93.0, 5761.714181085583, 425.3332121106796, -140.7118658828549, -93.71254313969985, -0.03200000151991844, 0.1600000075995922, 1.0400000493973494, 0.0, 0.0, 0.0, 0.0, 0.0, 1.7632264713222165E9, 0.0, 2025-11-15 12:07:51.322
94.0, 5885.572187818121, 556.8168748528697, -2.986310114618391, 38.5564985931851, -0.03200000151991844, 0.1600000075995922, 1.0400000493973494, 0.0, 0.0, 0.0, 0.0, 0.0, 1.7632264713358824E9, 0.0, 2025-11-15 12:07:51.335
94.0, 6107.540860038251, 326.82424727780744, -197.3339512120001, -130.66275470191613, -0.03200000151991844, 0.1600000075995922, 1.0400000493973494, 0.0, 0.0, 0.0, 0.0, 0.0, 1.7632264713358824E9, 0.0, 2025-11-15 12:07:51.335
95.0, 6182.724068847485, 368.76722528086975, -184.49861456407234, -129.80257771210745, -0.03200000151991844, 0.1600000075995922, 1.0400000493973494, 0.0, 0.0, 0.0, 0.0, 0.0, 1.7632264713515255E9, 0.0, 2025-11-15 12:07:51.351
95.0, 5953.413973014336, 602.8662630072795, 21.839145791251212, 54.6380684026517, -0.03200000151991844, 0.1600000075995922, 1.0400000493973494, 0.0, 0.0, 0.0, 0.0, 0.0, 1.7632264713515255E9, 0.0, 2025-11-15 12:07:51.351
96.0, 6143.028770717792, 362.9666404495947, -165.3166676913388, -109.93996904743835, -0.03200000151991844, 0.1600000075995922, 1.0400000493973494, 0.0, 0.0, 0.0, 0.0, 0.0, 1.763226471352193E9, 0.0, 2025-11-15 12:07:51.352
96.0, 6120.824984680861, 335.15674437908456, -206.21247370680794, -141.1195149780251, -0.03200000151991844, 0.1600000075995922, 1.0400000493973494, 0.0, 0.0, 0.0, 0.0, 0.0, 1.763226471352193E9, 0.0, 2025-11-15 12:07:51.352
97.0, 6346.677543004975, 516.2501800335012, -58.65098105510697, -34.263093444053084, -0.03200000151991844, 0.1600000075995922, 1.0400000493973494, 0.0, 0.0, 0.0, 0.0, 0.0, 1.7632264713658104E9, 0.0, 2025-11-15 12:07:51.365
97.0, 6277.059305329807, 475.657305914443, -64.1972526893951, -17.51208154251799, -0.03200000151991844, 0.1600000075995922, 1.0400000493973494, 0.0, 0.0, 0.0, 0.0, 0.0, 1.7632264713658104E9, 0.0, 2025-11-15 12:07:51.365
98.0, 6108.909663422033, 325.00291599938646, -213.06397042563185, -156.59522099466994, -0.03200000151991844, 0.1600000075995922, 1.0400000493973494, 0.0, 0.0, 0.0, 0.0, 0.0, 1.7632264713815E9, 0.0, 2025-11-15 12:07:51.381
98.0, 6270.933349202387, 455.33468955522403, -115.53859928110614, -69.45555202709511, -0.03200000151991844, 0.1600000075995922, 1.0400000493973494, 0.0, 0.0, 0.0, 0.0, 0.0, 1.7632264713815E9, 0.0, 2025-11-15 12:07:51.381
99.0, 6397.854333998635, 574.3196066454984, 15.687010364141315, 46.08491720398888, -0.03200000151991844, 0.1600000075995922, 1.0400000493973494, 0.0, 0.0, 0.0, 0.0, 0.0, 1.7632264713821888E9, 0.0, 2025-11-15 12:07:51.382
99.0, 6603.786315208767, 337.27352775400504, -189.98878769902512, -125.2997381654568, -0.03200000151991844, 0.1600000075995922, 1.0400000493973494, 0.0, 0.0, 0.0, 0.0, 0.0, 1.7632264713821888E9, 0.0, 2025-11-15 12:07:51.382
100.0, 6667.910639849026, 370.87652885587886, -180.37724481290206, -127.71945343678817, -0.03200000151991844, 0.1600000075995922, 1.0240000486373901, 0.0, 0.0, 0.0, 0.0, 0.0, 1.7632264713966656E9, 0.0, 2025-11-15 12:07:51.396
100.0, 6898.224898820277, 589.9897874598391, 10.047241230960935, 37.30737200798467, -0.03200000151991844, 0.1600000075995922, 1.0240000486373901, 0.0, 0.0, 0.0, 0.0, 0.0, 1.7632264713966656E9, 0.0, 2025-11-15 12:07:51.396
0.0, -196.95248141651973, -99.62719491962343, -138.94663310376927, -85.40248543815687, -0.03200000151991844, 0.1600000075995922, 1.0240000486373901, 0.0, 0.0, 0.0, 0.0, 0.0, 1.7632264713973274E9, 0.0, 2025-11-15 12:07:51.397
1.0, -251.79811426671222, -160.57634449750185, -210.69287385372445, -146.77050381107256, -0.03200000151991844, 0.1600000075995922, 1.0240000486373901, 0.0, 0.0, 0.0, 0.0, 0.0, 1.763226471410819E9, 0.0, 2025-11-15 12:07:51.410
1.0, -14.370565579738468, 37.30924195796251, -55.539384291972965, -21.670850293245167, -0.03200000151991844, 0.1600000075995922, 1.0240000486373901, 0.0, 0.0, 0.0, 0.0, 0.0, 1.763226471410819E9, 0.0, 2025-11-15 12:07:51.410
2.0, -106.74983438523486, -23.29209692403674, -71.96876479731873, -23.07331277662888, -0.04800000227987766, 0.1600000075995922, 1.0240000486373901, 0.0, 0.0, 0.0, 0.0, 0.0, 1.7632264714265404E9, 0.0, 2025-11-15 12:07:51.426
2.0, -262.96919543435797, -175.21057302411646, -213.92414741544053, -144.02167734364048, -0.04800000227987766, 0.1600000075995922, 1.0240000486373901, 0.0, 0.0, 0.0, 0.0, 0.0, 1.7632264714265404E9, 0.0, 2025-11-15 12:07:51.426
3.0, -104.2889802143909, -44.53098877239972, -125.06412446824834, -88.9890494956635, -0.04800000227987766, 0.1600000075995922, 1.0240000486373901, 0.0, 0.0, 0.0, 0.0, 0.0, 1.7632264714273088E9, 0.0, 2025-11-15 12:07:51.427
3.0, 8.727056546602398, 76.14062319789082, 8.023955354932696, 42.33005764847621, -0.04800000227987766, 0.1600000075995922, 1.0240000486373901, 0.0, 0.0, 0.0, 0.0, 0.0, 1.7632264714273088E9, 0.0, 2025-11-15 12:07:51.427
4.0, 233.71382803097367, -157.004740039818, -194.65618284372613, -131.1564214960672, -0.04800000227987766, 0.1600000075995922, 1.0240000486373901, 0.0, 0.0, 0.0, 0.0, 0.0, 1.7632264714408123E9, 0.0, 2025-11-15 12:07:51.440
4.0, 284.86069982498884, -115.63396672997624, -176.13245836319402, -118.13408985035494, -0.04800000227987766, 0.1600000075995922, 1.0240000486373901, 0.0, 0.0, 0.0, 0.0, 0.0, 1.7632264714408123E9, 0.0, 2025-11-15 12:07:51.440
5.0, 45.24343971395865, 103.00058467965573, 14.086333183106035, 34.88391683669761, -0.04800000227987766, 0.1600000075995922, 1.0240000486373901, 0.0, 0.0, 0.0, 0.0, 0.0, 1.7632264714565768E9, 0.0, 2025-11-15 12:07:51.456
5.0, 287.79278139024973, -102.59293558448553, -137.85084241675213, -81.99543657852337, -0.04800000227987766, 0.1600000075995922, 1.0240000486373901, 0.0, 0.0, 0.0, 0.0, 0.0, 1.7632264714565768E9, 0.0, 2025-11-15 12:07:51.456
6.0, 259.7809307221323, -136.07999978773296, -188.54144641617313, -130.21770660718903, -0.04800000227987766, 0.1600000075995922, 1.0240000486373901, 0.0, 0.0, 0.0, 0.0, 0.0, 1.763226471457328E9, 0.0, 2025-11-15 12:07:51.457
6.0, 479.36541672050953, 54.35196605604142, -40.87149666575715, -7.45549056166783, -0.04800000227987766, 0.1600000075995922, 1.0240000486373901, 0.0, 0.0, 0.0, 0.0, 0.0, 1.763226471457328E9, 0.0, 2025-11-15 12:07:51.457
7.0, 369.85740611795336, -22.727372030727565, -69.38075402798131, -18.046887236181647, -0.04800000227987766, 0.1600000075995922, 1.0240000486373901, 0.0, 0.0, 0.0, 0.0, 0.0, 1.7632264714872553E9, 0.0, 2025-11-15 12:07:51.487
7.0, 226.63793731480837, -162.87264307029545, -206.61264300206676, -145.09876853087917, -0.04800000227987766, 0.1600000075995922, 1.0240000486373901, 0.0, 0.0, 0.0, 0.0, 0.0, 1.7632264714872553E9, 0.0, 2025-11-15 12:07:51.487
8.0, 378.1076254202053, -46.36727965064347, -123.53824528632686, -82.9865100667812, -0.04800000227987766, 0.1600000075995922, 1.0240000486373901, 0.0, 0.0, 0.0, 0.0, 0.0, 1.763226471487902E9, 0.0, 2025-11-15 12:07:51.487
8.0, 489.8969749957323, 66.01671401783824, -0.8134282403625548, 35.19806843297556, -0.04800000227987766, 0.1600000075995922, 1.0240000486373901, 0.0, 0.0, 0.0, 0.0, 0.0, 1.763226471487902E9, 0.0, 2025-11-15 12:07:51.487
9.0, 732.3490792731754, -146.3273256663233, -185.89359724754468, -125.116483067628, -0.04800000227987766, 0.1600000075995922, 1.0240000486373901, 0.0, 0.0, 0.0, 0.0, 0.0, 1.7632264714886355E9, 0.0, 2025-11-15 12:07:51.488
9.0, 767.6462550549768, -128.2823083801195, -187.37459762999788, -130.69641380151734, -0.04800000227987766, 0.1600000075995922, 1.0240000486373901, 0.0, 0.0, 0.0, 0.0, 0.0, 1.7632264714886355E9, 0.0, 2025-11-15 12:07:51.488
10.0, 530.4187910156325, 93.3404230941087, -1.00416313810274, 27.5499730235897, -0.04800000227987766, 0.1600000075995922, 1.0240000486373901, 0.0, 0.0, 0.0, 0.0, 0.0, 1.7632264715008552E9, 0.0, 2025-11-15 12:07:51.500
10.0, 760.817197735887, -125.27168891578913, -161.7637627334334, -105.24265470309183, -0.04800000227987766, 0.1600000075995922, 1.0240000486373901, 0.0, 0.0, 0.0, 0.0, 0.0, 1.7632264715008552E9, 0.0, 2025-11-15 12:07:51.500
11.0, 735.9543428304605, -165.55415133852512, -210.65173495421186, -149.17899938253686, -0.04800000227987766, 0.1600000075995922, 1.0240000486373901, 0.0, 0.0, 0.0, 0.0, 0.0, 1.763226471516514E9, 0.0, 2025-11-15 12:07:51.516
11.0, 962.2070704498328, 33.221531306393445, -54.8961214995943, -25.724901845213026, -0.04800000227987766, 0.1600000075995922, 1.0240000486373901, 0.0, 0.0, 0.0, 0.0, 0.0, 1.763226471516514E9, 0.0, 2025-11-15 12:07:51.516
12.0, 876.2791290679015, -18.370388582348824, -65.74557127105072, -11.528241613414139, -0.04800000227987766, 0.1600000075995922, 1.0240000486373901, 0.0, 0.0, 0.0, 0.0, 0.0, 1.7632264715173075E9, 0.0, 2025-11-15 12:07:51.517
12.0, 730.725962692406, -164.36486315261573, -212.1963136359118, -149.98681777296588, -0.04800000227987766, 0.1600000075995922, 1.0240000486373901, 0.0, 0.0, 0.0, 0.0, 0.0, 1.7632264715173075E9, 0.0, 2025-11-15 12:07:51.517
13.0, 846.1317955250852, -63.8812311431393, -138.95411290368065, -85.11077324161306, -0.04800000227987766, 0.1600000075995922, 1.0240000486373901, 0.0, 0.0, 0.0, 0.0, 0.0, 1.7632264715308444E9, 0.0, 2025-11-15 12:07:51.530
13.0, 975.8764047878794, 64.2552211387083, -8.491442849393934, 20.477822207380086, -0.04800000227987766, 0.1600000075995922, 1.0240000486373901, 0.0, 0.0, 0.0, 0.0, 0.0, 1.7632264715308444E9, 0.0, 2025-11-15 12:07:51.530
14.0, 1211.8659619418904, -158.51191972196102, -191.79889927757904, -137.28985742339864, -0.04800000227987766, 0.1600000075995922, 1.0240000486373901, 0.0, 0.0, 0.0, 0.0, 0.0, 1.7632264715465264E9, 0.0, 2025-11-15 12:07:51.546
14.0, 1263.177389333956, -124.79298172146082, -186.00579424621537, -132.16245458414778, -0.04800000227987766, 0.1600000075995922, 1.0240000486373901, 0.0, 0.0, 0.0, 0.0, 0.0, 1.7632264715465264E9, 0.0, 2025-11-15 12:07:51.546
15.0, 1022.9767048298381, 95.3038705708459, 4.8113812929950655, 37.12411691015586, -0.04800000227987766, 0.1600000075995922, 1.0240000486373901, 0.0, 0.0, 0.0, 0.0, 0.0, 1.7632264715473168E9, 0.0, 2025-11-15 12:07:51.547
15.0, 779.9019072097726, -104.6424007602036, -139.87038839282468, -85.36882633855566, -0.04800000227987766, 0.1600000075995922, 1.0240000486373901, 0.0, 0.0, 0.0, 0.0, 0.0, 1.7632264715473168E9, 0.0, 2025-11-15 12:07:51.547
16.0, 743.3069861433469, -147.57271235156804, -205.27749871788546, -140.06486319052055, -0.04800000227987766, 0.1600000075995922, 1.0240000486373901, 0.0, 0.0, 0.0, 0.0, 0.0, 1.763226471560894E9, 0.0, 2025-11-15 12:07:51.560
16.0, 977.9931881627999, 53.21503646951169, -41.911188853438944, -5.286348587367684, -0.04800000227987766, 0.1600000075995922, 1.0240000486373901, 0.0, 0.0, 0.0, 0.0, 0.0, 1.763226471560894E9, 0.0, 2025-11-15 12:07:51.560
17.0, 886.006608852651, -7.446140811778605, -57.525271168444306, -8.62981914775446, -0.04800000227987766, 0.1600000075995922, 1.0240000486373901, 0.0, 0.0, 0.0, 0.0, 0.0, 1.7632264715765371E9, 0.0, 2025-11-15 12:07:51.576
17.0, 719.8615533211268, -165.59155033808202, -210.36002275766805, -144.4929047380574, -0.04800000227987766, 0.1600000075995922, 1.0240000486373901, 0.0, 0.0, 0.0, 0.0, 0.0, 1.7632264715765371E9, 0.0, 2025-11-15 12:07:51.576
18.0, 859.4682787670754, -56.517368130385876, -137.73116561817005, -93.6564446403645, -0.04800000227987766, 0.1600000075995922, 1.0240000486373901, 0.0, 0.0, 0.0, 0.0, 0.0, 1.7632264715772424E9, 0.0, 2025-11-15 12:07:51.577
18.0, 981.9687018156983, 65.26499412674457, -11.595559812616557, 29.057152705732733, -0.04800000227987766, 0.1600000075995922, 1.0240000486373901, 0.0, 0.0, 0.0, 0.0, 0.0, 1.7632264715772424E9, 0.0, 2025-11-15 12:07:51.577
19.0, 1207.565076992847, -166.32083082944155, -203.20185424247757, -137.73490551812574, -0.04800000227987766, 0.1600000075995922, 1.0240000486373901, 0.0, 0.0, 0.0, 0.0, 0.0, 1.763226471607242E9, 0.0, 2025-11-15 12:07:51.607
19.0, 1276.4390745768324, -117.06634841300547, -180.04813361680135, -117.35619065957144, -0.04800000227987766, 0.1600000075995922, 1.0240000486373901, 0.0, 0.0, 0.0, 0.0, 0.0, 1.763226471607242E9, 0.0, 2025-11-15 12:07:51.607
20.0, 1500.7769734188914, 82.90984211768955, -10.346433227416128, 30.919622883666307, -0.04800000227987766, 0.1600000075995922, 1.0240000486373901, 0.0, 0.0, 0.0, 0.0, 0.0, 1.7632264716079352E9, 0.0, 2025-11-15 12:07:51.607
20.0, 1272.6842150213197, -105.54745654948056, -149.10046148346737, -84.0561214541085, -0.04800000227987766, 0.1600000075995922, 1.0240000486373901, 0.0, 0.0, 0.0, 0.0, 0.0, 1.7632264716079352E9, 0.0, 2025-11-15 12:07:51.607
21.0, 1228.055988850072, -163.97217365726829, -222.43241981463507, -155.25633681053296, -0.04800000227987766, 0.1600000075995922, 1.0240000486373901, 0.0, 0.0, 0.0, 0.0, 0.0, 1.7632264716086748E9, 0.0, 2025-11-15 12:07:51.608
21.0, 1448.3211366403848, 25.506117697805166, -70.3119891169481, -26.136290840338916, -0.04800000227987766, 0.1600000075995922, 1.0240000486373901, 0.0, 0.0, 0.0, 0.0, 0.0, 1.7632264716086748E9, 0.0, 2025-11-15 12:07:51.608
22.0, 1358.6645150026307, -26.276537088677287, -77.36918033333495, -23.219168874900788, -0.03200000151991844, 0.1600000075995922, 1.0240000486373901, 0.0, 0.0, 0.0, 0.0, 0.0, 1.763226471620892E9, 0.0, 2025-11-15 12:07:51.620
22.0, 1192.9458080660552, -182.70907243527472, -225.25978418113664, -160.8362675444223, -0.03200000151991844, 0.1600000075995922, 1.0240000486373901, 0.0, 0.0, 0.0, 0.0, 0.0, 1.763226471620892E9, 0.0, 2025-11-15 12:07:51.620
23.0, 1368.4256538869813, -41.198737911880016, -119.1513426383026, -69.91181982168928, -0.03200000151991844, 0.1600000075995922, 1.0240000486373901, 0.0, 0.0, 0.0, 0.0, 0.0, 1.763226471652876E9, 0.0, 2025-11-15 12:07:51.652
23.0, 1465.6518330350518, 63.1781299514696, -6.513035772833973, 31.779799873474985, -0.03200000151991844, 0.1600000075995922, 1.0240000486373901, 0.0, 0.0, 0.0, 0.0, 0.0, 1.763226471652876E9, 0.0, 2025-11-15 12:07:51.652
24.0, 1699.3151724166237, -161.77311248332262, -193.49307395750657, -121.08861081534997, -0.03200000151991844, 0.1600000075995922, 1.0240000486373901, 0.0, 0.0, 0.0, 0.0, 0.0, 1.76322647165358E9, 0.0, 2025-11-15 12:07:51.653
24.0, 1753.7606359715573, -132.04090783558786, -190.10098469769582, -130.7151133012958, -0.03200000151991844, 0.1600000075995922, 1.0240000486373901, 0.0, 0.0, 0.0, 0.0, 0.0, 1.76322647165358E9, 0.0, 2025-11-15 12:07:51.653
25.0, 1527.5583970015869, 105.32680245209485, 14.187310481909662, 48.250319278333336, -0.03200000151991844, 0.1600000075995922, 1.0240000486373901, 0.0, 0.0, 0.0, 0.0, 0.0, 1.7632264716543245E9, 0.0, 2025-11-15 12:07:51.654
25.0, 1758.371932616923, -111.51633687876165, -147.58206210145727, -86.64413222344592, -0.03200000151991844, 0.1600000075995922, 1.0240000486373901, 0.0, 0.0, 0.0, 0.0, 0.0, 1.7632264716543245E9, 0.0, 2025-11-15 12:07:51.654
26.0, 1709.719574093353, -159.42445531114936, -207.06517089670524, -143.44199285050854, -0.03200000151991844, 0.1600000075995922, 1.0240000486373901, 0.0, 0.0, 0.0, 0.0, 0.0, 1.7632264716550798E9, 0.0, 2025-11-15 12:07:51.655
26.0, 1951.3395506306551, 42.21599069982767, -50.93930734647438, -10.798961122054607, -0.03200000151991844, 0.1600000075995922, 1.0240000486373901, 0.0, 0.0, 0.0, 0.0, 0.0, 1.7632264716550798E9, 0.0, 2025-11-15 12:07:51.655
27.0, 1854.8239524741657, -23.191119625233114, -68.30366284074262, -13.727302787359804, -0.03200000151991844, 0.1600000075995922, 1.0240000486373901, 0.0, 0.0, 0.0, 0.0, 0.0, 1.7632264716659117E9, 0.0, 2025-11-15 12:07:51.665
27.0, 1699.5320866140537, -168.47875310387462, -208.3442166815512, -135.65926104271784, -0.03200000151991844, 0.1600000075995922, 1.0240000486373901, 0.0, 0.0, 0.0, 0.0, 0.0, 1.7632264716659117E9, 0.0, 2025-11-15 12:07:51.665
28.0, 1845.111432289239, -48.906671720556915, -130.6365754022263, -91.7266562632285, -0.03200000151991844, 0.1600000075995922, 1.0240000486373901, 0.0, 0.0, 0.0, 0.0, 0.0, 1.7632264716808708E9, 0.0, 2025-11-15 12:07:51.680
28.0, 1962.9332404932939, 64.68904953356832, -3.939984603319317, 27.325579026248306, -0.03200000151991844, 0.1600000075995922, 1.0240000486373901, 0.0, 0.0, 0.0, 0.0, 0.0, 1.7632264716808708E9, 0.0, 2025-11-15 12:07:51.680
29.0, 1718.257765692193, -150.49357421696186, -186.94076923513785, -124.33110407693312, -0.03200000151991844, 0.1600000075995922, 1.0240000486373901, 0.0, 0.0, 0.0, 0.0, 0.0, 1.763226471696551E9, 0.0, 2025-11-15 12:07:51.696
29.0, 1753.427784875501, -127.44831069000065, -191.67174267908558, -136.7887108293362, -0.03200000151991844, 0.1600000075995922, 1.0240000486373901, 0.0, 0.0, 0.0, 0.0, 0.0, 1.763226471696551E9, 0.0, 2025-11-15 12:07:51.696
30.0, 1510.2837991062552, 89.76133883651346, 1.0116429380141199, 29.52464020019397, -0.03200000151991844, 0.1600000075995922, 1.0240000486373901, 0.0, 0.0, 0.0, 0.0, 0.0, 1.7632264716973453E9, 0.0, 2025-11-15 12:07:51.697
30.0, 1282.9016217002645, -106.92373973317444, -147.81019599875435, -92.03706795955077, -0.03200000151991844, 0.1600000075995922, 1.0240000486373901, 0.0, 0.0, 0.0, 0.0, 0.0, 1.7632264716973453E9, 0.0, 2025-11-15 12:07:51.697
31.0, 1226.8405213644728, -153.86696397699416, -203.1943744425662, -132.10635608481243, -0.03200000151991844, 0.1600000075995922, 1.0240000486373901, 0.0, 0.0, 0.0, 0.0, 0.0, 1.763226471727232E9, 0.0, 2025-11-15 12:07:51.727
31.0, 1459.9671851024032, 44.19813767634332, -52.12859553238377, -18.36851863237098, -0.03200000151991844, 0.1600000075995922, 1.0240000486373901, 0.0, 0.0, 0.0, 0.0, 0.0, 1.763226471727232E9, 0.0, 2025-11-15 12:07:51.727
32.0, 1368.683706983924, -22.55907653272152, -75.73858395265415, -24.034467065241188, -0.04800000227987766, 0.1600000075995922, 1.0240000486373901, 0.0, 0.0, 0.0, 0.0, 0.0, 1.7632264717279105E9, 0.0, 2025-11-15 12:07:51.727
32.0, 1215.4562658993527, -159.04672541562468, -204.10317013179883, -142.85108865750954, -0.04800000227987766, 0.1600000075995922, 1.0240000486373901, 0.0, 0.0, 0.0, 0.0, 0.0, 1.7632264717279105E9, 0.0, 2025-11-15 12:07:51.727
33.0, 1362.2622987600043, -50.155798305757344, -127.05001134471968, -83.61855315929279, -0.04800000227987766, 0.1600000075995922, 1.0240000486373901, 0.0, 0.0, 0.0, 0.0, 0.0, 1.7632264717286377E9, 0.0, 2025-11-15 12:07:51.728
33.0, 1479.9719099653885, 64.9171834308654, -5.140492489095777, 35.07839163439348, -0.04800000227987766, 0.1600000075995922, 1.0240000486373901, 0.0, 0.0, 0.0, 0.0, 0.0, 1.7632264717286377E9, 0.0, 2025-11-15 12:07:51.728
34.0, 1702.6137641775422, -163.07085776794702, -196.42515552276745, -124.50687937485054, -0.04800000227987766, 0.1600000075995922, 1.0240000486373901, 0.0, 0.0, 0.0, 0.0, 0.0, 1.7632264717408483E9, 0.0, 2025-11-15 12:07:51.740
34.0, 1773.9747952320613, -115.93689862638712, -171.63335871649906, -114.94769508810714, -0.04800000227987766, 0.1600000075995922, 1.0240000486373901, 0.0, 0.0, 0.0, 0.0, 0.0, 1.7632264717408483E9, 0.0, 2025-11-15 12:07:51.740
35.0, 1530.3969810679555, 102.1217081900686, 13.181277393829077, 45.69222770864144, -0.04800000227987766, 0.1600000075995922, 1.0240000486373901, 0.0, 0.0, 0.0, 0.0, 0.0, 1.76322647175655E9, 0.0, 2025-11-15 12:07:51.756
35.0, 1753.6409591729753, -110.32704869285226, -145.341862027999, -84.90507874405012, -0.04800000227987766, 0.1600000075995922, 1.0240000486373901, 0.0, 0.0, 0.0, 0.0, 0.0, 1.76322647175655E9, 0.0, 2025-11-15 12:07:51.756
36.0, 1730.1207283516414, -152.2962059956044, -207.2297264947556, -141.7852171701379, -0.04800000227987766, 0.1600000075995922, 1.0240000486373901, 0.0, 0.0, 0.0, 0.0, 0.0, 1.7632264717572265E9, 0.0, 2025-11-15 12:07:51.757
36.0, 1958.6697545438074, 47.05542124249041, -46.08117730403319, -12.018168507609516, -0.04800000227987766, 0.1600000075995922, 1.0240000486373901, 0.0, 0.0, 0.0, 0.0, 0.0, 1.7632264717572265E9, 0.0, 2025-11-15 12:07:51.757
37.0, 1844.3858916978352, -35.95539817400277, -83.60359355947003, -30.654089986812323, -0.04800000227987766, 0.1600000075995922, 1.0240000486373901, 0.0, 0.0, 0.0, 0.0, 0.0, 1.7632264717708402E9, 0.0, 2025-11-15 12:07:51.770
37.0, 1694.644037371967, -177.978098991327, -222.2678642165847, -159.53104245988652, -0.04800000227987766, 0.1600000075995922, 1.0240000486373901, 0.0, 0.0, 0.0, 0.0, 0.0, 1.7632264717708402E9, 0.0, 2025-11-15 12:07:51.770
38.0, 1855.2652606689371, -49.650911811739206, -123.13433609111235, -74.69889176497236, -0.04800000227987766, 0.1600000075995922, 1.0240000486373901, 0.0, 0.0, 0.0, 0.0, 0.0, 1.7632264717865548E9, 0.0, 2025-11-15 12:07:51.786
38.0, 1957.3196506598033, 59.359692096710205, -8.532581748906523, 34.70440163882449, -0.04800000227987766, 0.1600000075995922, 1.0240000486373901, 0.0, 0.0, 0.0, 0.0, 0.0, 1.7632264717865548E9, 0.0, 2025-11-15 12:07:51.786
39.0, 2190.560381346382, -172.60760265495628, -205.39717551646754, -137.1589609249495, -0.04800000227987766, 0.1600000075995922, 1.0240000486373901, 0.0, 0.0, 0.0, 0.0, 0.0, 1.7632264717872095E9, 0.0, 2025-11-15 12:07:51.787
39.0, 2251.468392024748, -132.4298574309796, -193.6987684550695, -127.8952287347056, -0.04800000227987766, 0.1600000075995922, 1.0240000486373901, 0.0, 0.0, 0.0, 0.0, 0.0, 1.7632264717872095E9, 0.0, 2025-11-15 12:07:51.787
40.0, 2018.796126131434, 95.25525187142193, -2.933951515238732, 27.763147321064025, -0.04800000227987766, 0.1600000075995922, 1.0240000486373901, 0.0, 0.0, 0.0, 0.0, 0.0, 1.7632264718008952E9, 0.0, 2025-11-15 12:07:51.800
40.0, 2248.0837825648487, -114.22028454672545, -152.41401284420863, -95.5450941179879, -0.04800000227987766, 0.1600000075995922, 1.0240000486373901, 0.0, 0.0, 0.0, 0.0, 0.0, 1.7632264718008952E9, 0.0, 2025-11-15 12:07:51.800
41.0, 2207.715302443132, -161.72823368385434, -208.5648707789369, -149.13786048302427, -0.04800000227987766, 0.1600000075995922, 1.0240000486373901, 0.0, 0.0, 0.0, 0.0, 0.0, 1.763226471816965E9, 0.0, 2025-11-15 12:07:51.816
41.0, 2426.8023817474023, 24.223332013003528, -62.390881010796875, -31.667602874804288, -0.04800000227987766, 0.1600000075995922, 1.0240000486373901, 0.0, 0.0, 0.0, 0.0, 0.0, 1.763226471816965E9, 0.0, 2025-11-15 12:07:51.816
42.0, 2341.562581957318, -28.16518656630069, -73.02341658482328, -27.658430122304708, -0.04800000227987766, 0.1600000075995922, 1.0240000486373901, 0.0, 0.0, 0.0, 0.0, 0.0, 1.7632264718315213E9, 0.0, 2025-11-15 12:07:51.831
42.0, 2186.255756497383, -172.45800665672868, -211.5680104433559, -151.3518812567927, -0.04800000227987766, 0.1600000075995922, 1.0240000486373901, 0.0, 0.0, 0.0, 0.0, 0.0, 1.7632264718315213E9, 0.0, 2025-11-15 12:07:51.831
43.0, 2348.956364169717, -34.6464331895113, -113.47417450556532, -64.89287408115342, -0.04800000227987766, 0.1600000075995922, 1.0240000486373901, 0.0, 0.0, 0.0, 0.0, 0.0, 1.76322647183221E9, 0.0, 2025-11-15 12:07:51.832
43.0, 2445.3335860278457, 64.1804231395945, -0.4917968441732228, 36.28637932008132, -0.04800000227987766, 0.1600000075995922, 1.0240000486373901, 0.0, 0.0, 0.0, 0.0, 0.0, 1.76322647183221E9, 0.0, 2025-11-15 12:07:51.832
44.0, 2689.7790569816716, -160.55016519781202, -189.98130789911374, -127.16220834339038, -0.04800000227987766, 0.1600000075995922, 1.0240000486373901, 0.0, 0.0, 0.0, 0.0, 0.0, 1.7632264718465288E9, 0.0, 2025-11-15 12:07:51.846
44.0, 2750.29437816469, -119.92737187910825, -183.14851068006828, -122.51725259842351, -0.04800000227987766, 0.1600000075995922, 1.0240000486373901, 0.0, 0.0, 0.0, 0.0, 0.0, 1.7632264718465288E9, 0.0, 2025-11-15 12:07:51.846
45.0, 2983.705274299253, 83.30253161303699, 0.6264332425780594, 28.41762981330976, -0.04800000227987766, 0.1600000075995922, 1.0240000486373901, 0.0, 0.0, 0.0, 0.0, 0.0, 1.7632264718472345E9, 0.0, 2025-11-15 12:07:51.847
45.0, 2745.540965321008, -103.69994597136974, -137.14026142517105, -83.41285866172984, -0.04800000227987766, 0.1600000075995922, 1.0240000486373901, 0.0, 0.0, 0.0, 0.0, 0.0, 1.7632264718472345E9, 0.0, 2025-11-15 12:07:51.847
46.0, 2690.254024276044, -171.39587506931275, -220.70458603510633, -161.43465153733268, -0.04800000227987766, 0.1600000075995922, 1.0240000486373901, 0.0, 0.0, 0.0, 0.0, 0.0, 1.7632264718608685E9, 0.0, 2025-11-15 12:07:51.860
46.0, 2928.511830753181, 41.277275810949504, -49.058137668762356, -13.566487089265138, -0.04800000227987766, 0.1600000075995922, 1.0240000486373901, 0.0, 0.0, 0.0, 0.0, 0.0, 1.7632264718608685E9, 0.0, 2025-11-15 12:07:51.860
47.0, 2816.3223118823953, -42.507702896371484, -84.58344734786078, -34.36407074285671, -0.04800000227987766, 0.1600000075995922, 1.0240000486373901, 0.0, 0.0, 0.0, 0.0, 0.0, 1.7632264718928945E9, 0.0, 2025-11-15 12:07:51.892
47.0, 2674.4529469632544, -178.3820081865415, -218.18015356501564, -153.97355112573132, -0.04800000227987766, 0.1600000075995922, 1.0240000486373901, 0.0, 0.0, 0.0, 0.0, 0.0, 1.7632264718928945E9, 0.0, 2025-11-15 12:07:51.892
48.0, 2834.610422665719, -53.24495566915721, -130.5991764026694, -81.722423881758, -0.04800000227987766, 0.1600000075995922, 1.0240000486373901, 0.0, 0.0, 0.0, 0.0, 0.0, 1.7632264718935888E9, 0.0, 2025-11-15 12:07:51.893
48.0, 2934.8771404777654, 56.69688332825899, -8.67469794722274, 25.077899152878672, -0.04800000227987766, 0.1600000075995922, 1.0240000486373901, 0.0, 0.0, 0.0, 0.0, 0.0, 1.7632264718935888E9, 0.0, 2025-11-15 12:07:51.893
49.0, 3164.284473709762, -180.53993046097457, -208.7817849763669, -144.57518253708258, -0.04800000227987766, 0.1600000075995922, 1.0240000486373901, 0.0, 0.0, 0.0, 0.0, 0.0, 1.7632264718943336E9, 0.0, 2025-11-15 12:07:51.894
49.0, 3241.3563319966197, -121.07926106546074, -183.57111937506124, -117.05325876316056, -0.04800000227987766, 0.1600000075995922, 1.0240000486373901, 0.0, 0.0, 0.0, 0.0, 0.0, 1.7632264718943336E9, 0.0, 2025-11-15 12:07:51.894
50.0, 3470.140971885994, 90.40086172893643, -1.9989765263162553, 12.470696402247995, -0.04800000227987766, 0.1600000075995922, 1.0240000486373901, 0.0, 0.0, 0.0, 0.0, 0.0, 1.7632264718951228E9, 0.0, 2025-11-15 12:07:51.895
50.0, 3697.1061504469253, -123.70467083435506, -160.91854534344748, -100.45558275980875, -0.04800000227987766, 0.1600000075995922, 1.0240000486373901, 0.0, 0.0, 0.0, 0.0, 0.0, 1.7632264718951228E9, 0.0, 2025-11-15 12:07:51.895
51.0, 3693.11941709416, -156.4811540460214, -207.10256989626214, -145.06510943127796, -0.04800000227987766, 0.1600000075995922, 1.0240000486373901, 0.0, 0.0, 0.0, 0.0, 0.0, 1.7632264719058964E9, 0.0, 2025-11-15 12:07:51.905
51.0, 3902.5164156132378, 29.937899145297706, -59.09602914983407, -26.80199303245172, -0.04800000227987766, 0.1600000075995922, 1.0240000486373901, 0.0, 0.0, 0.0, 0.0, 0.0, 1.7632264719058964E9, 0.0, 2025-11-15 12:07:51.905
52.0, 3821.08009407809, -28.703732159920037, -71.14224690711126, -31.046779482159764, -0.04800000227987766, 0.1600000075995922, 1.0240000486373901, 0.0, 0.0, 0.0, 0.0, 0.0, 1.763226471920862E9, 0.0, 2025-11-15 12:07:51.920
52.0, 3656.696531425696, -178.39696778636426, -220.0501035428606, -164.53502860059962, -0.04800000227987766, 0.1600000075995922, 1.0240000486373901, 0.0, 0.0, 0.0, 0.0, 0.0, 1.763226471920862E9, 0.0, 2025-11-15 12:07:51.920
53.0, 3815.907812439371, -46.427118049934506, -116.92984206462279, -69.37701412802562, -0.04800000227987766, 0.1600000075995922, 1.0240000486373901, 0.0, 0.0, 0.0, 0.0, 0.0, 1.763226471936542E9, 0.0, 2025-11-15 12:07:51.936
53.0, 3920.699809197802, 64.47213533613831, 0.925625239033252, 32.639976863283664, -0.04800000227987766, 0.1600000075995922, 1.0240000486373901, 0.0, 0.0, 0.0, 0.0, 0.0, 1.763226471936542E9, 0.0, 2025-11-15 12:07:51.936
54.0, 4136.490166691132, -173.27330484706908, -203.60576343769208, -149.10046148346737, -0.04800000227987766, 0.1600000075995922, 1.0240000486373901, 0.0, 0.0, 0.0, 0.0, 0.0, 1.7632264719373193E9, 0.0, 2025-11-15 12:07:51.937
54.0, 4222.111436276697, -112.11846077162772, -170.9190378249623, -121.94130800524727, -0.04800000227987766, 0.1600000075995922, 1.0240000486373901, 0.0, 0.0, 0.0, 0.0, 0.0, 1.7632264719373193E9, 0.0, 2025-11-15 12:07:51.937
55.0, 4457.010812593624, 99.55613682046533, 11.528241613414139, 34.28179294383153, -0.04800000227987766, 0.1600000075995922, 1.0240000486373901, 0.0, 0.0, 0.0, 0.0, 0.0, 1.763226471967272E9, 0.0, 2025-11-15 12:07:51.967
55.0, 4225.398808337748, -100.16574051324278, -135.3451094464399, -79.94971130276099, -0.04800000227987766, 0.1600000075995922, 1.0240000486373901, 0.0, 0.0, 0.0, 0.0, 0.0, 1.763226471967272E9, 0.0, 2025-11-15 12:07:51.967
56.0, 4158.387280931696, -159.39827601145953, -211.47077304450795, -159.1645322642289, -0.04800000227987766, 0.1600000075995922, 1.0240000486373901, 0.0, 0.0, 0.0, 0.0, 0.0, 1.763226471967918E9, 0.0, 2025-11-15 12:07:51.967
56.0, 4401.364841152914, 37.13346666004509, -54.525871403981, -20.75831470405683, -0.04800000227987766, 0.1600000075995922, 1.0240000486373901, 0.0, 0.0, 0.0, 0.0, 0.0, 1.763226471967918E9, 0.0, 2025-11-15 12:07:51.967
57.0, 4307.044564270414, -28.647633660584688, -67.72771824756637, -21.10986529989168, -0.04800000227987766, 0.1600000075995922, 1.0240000486373901, 0.0, 0.0, 0.0, 0.0, 0.0, 1.7632264719686534E9, 0.0, 2025-11-15 12:07:51.968
57.0, 4139.283871958032, -186.9089800855145, -228.00487074861303, -173.4733894946985, -0.04800000227987766, 0.1600000075995922, 1.0240000486373901, 0.0, 0.0, 0.0, 0.0, 0.0, 1.7632264719686534E9, 0.0, 2025-11-15 12:07:51.968
58.0, 4299.86395635549, -54.25846855714917, -124.51061927480623, -80.649072594475, -0.04800000227987766, 0.1600000075995922, 1.0240000486373901, 0.0, 0.0, 0.0, 0.0, 0.0, 1.763226471980844E9, 0.0, 2025-11-15 12:07:51.980
58.0, 4399.195699178614, 45.44726426154375, -12.6539515000768, 20.118791811633855, -0.04800000227987766, 0.1600000075995922, 1.0240000486373901, 0.0, 0.0, 0.0, 0.0, 0.0, 1.763226471980844E9, 0.0, 2025-11-15 12:07:51.980
59.0, 4158.503217830323, -162.60337027348578, -194.3308115475811, -132.83189667621627, -0.04800000227987766, 0.1600000075995922, 1.0240000486373901, 0.0, 0.0, 0.0, 0.0, 0.0, 1.7632264719965432E9, 0.0, 2025-11-15 12:07:51.996
59.0, 4211.841670998372, -124.93509791977704, -186.15913014439866, -141.35886857518926, -0.04800000227987766, 0.1600000075995922, 1.0240000486373901, 0.0, 0.0, 0.0, 0.0, 0.0, 1.7632264719965432E9, 0.0, 2025-11-15 12:07:51.996
60.0, 3984.9924293360673, 107.63432072475553, 18.589172729756683, 38.56397839309648, -0.04800000227987766, 0.1600000075995922, 1.0240000486373901, 0.0, 0.0, 0.0, 0.0, 0.0, 1.7632264719972332E9, 0.0, 2025-11-15 12:07:51.997
60.0, 4196.811013076454, -123.96646383125335, -155.7911425041966, -98.30514028528705, -0.04800000227987766, 0.1600000075995922, 1.0240000486373901, 0.0, 0.0, 0.0, 0.0, 0.0, 1.7632264719972332E9, 0.0, 2025-11-15 12:07:51.997
61.0, 4175.706757626496, -160.24723330140114, -211.80362414056435, -158.053781977389, -0.04800000227987766, 0.1600000075995922, 1.0240000486373901, 0.0, 0.0, 0.0, 0.0, 0.0, 1.7632264720109503E9, 0.0, 2025-11-15 12:07:52.010
61.0, 4409.970350950956, 43.75308958161622, -45.75954590784386, -20.496521707158536, -0.04800000227987766, 0.1600000075995922, 1.0240000486373901, 0.0, 0.0, 0.0, 0.0, 0.0, 1.7632264720109503E9, 0.0, 2025-11-15 12:07:52.010
62.0, 4304.553790899925, -26.21669868938625, -66.92737965704873, -23.350065373349935, -0.04800000227987766, 0.1600000075995922, 1.0240000486373901, 0.0, 0.0, 0.0, 0.0, 0.0, 1.763226472042908E9, 0.0, 2025-11-15 12:07:52.042
62.0, 4146.1914671761915, -180.9400997562334, -217.09184267790988, -156.96921099023893, -0.04800000227987766, 0.1600000075995922, 1.0240000486373901, 0.0, 0.0, 0.0, 0.0, 0.0, 1.763226472042908E9, 0.0, 2025-11-15 12:07:52.042
63.0, 4298.865403067321, -57.61315881740302, -132.35692938184366, -90.0960598825477, -0.04800000227987766, 0.1600000075995922, 1.0240000486373901, 0.0, 0.0, 0.0, 0.0, 0.0, 1.7632264720436285E9, 0.0, 2025-11-15 12:07:52.043
63.0, 4412.1394929252565, 59.19887639861554, -2.21589072374627, 35.57579832850024, -0.04800000227987766, 0.1600000075995922, 1.0240000486373901, 0.0, 0.0, 0.0, 0.0, 0.0, 1.7632264720436285E9, 0.0, 2025-11-15 12:07:52.043
64.0, 4655.167541795876, -153.60891088005155, -183.960068970453, -120.04517872771248, -0.04800000227987766, 0.1600000075995922, 1.0240000486373901, 0.0, 0.0, 0.0, 0.0, 0.0, 1.7632264720443633E9, 0.0, 2025-11-15 12:07:52.044
64.0, 4710.648957638536, -124.92761811986566, -186.45458224089816, -144.10395514266565, -0.04800000227987766, 0.1600000075995922, 1.0240000486373901, 0.0, 0.0, 0.0, 0.0, 0.0, 1.7632264720443633E9, 0.0, 2025-11-15 12:07:52.044
