%OpenBCI Raw EXG Data
%Number of channels = 4
%Sample Rate = 200 Hz
%Board = OpenBCI_GUI$BoardGanglionBLE
Sample Index, EXG Channel 0, EXG Channel 1, EXG Channel 2, EXG Channel 3, Accel Channel 0, Accel Channel 1, Accel Channel 2, Other, Other, Other, Other, Other, Timestamp, Marker Channel, Timestamp (Formatted)
52.0, -97.72358584217727, -32.85876101069152, -2.0681646754965186, -17.30077719502151, -0.06400000303983688, 0.0, 0.0, 0.0, 0.0, 0.0, 0.0, 0.0, 1.763228576305906E9, 0.0, 2025-11-15 12:42:56.305
52.0, 111.02267008461058, 72.80089253745973, 135.3282798966393, 89.18539424333721, -0.06400000303983688, 0.0, 0.0, 0.0, 0.0, 0.0, 0.0, 0.0, 1.763228576305906E9, 0.0, 2025-11-15 12:42:56.305
0.0, -134.81030375277624, -53.66195451421663, -119.07841458916664, -82.93228151742369, -0.06400000303983688, 0.0, 0.0, 0.0, 0.0, 0.0, 0.0, 0.0, 1.7632285763362117E9, 0.0, 2025-11-15 12:42:56.336
1.0, -221.14589422987774, -121.46260081091896, -168.6395688019693, -139.7712810439989, -0.06400000303983688, 0.12800000607967377, 0.0, 0.0, 0.0, 0.0, 0.0, 0.0, 1.7632285763496804E9, 0.0, 2025-11-15 12:42:56.349
1.0, -248.95953020034358, -151.92408595001325, -195.8286414798349, -165.12406284362078, -0.06400000303983688, 0.12800000607967377, 0.0, 0.0, 0.0, 0.0, 0.0, 0.0, 1.7632285763496804E9, 0.0, 2025-11-15 12:42:56.349
2.0, -112.40830301819369, -63.206179201137275, -132.82254692632705, -96.55299715604633, -0.06400000303983688, 0.12800000607967377, 0.0, 0.0, 0.0, 0.0, 0.0, 0.0, 1.7632285763664029E9, 0.0, 2025-11-15 12:42:56.366
2.0, -152.37661384465173, -68.29992294078693, -118.42393209692091, -81.06233153957874, -0.06400000303983688, 0.12800000607967377, 0.0, 0.0, 0.0, 0.0, 0.0, 0.0, 1.7632285763664029E9, 0.0, 2025-11-15 12:42:56.366
3.0, -298.1691338173114, -173.49956879438832, -214.04195426404476, -173.91282773949206, -0.06400000303983688, 0.12800000607967377, 0.0, 0.0, 0.0, 0.0, 0.0, 0.0, 1.7632285763671236E9, 0.0, 2025-11-15 12:42:56.367
3.0, -194.0390993510373, -125.598930161912, -188.98462456092238, -162.61085007339716, -0.06400000303983688, 0.12800000607967377, 0.0, 0.0, 0.0, 0.0, 0.0, 0.0, 1.7632285763671236E9, 0.0, 2025-11-15 12:42:56.367
4.0, -117.63294325629249, -46.313051101285964, -110.63746038917452, -73.63489022757858, -0.06400000303983688, 0.12800000607967377, 0.0, 0.0, 0.0, 0.0, 0.0, 0.0, 1.7632285763959026E9, 0.0, 2025-11-15 12:42:56.395
4.0, -270.1198841496371, -151.55383585439995, -196.93939176667482, -161.17472849041224, -0.06400000303983688, 0.12800000607967377, 0.0, 0.0, 0.0, 0.0, 0.0, 0.0, 1.7632285763959026E9, 0.0, 2025-11-15 12:42:56.395
5.0, -242.22023048019037, -143.93191974470392, -198.10250065289438, -167.09499012026936, -0.06400000303983688, 0.12800000607967377, 0.0, 0.0, 0.0, 0.0, 0.0, 0.0, 1.76322857639661E9, 0.0, 2025-11-15 12:42:56.396
5.0, -123.560684686061, -51.915421234909445, -115.17769893538207, -64.76010763272643, -0.06400000303983688, 0.12800000607967377, 0.0, 0.0, 0.0, 0.0, 0.0, 0.0, 1.76322857639661E9, 0.0, 2025-11-15 12:42:56.396
6.0, -210.31140405824408, -112.07919182209298, -158.16784892603755, -130.92641764879227, -0.06400000303983688, 0.12800000607967377, 0.0, 0.0, 0.0, 0.0, 0.0, 0.0, 1.7632285763973668E9, 0.0, 2025-11-15 12:42:56.397
6.0, -246.70437052706257, -150.52536336658522, -199.8752132318914, -175.85009591653943, -0.06400000303983688, 0.12800000607967377, 0.0, 0.0, 0.0, 0.0, 0.0, 0.0, 1.7632285763973668E9, 0.0, 2025-11-15 12:42:56.397
7.0, -165.84399358509108, -90.5411079772748, -155.0338127631694, -109.72492479998618, -0.06400000303983688, 0.12800000607967377, 0.0, 0.0, 0.0, 0.0, 0.0, 0.0, 1.7632285764095197E9, 0.0, 2025-11-15 12:42:56.409
7.0, -156.38204669719562, -72.08470169594511, -126.1356058055535, -88.42619455233216, -0.06400000303983688, 0.12800000607967377, 0.0, 0.0, 0.0, 0.0, 0.0, 0.0, 1.7632285764095197E9, 0.0, 2025-11-15 12:42:56.409
8.0, -265.45622890489176, -157.47783738421276, -206.66687155142426, -182.0171909434721, -0.06400000303983688, 0.12800000607967377, 0.0, 0.0, 0.0, 0.0, 0.0, 0.0, 1.7632285764252784E9, 0.0, 2025-11-15 12:42:56.425
8.0, -173.64168499270454, -102.63594443397596, -169.82885698787868, -135.53397439420223, -0.06400000303983688, 0.12800000607967377, 0.0, 0.0, 0.0, 0.0, 0.0, 0.0, 1.7632285764252784E9, 0.0, 2025-11-15 12:42:56.425
9.0, -143.10914175445214, -49.34237006539479, -111.30690248124301, -59.88327809050679, -0.06400000303983688, 0.12800000607967377, 0.0, 0.0, 0.0, 0.0, 0.0, 0.0, 1.7632285764259648E9, 0.0, 2025-11-15 12:42:56.425
9.0, -165.29048839164898, -107.48659467650577, -170.91342797502875, -146.57041916344315, -0.06400000303983688, 0.12800000607967377, 0.0, 0.0, 0.0, 0.0, 0.0, 0.0, 1.7632285764259648E9, 0.0, 2025-11-15 12:42:56.425
10.0, -266.60437819128856, -138.10141571378335, -190.2038319464773, -166.20489393081516, -0.06400000303983688, 0.12800000607967377, 1.0400000493973494, 0.0, 0.0, 0.0, 0.0, 0.0, 1.7632285764394927E9, 0.0, 2025-11-15 12:42:56.439
10.0, -151.14618675922975, -60.66304723126814, -128.3907654788345, -93.95750658679754, -0.06400000303983688, 0.12800000607967377, 1.0400000493973494, 0.0, 0.0, 0.0, 0.0, 0.0, 1.7632285764394927E9, 0.0, 2025-11-15 12:42:56.439
11.0, -198.35120399994776, -93.72002293961123, -138.26410136185586, -106.54600983764976, -0.06400000303983688, 0.06400000303983688, 1.0400000493973494, 0.0, 0.0, 0.0, 0.0, 0.0, 1.763228576471594E9, 0.0, 2025-11-15 12:42:56.471
11.0, -230.6452401173301, -126.47406675154343, -172.4879258563742, -137.59839916974306, -0.06400000303983688, 0.06400000303983688, 1.0400000493973494, 0.0, 0.0, 0.0, 0.0, 0.0, 1.763228576471594E9, 0.0, 2025-11-15 12:42:56.471
12.0, -156.0529355010949, -82.22731037577614, -146.13285086862743, -112.58220836613327, -0.03200000151991844, 0.06400000303983688, 1.0400000493973494, 0.0, 0.0, 0.0, 0.0, 0.0, 1.7632285764723716E9, 0.0, 2025-11-15 12:42:56.472
12.0, -151.66229295311496, -66.82266245828941, -122.83327414467931, -93.5984761910513, -0.03200000151991844, 0.06400000303983688, 1.0400000493973494, 0.0, 0.0, 0.0, 0.0, 0.0, 1.7632285764723716E9, 0.0, 2025-11-15 12:42:56.472
13.0, -260.4111038646661, -146.85652151005343, -195.51448988355696, -177.5255710966885, -0.03200000151991844, 0.06400000303983688, 1.0400000493973494, 0.0, 0.0, 0.0, 0.0, 0.0, 1.7632285764730403E9, 0.0, 2025-11-15 12:42:56.473
13.0, -199.6639088843949, -104.74524800898507, -168.65078850183636, -135.45917639508843, -0.03200000151991844, 0.06400000303983688, 1.0400000493973494, 0.0, 0.0, 0.0, 0.0, 0.0, 1.7632285764730403E9, 0.0, 2025-11-15 12:42:56.473
14.0, -121.85155040631071, -42.47591374674812, -106.63202753663063, -66.83949200809002, -0.03200000151991844, 0.06400000303983688, 1.0400000493973494, 0.0, 0.0, 0.0, 0.0, 0.0, 1.7632285764738069E9, 0.0, 2025-11-15 12:42:56.473
14.0, -220.54377033701167, -120.4116889233701, -169.17437449563295, -142.2171756150201, -0.03200000151991844, 0.06400000303983688, 1.0400000493973494, 0.0, 0.0, 0.0, 0.0, 0.0, 1.7632285764738069E9, 0.0, 2025-11-15 12:42:56.473
15.0, -187.57655222760513, -106.46560198860243, -160.1499959025532, -129.19110406935215, -0.03200000151991844, 0.06400000303983688, 1.0400000493973494, 0.0, 0.0, 0.0, 0.0, 0.0, 1.7632285764845343E9, 0.0, 2025-11-15 12:42:56.484
15.0, -122.53969199815765, -49.7836782601662, -118.08360120095313, -78.01805297564715, -0.03200000151991844, 0.06400000303983688, 1.0400000493973494, 0.0, 0.0, 0.0, 0.0, 0.0, 1.7632285764845343E9, 0.0, 2025-11-15 12:42:56.484
16.0, -209.18195427162573, -100.44062315998599, -146.67139646224678, -124.14971892908216, -0.03200000151991844, 0.06400000303983688, 1.0400000493973494, 0.0, 0.0, 0.0, 0.0, 0.0, 1.7632285764995549E9, 0.0, 2025-11-15 12:42:56.499
16.0, -258.82538628345355, -151.31822215719149, -199.88269303180277, -167.2632856182754, -0.03200000151991844, 0.06400000303983688, 1.0400000493973494, 0.0, 0.0, 0.0, 0.0, 0.0, 1.7632285764995549E9, 0.0, 2025-11-15 12:42:56.499
17.0, -156.497983595822, -72.80650238739327, -137.96864926535636, -102.13292788993567, -0.03200000151991844, 0.06400000303983688, 1.0400000493973494, 0.0, 0.0, 0.0, 0.0, 0.0, 1.7632285765152118E9, 0.0, 2025-11-15 12:42:56.515
17.0, -169.01916864747182, -83.46147736115381, -136.30439378507435, -107.35756812803447, -0.03200000151991844, 0.06400000303983688, 1.0400000493973494, 0.0, 0.0, 0.0, 0.0, 0.0, 1.7632285765152118E9, 0.0, 2025-11-15 12:42:56.515
18.0, -246.49867602949962, -154.32884162152186, -201.89475920796394, -182.00597124360502, -0.03200000151991844, 0.06400000303983688, 1.0400000493973494, 0.0, 0.0, 0.0, 0.0, 0.0, 1.7632285765158954E9, 0.0, 2025-11-15 12:42:56.515
18.0, -206.04791810875759, -114.55874549271539, -173.50517864432186, -137.82653306704015, -0.03200000151991844, 0.06400000303983688, 1.0400000493973494, 0.0, 0.0, 0.0, 0.0, 0.0, 1.7632285765158954E9, 0.0, 2025-11-15 12:42:56.515
19.0, -145.2408847291954, -57.543970668222755, -121.5018697604537, -77.62162358034402, -0.03200000151991844, 0.06400000303983688, 1.0400000493973494, 0.0, 0.0, 0.0, 0.0, 0.0, 1.7632285765296135E9, 0.0, 2025-11-15 12:42:56.529
19.0, -225.54027667781338, -125.84950345894322, -172.8619158519432, -139.83485934324563, -0.03200000151991844, 0.06400000303983688, 1.0400000493973494, 0.0, 0.0, 0.0, 0.0, 0.0, 1.7632285765296135E9, 0.0, 2025-11-15 12:42:56.529
20.0, -230.23385112220421, -134.03988436190411, -196.15401277597994, -172.62256225477904, -0.03200000151991844, 0.06400000303983688, 0.5280000250786543, 0.0, 0.0, 0.0, 0.0, 0.0, 1.763228576544956E9, 0.0, 2025-11-15 12:42:56.544
20.0, -81.56160818366334, -34.70814153878018, -107.83253542240709, -68.47382828872651, -0.03200000151991844, 0.06400000303983688, 0.5280000250786543, 0.0, 0.0, 0.0, 0.0, 0.0, 1.763228576544956E9, 0.0, 2025-11-15 12:42:56.544
21.0, -199.3721966878511, -96.93259700154886, -148.39175044186413, -119.99095017835498, -0.03200000151991844, 0.11200000531971455, 0.5280000250786543, 0.0, 0.0, 0.0, 0.0, 0.0, 1.7632285765602088E9, 0.0, 2025-11-15 12:42:56.560
21.0, -264.31181951845065, -153.72671772865579, -201.73394350986928, -171.863362563774, -0.03200000151991844, 0.11200000531971455, 0.5280000250786543, 0.0, 0.0, 0.0, 0.0, 0.0, 1.7632285765602088E9, 0.0, 2025-11-15 12:42:56.560
22.0, -174.22510938579217, -75.981677449774, -140.20136953890324, -105.19216605369002, -0.04800000227987766, 0.11200000531971455, 0.5280000250786543, 0.0, 0.0, 0.0, 0.0, 0.0, 1.763228576560904E9, 0.0, 2025-11-15 12:42:56.560
22.0, -153.85761422710493, -62.432019910309464, -121.25129646342248, -86.62730267364532, -0.04800000227987766, 0.11200000531971455, 0.5280000250786543, 0.0, 0.0, 0.0, 0.0, 0.0, 1.763228576560904E9, 0.0, 2025-11-15 12:42:56.560
23.0, -236.8759134435095, -145.13242763048038, -191.8269485272467, -167.06507092062384, -0.04800000227987766, 0.11200000531971455, 0.5280000250786543, 0.0, 0.0, 0.0, 0.0, 0.0, 1.7632285765752256E9, 0.0, 2025-11-15 12:42:56.575
23.0, -230.34230822091922, -125.43063466390595, -178.81957648135722, -151.12187740951777, -0.04800000227987766, 0.11200000531971455, 0.5280000250786543, 0.0, 0.0, 0.0, 0.0, 0.0, 1.7632285765752256E9, 0.0, 2025-11-15 12:42:56.575
24.0, -143.3858943511732, -60.25913803605363, -121.18771816417575, -79.97776055242866, -0.04800000227987766, 0.11200000531971455, 0.5280000250786543, 0.0, 0.0, 0.0, 0.0, 0.0, 1.7632285765759022E9, 0.0, 2025-11-15 12:42:56.575
24.0, -216.4897187850438, -123.54572508623824, -171.36221596971154, -149.22574813198298, -0.04800000227987766, 0.11200000531971455, 0.5280000250786543, 0.0, 0.0, 0.0, 0.0, 0.0, 1.7632285765759022E9, 0.0, 2025-11-15 12:42:56.575
25.0, -223.87228129757568, -125.31469776527956, -182.1967061413452, -139.5132279470563, -0.04800000227987766, 0.11200000531971455, 0.5280000250786543, 0.0, 0.0, 0.0, 0.0, 0.0, 1.7632285765895529E9, 0.0, 2025-11-15 12:42:56.589
25.0, -145.97016522055492, -54.98587909853086, -121.95065775513649, -84.41328189987689, -0.04800000227987766, 0.11200000531971455, 0.5280000250786543, 0.0, 0.0, 0.0, 0.0, 0.0, 1.7632285765895529E9, 0.0, 2025-11-15 12:42:56.589
26.0, -202.88022284628823, -108.98255465878174, -162.98857996892184, -143.70939569734037, -0.04800000227987766, 0.11200000531971455, 0.5280000250786543, 0.0, 0.0, 0.0, 0.0, 0.0, 1.7632285766052012E9, 0.0, 2025-11-15 12:42:56.605
26.0, -238.48407042445615, -133.35548267001286, -188.43485926743597, -161.31310478877276, -0.04800000227987766, 0.11200000531971455, 0.5280000250786543, 0.0, 0.0, 0.0, 0.0, 0.0, 1.7632285766052012E9, 0.0, 2025-11-15 12:42:56.605
27.0, -146.91635990934446, -69.41441312758252, -133.33117332030088, -108.08310871943831, -0.04800000227987766, 0.11200000531971455, 0.5280000250786543, 0.0, 0.0, 0.0, 0.0, 0.0, 1.7632285766058936E9, 0.0, 2025-11-15 12:42:56.605
27.0, -161.77498243330047, -73.96213147370145, -132.19424373377115, -107.99335112050176, -0.04800000227987766, 0.11200000531971455, 0.5280000250786543, 0.0, 0.0, 0.0, 0.0, 0.0, 1.7632285766058936E9, 0.0, 2025-11-15 12:42:56.605
28.0, -200.2286337777041, -122.54717179806903, -188.8312886627391, -177.1179220015183, -0.04800000227987766, 0.11200000531971455, 0.5280000250786543, 0.0, 0.0, 0.0, 0.0, 0.0, 1.763228576619537E9, 0.0, 2025-11-15 12:42:56.619
28.0, -241.0571215939708, -125.5577912623994, -181.78157724626362, -143.11849150434136, -0.04800000227987766, 0.11200000531971455, 0.5280000250786543, 0.0, 0.0, 0.0, 0.0, 0.0, 1.763228576619537E9, 0.0, 2025-11-15 12:42:56.619
29.0, -134.16330106044188, -41.73541355552152, -105.03509025555104, -67.51641390006989, -0.04800000227987766, 0.11200000531971455, 0.5280000250786543, 0.0, 0.0, 0.0, 0.0, 0.0, 1.7632285766351836E9, 0.0, 2025-11-15 12:42:56.635
29.0, -226.82306236261502, -117.57310485700145, -162.00872618053108, -140.38462463673204, -0.04800000227987766, 0.11200000531971455, 0.5280000250786543, 0.0, 0.0, 0.0, 0.0, 0.0, 1.7632285766351836E9, 0.0, 2025-11-15 12:42:56.635
30.0, -227.76177725149319, -122.24050000170246, -170.43846068065614, -142.3293726136908, -0.04800000227987766, 0.11200000531971455, 0.7840000372380018, 0.0, 0.0, 0.0, 0.0, 0.0, 1.763228576635888E9, 0.0, 2025-11-15 12:42:56.635
30.0, -160.96342414291576, -74.07432847237214, -134.68127720430493, -93.68449389003217, -0.04800000227987766, 0.11200000531971455, 0.7840000372380018, 0.0, 0.0, 0.0, 0.0, 0.0, 1.763228576635888E9, 0.0, 2025-11-15 12:42:56.635
31.0, -196.89638291718438, -100.60143885808066, -149.334205230698, -136.9551363773644, -0.04800000227987766, 0.12800000607967377, 0.7840000372380018, 0.0, 0.0, 0.0, 0.0, 0.0, 1.7632285766495204E9, 0.0, 2025-11-15 12:42:56.649
31.0, -230.80231591546908, -125.66250846115872, -178.13143488951027, -156.5970909446478, -0.04800000227987766, 0.12800000607967377, 0.7840000372380018, 0.0, 0.0, 0.0, 0.0, 0.0, 1.7632285766495204E9, 0.0, 2025-11-15 12:42:56.649
32.0, -163.9067254080437, -81.51298948423937, -145.33999207802117, -109.87078089825809, -0.04800000227987766, 0.12800000607967377, 0.7840000372380018, 0.0, 0.0, 0.0, 0.0, 0.0, 1.763228576665184E9, 0.0, 2025-11-15 12:42:56.665
32.0, -160.30146185075864, -71.26940350560471, -121.67764505837113, -90.53923802729696, -0.04800000227987766, 0.12800000607967377, 0.7840000372380018, 0.0, 0.0, 0.0, 0.0, 0.0, 1.763228576665184E9, 0.0, 2025-11-15 12:42:56.665
33.0, -233.77927628019825, -134.09972276119515, -182.0471101431176, -158.49322022218257, -0.04800000227987766, 0.12800000607967377, 0.7840000372380018, 0.0, 0.0, 0.0, 0.0, 0.0, 1.7632285766658895E9, 0.0, 2025-11-15 12:42:56.665
33.0, -186.57425903948024, -101.75332804443315, -167.12864921987057, -134.59525950532407, -0.04800000227987766, 0.12800000607967377, 0.7840000372380018, 0.0, 0.0, 0.0, 0.0, 0.0, 1.7632285766658895E9, 0.0, 2025-11-15 12:42:56.665
34.0, -133.7107731658034, -52.58112342702225, -113.78271625190973, -61.15110417548567, -0.04800000227987766, 0.12800000607967377, 0.7840000372380018, 0.0, 0.0, 0.0, 0.0, 0.0, 1.7632285766795285E9, 0.0, 2025-11-15 12:42:56.679
34.0, -223.04202350741252, -123.42230838770047, -170.83489007595927, -138.81760655529797, -0.04800000227987766, 0.12800000607967377, 0.7840000372380018, 0.0, 0.0, 0.0, 0.0, 0.0, 1.7632285766795285E9, 0.0, 2025-11-15 12:42:56.679
35.0, -224.82221588632092, -128.5197920273058, -182.15182734187692, -155.65463615581393, -0.04800000227987766, 0.12800000607967377, 0.7840000372380018, 0.0, 0.0, 0.0, 0.0, 0.0, 1.763228576695187E9, 0.0, 2025-11-15 12:42:56.695
35.0, -111.08811833383515, -48.99455936951563, -125.74665621016175, -90.3746824292466, -0.04800000227987766, 0.12800000607967377, 0.7840000372380018, 0.0, 0.0, 0.0, 0.0, 0.0, 1.763228576695187E9, 0.0, 2025-11-15 12:42:56.695
36.0, -214.36545561021194, -92.36617915565148, -141.42057692445815, -114.71769124083221, -0.04800000227987766, 0.12800000607967377, 0.7840000372380018, 0.0, 0.0, 0.0, 0.0, 0.0, 1.7632285766958811E9, 0.0, 2025-11-15 12:42:56.695
36.0, -236.10923395259306, -127.29310484183952, -180.62968805991113, -154.19607517309487, -0.04800000227987766, 0.12800000607967377, 0.7840000372380018, 0.0, 0.0, 0.0, 0.0, 0.0, 1.7632285766958811E9, 0.0, 2025-11-15 12:42:56.695
37.0, -187.16890313243493, -90.78794137435034, -154.01282007526606, -112.28301636967808, -0.04800000227987766, 0.12800000607967377, 0.7840000372380018, 0.0, 0.0, 0.0, 0.0, 0.0, 1.763228576709515E9, 0.0, 2025-11-15 12:42:56.709
37.0, -164.8753594965674, -71.77802989957854, -122.44806444924325, -96.07802986167371, -0.04800000227987766, 0.12800000607967377, 0.7840000372380018, 0.0, 0.0, 0.0, 0.0, 0.0, 1.763228576709515E9, 0.0, 2025-11-15 12:42:56.709
38.0, -216.70289308251813, -120.557545021642, -168.53859150316566, -146.94814905896783, -0.04800000227987766, 0.12800000607967377, 0.7840000372380018, 0.0, 0.0, 0.0, 0.0, 0.0, 1.763228576725175E9, 0.0, 2025-11-15 12:42:56.725
38.0, -186.97442833473906, -88.33456700341776, -146.06179276946932, -108.29254311695695, -0.04800000227987766, 0.12800000607967377, 0.7840000372380018, 0.0, 0.0, 0.0, 0.0, 0.0, 1.763228576725175E9, 0.0, 2025-11-15 12:42:56.725
39.0, -151.96896474948153, -56.06671018572524, -114.41475934442133, -71.60412455163896, -0.04800000227987766, 0.12800000607967377, 0.7840000372380018, 0.0, 0.0, 0.0, 0.0, 0.0, 1.7632285767258756E9, 0.0, 2025-11-15 12:42:56.725
39.0, -202.61468994943425, -104.00100791780278, -150.4038166180253, -131.92497093696147, -0.04800000227987766, 0.12800000607967377, 0.7840000372380018, 0.0, 0.0, 0.0, 0.0, 0.0, 1.7632285767258756E9, 0.0, 2025-11-15 12:42:56.725
40.0, -197.75655990699306, -100.83331265533343, -155.9987069517374, -120.11436687689275, -0.04800000227987766, 0.12800000607967377, 0.9120000433176756, 0.0, 0.0, 0.0, 0.0, 0.0, 1.76322857673955E9, 0.0, 2025-11-15 12:42:56.739
40.0, -113.37693710671738, -29.887410495895892, -95.31883017066866, -55.728249239735305, -0.04800000227987766, 0.12800000607967377, 0.9120000433176756, 0.0, 0.0, 0.0, 0.0, 0.0, 1.76322857673955E9, 0.0, 2025-11-15 12:42:56.739
41.0, -172.37759880768135, -65.48003837419674, -112.02870317269117, -88.45611375197768, -0.04800000227987766, 0.12800000607967377, 0.9120000433176756, 0.0, 0.0, 0.0, 0.0, 0.0, 1.7632285767551796E9, 0.0, 2025-11-15 12:42:56.755
41.0, -211.61662914277986, -84.26181595167145, -130.9862560480833, -103.72238537110388, -0.04800000227987766, 0.12800000607967377, 0.9120000433176756, 0.0, 0.0, 0.0, 0.0, 0.0, 1.7632285767551796E9, 0.0, 2025-11-15 12:42:56.755
42.0, -149.35477468045428, -51.30955744208768, -108.14294711872935, -61.19224307499826, -0.06400000303983688, 0.12800000607967377, 0.9120000433176756, 0.0, 0.0, 0.0, 0.0, 0.0, 1.7632285767558994E9, 0.0, 2025-11-15 12:42:56.755
42.0, -141.98717176774517, -42.77510574320331, -95.43476706929505, -60.118891787715256, -0.06400000303983688, 0.12800000607967377, 0.9120000433176756, 0.0, 0.0, 0.0, 0.0, 0.0, 1.7632285767558994E9, 0.0, 2025-11-15 12:42:56.755
43.0, -222.903647209052, -110.17184284469113, -154.110057474114, -130.8030009502545, -0.06400000303983688, 0.12800000607967377, 0.9120000433176756, 0.0, 0.0, 0.0, 0.0, 0.0, 1.7632285767695339E9, 0.0, 2025-11-15 12:42:56.769
43.0, -184.57715246314183, -80.86224689194933, -135.84812599048018, -102.76497098244727, -0.06400000303983688, 0.12800000607967377, 0.9120000433176756, 0.0, 0.0, 0.0, 0.0, 0.0, 1.7632285767695339E9, 0.0, 2025-11-15 12:42:56.769
44.0, -114.442808594089, -26.72719503333792, -90.12784903217107, -56.31541353277862, -0.06400000303983688, 0.12800000607967377, 0.9120000433176756, 0.0, 0.0, 0.0, 0.0, 0.0, 1.7632285767852314E9, 0.0, 2025-11-15 12:42:56.785
44.0, -212.22249293560162, -116.52219296945259, -167.28946491796523, -142.75946110859513, -0.06400000303983688, 0.12800000607967377, 0.9120000433176756, 0.0, 0.0, 0.0, 0.0, 0.0, 1.7632285767852314E9, 0.0, 2025-11-15 12:42:56.785
45.0, -192.0382528747432, -107.01162738213316, -160.98773349262774, -129.52769506536424, -0.06400000303983688, 0.12800000607967377, 0.9120000433176756, 0.0, 0.0, 0.0, 0.0, 0.0, 1.763228576785912E9, 0.0, 2025-11-15 12:42:56.785
45.0, -146.06366271944717, -48.81130427168682, -105.79428994655609, -53.62642546463758, -0.06400000303983688, 0.12800000607967377, 0.9120000433176756, 0.0, 0.0, 0.0, 0.0, 0.0, 1.763228576785912E9, 0.0, 2025-11-15 12:42:56.785
46.0, -192.05321247456595, -85.63435923540965, -135.90048458985984, -108.29254311695695, -0.06400000303983688, 0.12800000607967377, 0.9120000433176756, 0.0, 0.0, 0.0, 0.0, 0.0, 1.7632285767994914E9, 0.0, 2025-11-15 12:42:56.799
46.0, -242.6877179746516, -134.88136185193434, -181.07847605459392, -151.36123100668192, -0.06400000303983688, 0.12800000607967377, 0.9120000433176756, 0.0, 0.0, 0.0, 0.0, 0.0, 1.7632285767994914E9, 0.0, 2025-11-15 12:42:56.799
47.0, -172.1008462109603, -73.28146968176588, -133.59670621715486, -91.58267011493444, -0.06400000303983688, 0.12800000607967377, 0.9120000433176756, 0.0, 0.0, 0.0, 0.0, 0.0, 1.7632285768152592E9, 0.0, 2025-11-15 12:42:56.815
47.0, -169.2847015443258, -72.77658318774775, -128.03173508308828, -94.18938038405031, -0.06400000303983688, 0.12800000607967377, 0.9120000433176756, 0.0, 0.0, 0.0, 0.0, 0.0, 1.7632285768152592E9, 0.0, 2025-11-15 12:42:56.815
48.0, -215.5697033959441, -113.84442460117862, -155.03007286321372, -112.93375896196812, -0.06400000303983688, 0.12800000607967377, 0.9120000433176756, 0.0, 0.0, 0.0, 0.0, 0.0, 1.7632285768159015E9, 0.0, 2025-11-15 12:42:56.815
48.0, -218.62520165974274, -115.7405538787134, -163.23541336599737, -123.37555963825434, -0.06400000303983688, 0.12800000607967377, 0.9120000433176756, 0.0, 0.0, 0.0, 0.0, 0.0, 1.7632285768159015E9, 0.0, 2025-11-15 12:42:56.815
49.0, -168.09167345846072, -76.39306644489989, -128.26734878029674, -90.72997292503715, -0.06400000303983688, 0.12800000607967377, 0.9120000433176756, 0.0, 0.0, 0.0, 0.0, 0.0, 1.7632285768295066E9, 0.0, 2025-11-15 12:42:56.829
49.0, -230.77239671582356, -123.08197749173269, -161.30936488881707, -122.39570584986359, -0.06400000303983688, 0.12800000607967377, 0.9120000433176756, 0.0, 0.0, 0.0, 0.0, 0.0, 1.7632285768295066E9, 0.0, 2025-11-15 12:42:56.829
50.0, -249.41579799493775, -147.9373525972478, -194.52715629525483, -162.1171832792461, -0.06400000303983688, 0.12800000607967377, 0.9760000463575125, 0.0, 0.0, 0.0, 0.0, 0.0, 1.7632285768452709E9, 0.0, 2025-11-15 12:42:56.845
50.0, -160.03218905394897, -74.91580596240237, -138.45857615955174, -86.57494407426566, -0.06400000303983688, 0.12800000607967377, 0.9760000463575125, 0.0, 0.0, 0.0, 0.0, 0.0, 1.7632285768452709E9, 0.0, 2025-11-15 12:42:56.845
51.0, -197.31525171222165, -101.93658314226195, -145.44844917673618, -107.2341514294967, -0.06400000303983688, 0.12800000607967377, 0.9760000463575125, 0.0, 0.0, 0.0, 0.0, 0.0, 1.7632285768459E9, 0.0, 2025-11-15 12:42:56.845
51.0, -251.82803346635774, -145.2034857296385, -190.84335483890027, -159.76478620711714, -0.06400000303983688, 0.12800000607967377, 0.9760000463575125, 0.0, 0.0, 0.0, 0.0, 0.0, 1.7632285768459E9, 0.0, 2025-11-15 12:42:56.845
52.0, -181.547833499033, -93.02066164789721, -150.4038166180253, -104.34320876374841, -0.06400000303983688, 0.12800000607967377, 0.9760000463575125, 0.0, 0.0, 0.0, 0.0, 0.0, 1.7632285768595507E9, 0.0, 2025-11-15 12:42:56.859
52.0, -169.40811824286357, -71.15720650693402, -118.1658789999783, -77.23267398495227, -0.06400000303983688, 0.12800000607967377, 0.9760000463575125, 0.0, 0.0, 0.0, 0.0, 0.0, 1.7632285768595507E9, 0.0, 2025-11-15 12:42:56.859
53.0, -245.01393574709073, -140.0499035906978, -194.44113859627396, -167.2670255182311, -0.06400000303983688, 0.12800000607967377, 0.9760000463575125, 0.0, 0.0, 0.0, 0.0, 0.0, 1.7632285768752537E9, 0.0, 2025-11-15 12:42:56.875
53.0, -222.7203921112232, -119.74598673125729, -170.50203897990286, -114.10808754805475, -0.06400000303983688, 0.12800000607967377, 0.9760000463575125, 0.0, 0.0, 0.0, 0.0, 0.0, 1.7632285768752537E9, 0.0, 2025-11-15 12:42:56.875
54.0, -138.80825680540875, -61.43720652209595, -119.28410908672959, -68.94505568314344, -0.06400000303983688, 0.12800000607967377, 0.9760000463575125, 0.0, 0.0, 0.0, 0.0, 0.0, 1.763228576875968E9, 0.0, 2025-11-15 12:42:56.875
54.0, -231.62509390572086, -124.81355117121711, -179.70593277085572, -159.43193511106074, -0.06400000303983688, 0.12800000607967377, 0.9760000463575125, 0.0, 0.0, 0.0, 0.0, 0.0, 1.763228576875968E9, 0.0, 2025-11-15 12:42:56.875
55.0, -236.2438703509979, -139.69461309490725, -192.4963906193152, -167.65223521366715, -0.06400000303983688, 0.12800000607967377, 0.9760000463575125, 0.0, 0.0, 0.0, 0.0, 0.0, 1.763228576889494E9, 0.0, 2025-11-15 12:42:56.889
55.0, -165.7317965864204, -73.25903028203174, -134.01183511223644, -86.88161587063223, -0.06400000303983688, 0.12800000607967377, 0.9760000463575125, 0.0, 0.0, 0.0, 0.0, 0.0, 1.763228576889494E9, 0.0, 2025-11-15 12:42:56.889
56.0, -190.34033829485998, -99.51312797097489, -145.1791763799265, -118.37531339749694, -0.06400000303983688, 0.12800000607967377, 0.9760000463575125, 0.0, 0.0, 0.0, 0.0, 0.0, 1.7632285769057128E9, 0.0, 2025-11-15 12:42:56.905
56.0, -259.44994957605377, -153.07597513636574, -199.54984193574637, -168.97615979798138, -0.06400000303983688, 0.12800000607967377, 0.9760000463575125, 0.0, 0.0, 0.0, 0.0, 0.0, 1.7632285769057128E9, 0.0, 2025-11-15 12:42:56.905
57.0, -183.6571370740421, -95.31322032073513, -151.57814520411193, -108.84604831039906, -0.06400000303983688, 0.12800000607967377, 0.9760000463575125, 0.0, 0.0, 0.0, 0.0, 0.0, 1.7632285769202416E9, 0.0, 2025-11-15 12:42:56.920
57.0, -182.50150798773393, -87.97179670771584, -141.75716792047024, -96.40714105777442, -0.06400000303983688, 0.12800000607967377, 0.9760000463575125, 0.0, 0.0, 0.0, 0.0, 0.0, 1.7632285769202416E9, 0.0, 2025-11-15 12:42:56.920
58.0, -255.27996112545952, -145.69341262383386, -191.4940974311903, -161.81051148287952, -0.06400000303983688, 0.12800000607967377, 0.9760000463575125, 0.0, 0.0, 0.0, 0.0, 0.0, 1.7632285769209468E9, 0.0, 2025-11-15 12:42:56.920
58.0, -205.28497851779684, -113.8855635006912, -169.09209669660777, -128.3159674797207, -0.06400000303983688, 0.12800000607967377, 0.9760000463575125, 0.0, 0.0, 0.0, 0.0, 0.0, 1.7632285769209468E9, 0.0, 2025-11-15 12:42:56.920
59.0, -159.2468100632541, -74.91954586235806, -136.3604922844097, -91.73226611316204, -0.06400000303983688, 0.12800000607967377, 0.9760000463575125, 0.0, 0.0, 0.0, 0.0, 0.0, 1.763228576935262E9, 0.0, 2025-11-15 12:42:56.935
59.0, -226.47151176678017, -131.8595226877369, -180.59602896030992, -151.91847610007972, -0.06400000303983688, 0.12800000607967377, 0.9760000463575125, 0.0, 0.0, 0.0, 0.0, 0.0, 1.763228576935262E9, 0.0, 2025-11-15 12:42:56.935
60.0, -252.87146555399522, -153.61826062994078, -208.73503622692078, -170.16918788384646, -0.06400000303983688, 0.12800000607967377, 1.008000047877431, 0.0, 0.0, 0.0, 0.0, 0.0, 1.7632285769359665E9, 0.0, 2025-11-15 12:42:56.935
60.0, -168.0580143588595, -83.71579055814072, -142.78938030824065, -94.05474398564547, -0.06400000303983688, 0.12800000607967377, 1.008000047877431, 0.0, 0.0, 0.0, 0.0, 0.0, 1.7632285769359665E9, 0.0, 2025-11-15 12:42:56.935
61.0, -209.76163876475766, -105.12297790450975, -149.3641244303435, -111.07128878403455, -0.06400000303983688, 0.144000006839633, 1.008000047877431, 0.0, 0.0, 0.0, 0.0, 0.0, 1.7632285769494965E9, 0.0, 2025-11-15 12:42:56.949
61.0, -251.9851092644967, -147.82141569862142, -196.0941743766889, -169.77275848854333, -0.06400000303983688, 0.144000006839633, 1.008000047877431, 0.0, 0.0, 0.0, 0.0, 0.0, 1.7632285769494965E9, 0.0, 2025-11-15 12:42:56.949
62.0, -169.44177734246477, -88.40188520262018, -151.9970139991492, -112.41765276808292, -0.06400000303983688, 0.144000006839633, 1.008000047877431, 0.0, 0.0, 0.0, 0.0, 0.0, 1.763228576965225E9, 0.0, 2025-11-15 12:42:56.965
62.0, -176.41669075982645, -81.77104258118197, -131.8015542384237, -95.15053467266262, -0.06400000303983688, 0.144000006839633, 1.008000047877431, 0.0, 0.0, 0.0, 0.0, 0.0, 1.763228576965225E9, 0.0, 2025-11-15 12:42:56.965
63.0, -250.7285028793849, -153.10589433601126, -195.21155798714608, -169.02851839736104, -0.06400000303983688, 0.144000006839633, 1.008000047877431, 0.0, 0.0, 0.0, 0.0, 0.0, 1.7632285769659355E9, 0.0, 2025-11-15 12:42:56.965
63.0, -224.93067298503593, -121.43268161127344, -177.43955339770764, -133.94077701307833, -0.06400000303983688, 0.144000006839633, 1.008000047877431, 0.0, 0.0, 0.0, 0.0, 0.0, 1.7632285769659355E9, 0.0, 2025-11-15 12:42:56.965
64.0, -162.69499782240018, -67.62300104880705, -127.6540051875636, -86.60112337395549, -0.06400000303983688, 0.144000006839633, 1.008000047877431, 0.0, 0.0, 0.0, 0.0, 0.0, 1.7632285769794936E9, 0.0, 2025-11-15 12:42:56.979
64.0, -226.9389992612414, -120.32567122438923, -165.30731794144958, -144.0646861931309, -0.06400000303983688, 0.144000006839633, 1.008000047877431, 0.0, 0.0, 0.0, 0.0, 0.0, 1.7632285769794936E9, 0.0, 2025-11-15 12:42:56.979
65.0, -217.31623667525128, -119.36825683573261, -168.76298550050706, -125.38388591445982, -0.06400000303983688, 0.144000006839633, 1.008000047877431, 0.0, 0.0, 0.0, 0.0, 0.0, 1.7632285769952295E9, 0.0, 2025-11-15 12:42:56.995
65.0, -152.88524023862556, -62.12908801389858, -124.66208522301167, -81.97486712876707, -0.06400000303983688, 0.144000006839633, 1.008000047877431, 0.0, 0.0, 0.0, 0.0, 0.0, 1.7632285769952295E9, 0.0, 2025-11-15 12:42:56.995
66.0, -209.42130786878988, -110.3326585427858, -163.06711786799133, -134.7336358036846, -0.06400000303983688, 0.144000006839633, 1.008000047877431, 0.0, 0.0, 0.0, 0.0, 0.0, 1.7632285769959333E9, 0.0, 2025-11-15 12:42:56.995
66.0, -244.46043055364862, -138.4941052091308, -189.89342025015503, -161.86660998221487, -0.06400000303983688, 0.144000006839633, 1.008000047877431, 0.0, 0.0, 0.0, 0.0, 0.0, 1.7632285769959333E9, 0.0, 2025-11-15 12:42:56.995
67.0, -183.50006127590314, -100.40322416042909, -163.444847763516, -126.11316640581936, -0.06400000303983688, 0.144000006839633, 1.008000047877431, 0.0, 0.0, 0.0, 0.0, 0.0, 1.763228577009516E9, 0.0, 2025-11-15 12:42:57.009
67.0, -169.33332024374977, -77.28690253430977, -135.53397439420223, -103.00058467965573, -0.06400000303983688, 0.144000006839633, 1.008000047877431, 0.0, 0.0, 0.0, 0.0, 0.0, 1.763228577009516E9, 0.0, 2025-11-15 12:42:57.009
68.0, -244.66986495116726, -140.29673698777333, -191.60255452990532, -156.7803460424766, -0.06400000303983688, 0.144000006839633, 1.008000047877431, 0.0, 0.0, 0.0, 0.0, 0.0, 1.7632285770252786E9, 0.0, 2025-11-15 12:42:57.025
68.0, -197.0422390154563, -123.32881088880822, -182.45101933833212, -153.22744108457118, -0.06400000303983688, 0.144000006839633, 1.008000047877431, 0.0, 0.0, 0.0, 0.0, 0.0, 1.7632285770252786E9, 0.0, 2025-11-15 12:42:57.025
69.0, -127.15846844343469, -60.0833627381362, -127.40343189053237, -86.46274707559496, -0.06400000303983688, 0.144000006839633, 1.008000047877431, 0.0, 0.0, 0.0, 0.0, 0.0, 1.763228577025942E9, 0.0, 2025-11-15 12:42:57.025
69.0, -263.86303152376786, -137.11408212548122, -179.55633677262813, -155.43772195838392, -0.06400000303983688, 0.144000006839633, 1.008000047877431, 0.0, 0.0, 0.0, 0.0, 0.0, 1.763228577025942E9, 0.0, 2025-11-15 12:42:57.025
70.0, -251.6223389687948, -142.13302786601707, -196.36718707345426, -161.0774910915643, -0.06400000303983688, 0.144000006839633, 1.0240000486373901, 0.0, 0.0, 0.0, 0.0, 0.0, 1.7632285770395155E9, 0.0, 2025-11-15 12:42:57.039
70.0, -149.92697937367484, -62.757391206454486, -127.24261619243771, -78.25366667285562, -0.06400000303983688, 0.144000006839633, 1.0240000486373901, 0.0, 0.0, 0.0, 0.0, 0.0, 1.7632285770395155E9, 0.0, 2025-11-15 12:42:57.039
71.0, -203.65812203707173, -104.89110410725698, -159.7834857068956, -135.2086030980572, -0.06400000303983688, 0.12800000607967377, 1.0240000486373901, 0.0, 0.0, 0.0, 0.0, 0.0, 1.7632285770552833E9, 0.0, 2025-11-15 12:42:57.055
71.0, -220.35677533922717, -129.17053461959586, -191.5763752302155, -168.62086930219084, -0.06400000303983688, 0.12800000607967377, 1.0240000486373901, 0.0, 0.0, 0.0, 0.0, 0.0, 1.7632285770552833E9, 0.0, 2025-11-15 12:42:57.055
72.0, -196.86272381758317, -100.27232766197994, -165.71870693657547, -131.63699864037335, -0.06400000303983688, 0.12800000607967377, 1.0240000486373901, 0.0, 0.0, 0.0, 0.0, 0.0, 1.7632285770559433E9, 0.0, 2025-11-15 12:42:57.055
72.0, -176.8093802551739, -81.56160818366334, -141.72724872082472, -105.55119644943625, -0.06400000303983688, 0.12800000607967377, 1.0240000486373901, 0.0, 0.0, 0.0, 0.0, 0.0, 1.7632285770559433E9, 0.0, 2025-11-15 12:42:57.055
73.0, -243.04300847044215, -139.18972660088912, -188.15062687080353, -159.8545438060537, -0.06400000303983688, 0.12800000607967377, 1.0240000486373901, 0.0, 0.0, 0.0, 0.0, 0.0, 1.76322857706949E9, 0.0, 2025-11-15 12:42:57.069
73.0, -211.69516704184934, -115.47502098185942, -175.40130792185664, -132.64677162840962, -0.06400000303983688, 0.12800000607967377, 1.0240000486373901, 0.0, 0.0, 0.0, 0.0, 0.0, 1.76322857706949E9, 0.0, 2025-11-15 12:42:57.069
74.0, -152.94881853787228, -62.21136581292376, -124.52744882460684, -74.1472565215081, -0.06400000303983688, 0.12800000607967377, 1.0240000486373901, 0.0, 0.0, 0.0, 0.0, 0.0, 1.7632285770852296E9, 0.0, 2025-11-15 12:42:57.085
74.0, -211.27629824681208, -103.39140422502533, -155.8528508534655, -138.39125796034932, -0.06400000303983688, 0.12800000607967377, 1.0240000486373901, 0.0, 0.0, 0.0, 0.0, 0.0, 1.7632285770852296E9, 0.0, 2025-11-15 12:42:57.085
75.0, -252.75552865536883, -154.81876851571724, -204.45659067761153, -179.2384452763945, -0.06400000303983688, 0.12800000607967377, 1.0240000486373901, 0.0, 0.0, 0.0, 0.0, 0.0, 1.7632285770859332E9, 0.0, 2025-11-15 12:42:57.085
75.0, -148.35996129224077, -63.636267696041614, -133.29751422069967, -91.12266242038459, -0.06400000303983688, 0.12800000607967377, 1.0240000486373901, 0.0, 0.0, 0.0, 0.0, 0.0, 1.7632285770859332E9, 0.0, 2025-11-15 12:42:57.085
76.0, -195.0750516387634, -99.45702947163954, -155.59853765647858, -129.11630607023835, -0.06400000303983688, 0.12800000607967377, 1.0240000486373901, 0.0, 0.0, 0.0, 0.0, 0.0, 1.763228577099613E9, 0.0, 2025-11-15 12:42:57.099
76.0, -259.2105959788896, -151.81562885129824, -195.11432058829814, -166.36570962890983, -0.06400000303983688, 0.12800000607967377, 1.0240000486373901, 0.0, 0.0, 0.0, 0.0, 0.0, 1.763228577099613E9, 0.0, 2025-11-15 12:42:57.099
77.0, -183.3317657778971, -92.93090404896066, -152.37848379462957, -112.4625315675512, -0.06400000303983688, 0.12800000607967377, 1.0240000486373901, 0.0, 0.0, 0.0, 0.0, 0.0, 1.763228577115212E9, 0.0, 2025-11-15 12:42:57.115
77.0, -139.33184279920533, -63.02292410330847, -119.52346268389374, -81.21940733771771, -0.06400000303983688, 0.12800000607967377, 1.0240000486373901, 0.0, 0.0, 0.0, 0.0, 0.0, 1.763228577115212E9, 0.0, 2025-11-15 12:42:57.115
78.0, -221.4189069266431, -133.62101556686684, -186.22831829357892, -172.43556725699455, -0.06400000303983688, 0.12800000607967377, 1.0240000486373901, 0.0, 0.0, 0.0, 0.0, 0.0, 1.7632285771159253E9, 0.0, 2025-11-15 12:42:57.115
78.0, -258.45513618784025, -138.88679470447823, -190.06919554807246, -164.69023444876075, -0.06400000303983688, 0.12800000607967377, 1.0240000486373901, 0.0, 0.0, 0.0, 0.0, 0.0, 1.7632285771159253E9, 0.0, 2025-11-15 12:42:57.115
79.0, -148.99200438475236, -61.66160051943734, -126.0234088068828, -84.36466320045292, -0.06400000303983688, 0.12800000607967377, 1.0240000486373901, 0.0, 0.0, 0.0, 0.0, 0.0, 1.763228577129644E9, 0.0, 2025-11-15 12:42:57.129
79.0, -226.74452446354553, -123.1156365913339, -175.85009591653943, -158.28378582466394, -0.06400000303983688, 0.12800000607967377, 1.0240000486373901, 0.0, 0.0, 0.0, 0.0, 0.0, 1.763228577129644E9, 0.0, 2025-11-15 12:42:57.129
80.0, -241.25907619157806, -138.38938801037148, -195.37611358519644, -169.8213771879673, -0.06400000303983688, 0.12800000607967377, 1.0240000486373901, 0.0, 0.0, 0.0, 0.0, 0.0, 1.763228577145244E9, 0.0, 2025-11-15 12:42:57.145
80.0, -167.63540566386655, -82.00291637843475, -150.20560192037374, -107.24537112936378, -0.06400000303983688, 0.12800000607967377, 1.0240000486373901, 0.0, 0.0, 0.0, 0.0, 0.0, 1.763228577145244E9, 0.0, 2025-11-15 12:42:57.145
81.0, -202.00882615661249, -98.96336267748848, -154.39054997079074, -127.08928029425442, -0.06400000303983688, 0.144000006839633, 1.0240000486373901, 0.0, 0.0, 0.0, 0.0, 0.0, 1.763228577145946E9, 0.0, 2025-11-15 12:42:57.145
81.0, -246.67445132741705, -145.5699959252961, -191.2397842342034, -169.58950339071453, -0.06400000303983688, 0.144000006839633, 1.0240000486373901, 0.0, 0.0, 0.0, 0.0, 0.0, 1.763228577145946E9, 0.0, 2025-11-15 12:42:57.145
82.0, -182.5164675875567, -96.40153120784089, -158.08183122705668, -123.74954963382334, -0.06400000303983688, 0.144000006839633, 1.0240000486373901, 0.0, 0.0, 0.0, 0.0, 0.0, 1.7632285771595883E9, 0.0, 2025-11-15 12:42:57.159
82.0, -168.11411285819486, -78.9810772142373, -132.9123045252636, -100.29663701169193, -0.06400000303983688, 0.144000006839633, 1.0240000486373901, 0.0, 0.0, 0.0, 0.0, 0.0, 1.7632285771595883E9, 0.0, 2025-11-15 12:42:57.159
83.0, -248.48456290597096, -148.31882239272818, -196.1315733762458, -169.68300088960677, -0.06400000303983688, 0.144000006839633, 1.0240000486373901, 0.0, 0.0, 0.0, 0.0, 0.0, 1.7632285771752255E9, 0.0, 2025-11-15 12:42:57.175
83.0, -225.81702927453443, -129.19297401933, -184.11527481861413, -148.71712173800915, -0.06400000303983688, 0.144000006839633, 1.0240000486373901, 0.0, 0.0, 0.0, 0.0, 0.0, 1.7632285771752255E9, 0.0, 2025-11-15 12:42:57.175
84.0, -142.6079951603897, -62.53299720911309, -123.52515563648194, -84.1888879025355, -0.06400000303983688, 0.144000006839633, 1.0240000486373901, 0.0, 0.0, 0.0, 0.0, 0.0, 1.7632285771759338E9, 0.0, 2025-11-15 12:42:57.175
84.0, -233.5361827830784, -129.02467852132395, -172.8619158519432, -158.20898782555014, -0.06400000303983688, 0.144000006839633, 1.0240000486373901, 0.0, 0.0, 0.0, 0.0, 0.0, 1.7632285771759338E9, 0.0, 2025-11-15 12:42:57.175
85.0, -233.36788728507236, -132.33448998210952, -183.53933022543788, -160.7820389950648, -0.06400000303983688, 0.144000006839633, 1.0240000486373901, 0.0, 0.0, 0.0, 0.0, 0.0, 1.7632285771895876E9, 0.0, 2025-11-15 12:42:57.189
85.0, -169.70357033936307, -80.57053469540551, -144.3676180895418, -105.28192365262657, -0.06400000303983688, 0.144000006839633, 1.0240000486373901, 0.0, 0.0, 0.0, 0.0, 0.0, 1.7632285771895876E9, 0.0, 2025-11-15 12:42:57.189
86.0, -204.9670870215632, -100.9903884534724, -150.61325101554394, -123.910365331918, -0.06400000303983688, 0.144000006839633, 1.0240000486373901, 0.0, 0.0, 0.0, 0.0, 0.0, 1.7632285772052853E9, 0.0, 2025-11-15 12:42:57.205
86.0, -244.78954174974933, -140.083562690299, -186.0525429956615, -155.03007286321372, -0.06400000303983688, 0.144000006839633, 1.0240000486373901, 0.0, 0.0, 0.0, 0.0, 0.0, 1.7632285772052853E9, 0.0, 2025-11-15 12:42:57.205
87.0, -183.63469767430797, -93.82474013837054, -157.09075773879886, -120.08070777729154, -0.06400000303983688, 0.144000006839633, 1.0240000486373901, 0.0, 0.0, 0.0, 0.0, 0.0, 1.7632285772059605E9, 0.0, 2025-11-15 12:42:57.205
87.0, -168.36468615522608, -83.70457085827366, -141.97408211790025, -112.76172356400639, -0.06400000303983688, 0.144000006839633, 1.0240000486373901, 0.0, 0.0, 0.0, 0.0, 0.0, 1.7632285772059605E9, 0.0, 2025-11-15 12:42:57.205
88.0, -249.86458598962054, -144.69111943570897, -189.54186965432018, -169.4885260919109, -0.06400000303983688, 0.144000006839633, 1.0240000486373901, 0.0, 0.0, 0.0, 0.0, 0.0, 1.763228577219548E9, 0.0, 2025-11-15 12:42:57.219
88.0, -222.1930662174709, -125.77844535978511, -180.96627905592322, -155.97252765204757, -0.06400000303983688, 0.144000006839633, 1.0240000486373901, 0.0, 0.0, 0.0, 0.0, 0.0, 1.763228577219548E9, 0.0, 2025-11-15 12:42:57.219
89.0, -153.4649247317575, -65.6071949726902, -124.28809522744268, -91.27973821852356, -0.06400000303983688, 0.144000006839633, 1.0240000486373901, 0.0, 0.0, 0.0, 0.0, 0.0, 1.7632285772352123E9, 0.0, 2025-11-15 12:42:57.235
89.0, -213.49779882049188, -118.54921874543652, -168.04866460897028, -142.34433221351355, -0.06400000303983688, 0.144000006839633, 1.0240000486373901, 0.0, 0.0, 0.0, 0.0, 0.0, 1.7632285772352123E9, 0.0, 2025-11-15 12:42:57.235
90.0, -230.45450521958992, -129.6305423141457, -180.40903396252543, -162.60337027348578, -0.06400000303983688, 0.144000006839633, 1.0240000486373901, 0.0, 0.0, 0.0, 0.0, 0.0, 1.7632285772359295E9, 0.0, 2025-11-15 12:42:57.235
90.0, -174.81601357879117, -88.05407450674102, -156.39887624699622, -109.37337420415133, -0.06400000303983688, 0.144000006839633, 1.0240000486373901, 0.0, 0.0, 0.0, 0.0, 0.0, 1.7632285772359295E9, 0.0, 2025-11-15 12:42:57.235
91.0, -192.80493236565962, -97.0672333999537, -151.09569810982794, -121.62154655903578, -0.06400000303983688, 0.144000006839633, 1.0240000486373901, 0.0, 0.0, 0.0, 0.0, 0.0, 1.7632285772495923E9, 0.0, 2025-11-15 12:42:57.249
91.0, -246.73802962666377, -140.4201536863111, -191.03034983668476, -166.49286622740328, -0.06400000303983688, 0.144000006839633, 1.0240000486373901, 0.0, 0.0, 0.0, 0.0, 0.0, 1.7632285772495923E9, 0.0, 2025-11-15 12:42:57.249
92.0, -183.34298547776416, -95.97892251284793, -155.9239089526236, -120.58185437135398, -0.06400000303983688, 0.144000006839633, 1.0240000486373901, 0.0, 0.0, 0.0, 0.0, 0.0, 1.7632285772652268E9, 0.0, 2025-11-15 12:42:57.265
92.0, -165.93375118402764, -76.52396294334903, -127.87091938499361, -96.5642168559134, -0.06400000303983688, 0.144000006839633, 1.0240000486373901, 0.0, 0.0, 0.0, 0.0, 0.0, 1.7632285772652268E9, 0.0, 2025-11-15 12:42:57.265
93.0, -227.9038934498094, -132.59254307905212, -179.85178886912763, -160.5239858981222, -0.06400000303983688, 0.144000006839633, 1.0240000486373901, 0.0, 0.0, 0.0, 0.0, 0.0, 1.763228577265928E9, 0.0, 2025-11-15 12:42:57.265
93.0, -218.8682951568626, -126.61618294985965, -178.28477078769356, -143.87021139543504, -0.06400000303983688, 0.144000006839633, 1.0240000486373901, 0.0, 0.0, 0.0, 0.0, 0.0, 1.763228577265928E9, 0.0, 2025-11-15 12:42:57.265
94.0, -136.24268543580547, -52.319330430123955, -113.6443399535492, -68.56358588766307, -0.06400000303983688, 0.144000006839633, 1.0240000486373901, 0.0, 0.0, 0.0, 0.0, 0.0, 1.7632285772796118E9, 0.0, 2025-11-15 12:42:57.279
94.0, -235.1705190637149, -134.90380125166848, -179.54511707276106, -152.13913019746542, -0.06400000303983688, 0.144000006839633, 1.0240000486373901, 0.0, 0.0, 0.0, 0.0, 0.0, 1.7632285772796118E9, 0.0, 2025-11-15 12:42:57.279
95.0, -230.76491691591218, -135.28153114719316, -186.92019978538156, -157.04961883928627, -0.06400000303983688, 0.144000006839633, 1.0240000486373901, 0.0, 0.0, 0.0, 0.0, 0.0, 1.7632285772952237E9, 0.0, 2025-11-15 12:42:57.295
95.0, -147.3875873037614, -56.81469017686322, -116.85317411553115, -63.94480944238603, -0.06400000303983688, 0.144000006839633, 1.0240000486373901, 0.0, 0.0, 0.0, 0.0, 0.0, 1.7632285772952237E9, 0.0, 2025-11-15 12:42:57.295
96.0, -159.3552671619691, -69.54156972607598, -116.8718736153096, -96.91576745174825, -0.06400000303983688, 0.144000006839633, 1.0240000486373901, 0.0, 0.0, 0.0, 0.0, 0.0, 1.7632285772959251E9, 0.0, 2025-11-15 12:42:57.295
96.0, -243.70871066255495, -138.7110194065608, -184.02177731972188, -162.95118096936494, -0.06400000303983688, 0.144000006839633, 1.0240000486373901, 0.0, 0.0, 0.0, 0.0, 0.0, 1.7632285772959251E9, 0.0, 2025-11-15 12:42:57.295
97.0, -165.5747207882814, -72.24177749408409, -136.5848862817511, -98.85677552875131, -0.06400000303983688, 0.144000006839633, 1.0240000486373901, 0.0, 0.0, 0.0, 0.0, 0.0, 1.7632285773096013E9, 0.0, 2025-11-15 12:42:57.309
97.0, -139.7170524946414, -51.72842623712495, -102.57797598466277, -64.83116573188454, -0.06400000303983688, 0.144000006839633, 1.0240000486373901, 0.0, 0.0, 0.0, 0.0, 0.0, 1.7632285773096013E9, 0.0, 2025-11-15 12:42:57.309
98.0, -166.19928408088163, -100.2124892626889, -156.54099244531244, -126.04584820661694, -0.06400000303983688, 0.144000006839633, 1.0240000486373901, 0.0, 0.0, 0.0, 0.0, 0.0, 1.763228577325225E9, 0.0, 2025-11-15 12:42:57.325
98.0, -214.5599304079078, -115.25062698451802, -174.87398202810436, -144.92860308289528, -0.06400000303983688, 0.144000006839633, 1.0240000486373901, 0.0, 0.0, 0.0, 0.0, 0.0, 1.763228577325225E9, 0.0, 2025-11-15 12:42:57.325
99.0, -122.6705884966068, -36.985740611795336, -97.03544425033033, -64.88726423121989, -0.06400000303983688, 0.144000006839633, 1.0240000486373901, 0.0, 0.0, 0.0, 0.0, 0.0, 1.763228577325918E9, 0.0, 2025-11-15 12:42:57.325
99.0, -218.40080766240135, -119.30093863653019, -158.56427832134068, -152.27002669591457, -0.06400000303983688, 0.144000006839633, 1.0240000486373901, 0.0, 0.0, 0.0, 0.0, 0.0, 1.763228577325918E9, 0.0, 2025-11-15 12:42:57.325
100.0, -222.13322781817988, -134.47371275676414, -181.11213515419513, -163.79639835935086, -0.06400000303983688, 0.144000006839633, 1.0400000493973494, 0.0, 0.0, 0.0, 0.0, 0.0, 1.7632285773402247E9, 0.0, 2025-11-15 12:42:57.340
100.0, -129.09199672052637, -55.127995296847075, -121.21389746386558, -87.31170436553657, -0.06400000303983688, 0.144000006839633, 1.0400000493973494, 0.0, 0.0, 0.0, 0.0, 0.0, 1.7632285773402247E9, 0.0, 2025-11-15 12:42:57.340
0.0, -172.94232370099053, -92.5999229028821, -142.76133105857298, -126.63114254968241, -0.06400000303983688, 0.144000006839633, 1.0400000493973494, 0.0, 0.0, 0.0, 0.0, 0.0, 1.763228577340928E9, 0.0, 2025-11-15 12:42:57.340
1.0, -226.61362796509638, -138.05092706438154, -190.68814899073914, -166.90238527255133, -0.06400000303983688, 0.12800000607967377, 1.0400000493973494, 0.0, 0.0, 0.0, 0.0, 0.0, 1.76322857735456E9, 0.0, 2025-11-15 12:42:57.354
1.0, -149.36599438032135, -84.51799909863621, -150.32714866893366, -128.3028778298758, -0.06400000303983688, 0.12800000607967377, 1.0400000493973494, 0.0, 0.0, 0.0, 0.0, 0.0, 1.76322857735456E9, 0.0, 2025-11-15 12:42:57.354
2.0, -121.47008061083034, -67.8455250961706, -129.5594842149876, -105.20151580357924, -0.06400000303983688, 0.12800000607967377, 1.0400000493973494, 0.0, 0.0, 0.0, 0.0, 0.0, 1.7632285773702085E9, 0.0, 2025-11-15 12:42:57.370
2.0, -228.81268913904205, -139.96575584169477, -192.6328969676979, -180.11545181600377, -0.06400000303983688, 0.12800000607967377, 1.0400000493973494, 0.0, 0.0, 0.0, 0.0, 0.0, 1.7632285773702085E9, 0.0, 2025-11-15 12:42:57.370
3.0, -199.21138098975644, -124.97997671924531, -188.7022621142678, -160.06958805350587, -0.06400000303983688, 0.12800000607967377, 1.0400000493973494, 0.0, 0.0, 0.0, 0.0, 0.0, 1.7632285773709145E9, 0.0, 2025-11-15 12:42:57.370
3.0, -124.32362427702174, -67.59121189918369, -135.95471313921735, -106.35340498993173, -0.06400000303983688, 0.12800000607967377, 1.0400000493973494, 0.0, 0.0, 0.0, 0.0, 0.0, 1.7632285773709145E9, 0.0, 2025-11-15 12:42:57.370
4.0, -202.08362415572628, -128.0279951831326, -184.3639781656675, -171.79417441459373, -0.06400000303983688, 0.12800000607967377, 1.0400000493973494, 0.0, 0.0, 0.0, 0.0, 0.0, 1.7632285773845568E9, 0.0, 2025-11-15 12:42:57.384
4.0, -227.9786914489232, -138.8026469554752, -193.72868765471503, -184.2181220673956, -0.06400000303983688, 0.12800000607967377, 1.0400000493973494, 0.0, 0.0, 0.0, 0.0, 0.0, 1.7632285773845568E9, 0.0, 2025-11-15 12:42:57.384
5.0, -140.3042167876847, -75.34028460737318, -147.09587510721758, -122.12830300303176, -0.06400000303983688, 0.12800000607967377, 1.0400000493973494, 0.0, 0.0, 0.0, 0.0, 0.0, 1.7632285774002151E9, 0.0, 2025-11-15 12:42:57.400
5.0, -167.3960520667024, -94.67930727824569, -152.28311634575948, -141.80017676996067, -0.06400000303983688, 0.12800000607967377, 1.0400000493973494, 0.0, 0.0, 0.0, 0.0, 0.0, 1.7632285774002151E9, 0.0, 2025-11-15 12:42:57.400
6.0, -213.39308162173256, -139.07565965224057, -194.63748334394768, -178.35021903691813, -0.06400000303983688, 0.12800000607967377, 1.0400000493973494, 0.0, 0.0, 0.0, 0.0, 0.0, 1.763228577400911E9, 0.0, 2025-11-15 12:42:57.400
6.0, -122.3713965001516, -85.6324892854318, -162.53418212430552, -131.6762675899081, -0.06400000303983688, 0.12800000607967377, 1.0400000493973494, 0.0, 0.0, 0.0, 0.0, 0.0, 1.763228577400911E9, 0.0, 2025-11-15 12:42:57.400
7.0, -193.39957645861432, -92.70464010164142, -144.03289704350755, -120.16485552629456, -0.06400000303983688, 0.12800000607967377, 1.0400000493973494, 0.0, 0.0, 0.0, 0.0, 0.0, 1.7632285774309893E9, 0.0, 2025-11-15 12:42:57.430
7.0, -222.7503113108687, -144.68924948573112, -202.8577834465541, -189.6260174033232, -0.06400000303983688, 0.12800000607967377, 1.0400000493973494, 0.0, 0.0, 0.0, 0.0, 0.0, 1.7632285774309893E9, 0.0, 2025-11-15 12:42:57.430
8.0, -192.23646757239476, -124.392812426202, -183.84039217187092, -164.03762190649286, -0.06400000303983688, 0.12800000607967377, 1.0400000493973494, 0.0, 0.0, 0.0, 0.0, 0.0, 1.7632285774316497E9, 0.0, 2025-11-15 12:42:57.431
8.0, -144.81827603420243, -74.45018841791898, -137.73864541808143, -109.19198905630037, -0.06400000303983688, 0.12800000607967377, 1.0400000493973494, 0.0, 0.0, 0.0, 0.0, 0.0, 1.7632285774316497E9, 0.0, 2025-11-15 12:42:57.431
9.0, -215.69312009448186, -126.64797209948301, -180.63155800988898, -162.6837781225331, -0.06400000303983688, 0.12800000607967377, 1.0400000493973494, 0.0, 0.0, 0.0, 0.0, 0.0, 1.7632285774324026E9, 0.0, 2025-11-15 12:42:57.432
9.0, -219.6013155481778, -145.26519407890737, -199.71626748377457, -173.42851069523022, -0.06400000303983688, 0.12800000607967377, 1.0400000493973494, 0.0, 0.0, 0.0, 0.0, 0.0, 1.7632285774324026E9, 0.0, 2025-11-15 12:42:57.432
10.0, -180.07805281644687, -100.55095020867884, -164.21339720441028, -130.12420910829678, -0.06400000303983688, 0.12800000607967377, 1.0400000493973494, 0.0, 0.0, 0.0, 0.0, 0.0, 1.7632285774445367E9, 0.0, 2025-11-15 12:42:57.444
10.0, -190.8901035883464, -111.22836458217353, -163.9890032070689, -149.5342898783274, -0.06400000303983688, 0.12800000607967377, 1.0400000493973494, 0.0, 0.0, 0.0, 0.0, 0.0, 1.7632285774445367E9, 0.0, 2025-11-15 12:42:57.444
11.0, -244.62872605165467, -162.98857996892184, -217.09184267790988, -192.95452836388722, -0.06400000303983688, 0.12800000607967377, 1.0400000493973494, 0.0, 0.0, 0.0, 0.0, 0.0, 1.7632285774602566E9, 0.0, 2025-11-15 12:42:57.460
11.0, -176.31197356106713, -111.57991517800838, -175.2835010732524, -148.68907248834148, -0.06400000303983688, 0.12800000607967377, 1.0400000493973494, 0.0, 0.0, 0.0, 0.0, 0.0, 1.7632285774602566E9, 0.0, 2025-11-15 12:42:57.460
12.0, -170.66846452793106, -84.89572899416089, -142.52197746140882, -112.43822221783921, -0.06400000303983688, 0.12800000607967377, 1.0400000493973494, 0.0, 0.0, 0.0, 0.0, 0.0, 1.7632285774609592E9, 0.0, 2025-11-15 12:42:57.460
12.0, -265.332812206354, -167.05385122075677, -216.1194686894305, -204.6379758254625, -0.06400000303983688, 0.12800000607967377, 1.0400000493973494, 0.0, 0.0, 0.0, 0.0, 0.0, 1.7632285774609592E9, 0.0, 2025-11-15 12:42:57.460
13.0, -230.86215431476012, -147.1426238566637, -207.40550179267302, -185.9609154467471, -0.06400000303983688, 0.12800000607967377, 1.0400000493973494, 0.0, 0.0, 0.0, 0.0, 0.0, 1.763228577474543E9, 0.0, 2025-11-15 12:42:57.474
13.0, -164.0638012061827, -85.17248159088194, -146.6470871125348, -107.3295188783668, -0.06400000303983688, 0.12800000607967377, 1.0400000493973494, 0.0, 0.0, 0.0, 0.0, 0.0, 1.763228577474543E9, 0.0, 2025-11-15 12:42:57.474
14.0, -240.7953285970725, -151.8885569004342, -196.189541825559, -174.31486698472872, -0.06400000303983688, 0.12800000607967377, 1.0400000493973494, 0.0, 0.0, 0.0, 0.0, 0.0, 1.7632285774902618E9, 0.0, 2025-11-15 12:42:57.490
14.0, -243.9443243597634, -154.77201976627111, -196.83280461793765, -170.70586352748796, -0.06400000303983688, 0.12800000607967377, 1.0400000493973494, 0.0, 0.0, 0.0, 0.0, 0.0, 1.7632285774902618E9, 0.0, 2025-11-15 12:42:57.490
15.0, -130.65901480196044, -79.5214927578345, -147.645640400704, -104.05336651718244, -0.06400000303983688, 0.12800000607967377, 1.0400000493973494, 0.0, 0.0, 0.0, 0.0, 0.0, 1.7632285774909515E9, 0.0, 2025-11-15 12:42:57.490
15.0, -204.185447930824, -127.06310099456459, -182.2920735902153, -170.25333563284948, -0.06400000303983688, 0.12800000607967377, 1.0400000493973494, 0.0, 0.0, 0.0, 0.0, 0.0, 1.7632285774909515E9, 0.0, 2025-11-15 12:42:57.490
16.0, -283.08985719596967, -177.8621620927006, -223.17665990581736, -208.50877227960154, -0.06400000303983688, 0.12800000607967377, 1.0400000493973494, 0.0, 0.0, 0.0, 0.0, 0.0, 1.7632285775046148E9, 0.0, 2025-11-15 12:42:57.504
16.0, -203.7441397360526, -129.85680626146495, -190.5161135927774, -153.8276950274594, -0.06400000303983688, 0.12800000607967377, 1.0400000493973494, 0.0, 0.0, 0.0, 0.0, 0.0, 1.7632285775046148E9, 0.0, 2025-11-15 12:42:57.504
17.0, -169.4305576425977, -96.02941116224974, -149.1303806831129, -118.58661774499342, -0.06400000303983688, 0.12800000607967377, 1.0400000493973494, 0.0, 0.0, 0.0, 0.0, 0.0, 1.7632285775202525E9, 0.0, 2025-11-15 12:42:57.520
17.0, -245.45898384181783, -155.52747955732048, -205.3036780175753, -189.46894160518423, -0.06400000303983688, 0.12800000607967377, 1.0400000493973494, 0.0, 0.0, 0.0, 0.0, 0.0, 1.7632285775202525E9, 0.0, 2025-11-15 12:42:57.520
18.0, -228.98846443695948, -148.18979584425688, -199.74992658337578, -161.3187146387063, -0.06400000303983688, 0.12800000607967377, 1.0400000493973494, 0.0, 0.0, 0.0, 0.0, 0.0, 1.763228577520949E9, 0.0, 2025-11-15 12:42:57.520
18.0, -156.08285470074043, -78.61643696855754, -137.51799132069573, -106.64137728651986, -0.06400000303983688, 0.12800000607967377, 1.0400000493973494, 0.0, 0.0, 0.0, 0.0, 0.0, 1.763228577520949E9, 0.0, 2025-11-15 12:42:57.520
19.0, -223.15422050608322, -129.19484396930784, -172.57581350533292, -151.35936105670407, -0.06400000303983688, 0.12800000607967377, 1.0400000493973494, 0.0, 0.0, 0.0, 0.0, 0.0, 1.7632285775346115E9, 0.0, 2025-11-15 12:42:57.534
19.0, -254.53198113432154, -169.0434779971838, -216.35134248668328, -197.76403970690444, -0.06400000303983688, 0.12800000607967377, 1.0400000493973494, 0.0, 0.0, 0.0, 0.0, 0.0, 1.7632285775346115E9, 0.0, 2025-11-15 12:42:57.534
20.0, -164.54998820042238, -93.61343579087406, -153.87631372688338, -113.26474010804668, -0.06400000303983688, 0.12800000607967377, 1.0400000493973494, 0.0, 0.0, 0.0, 0.0, 0.0, 1.763228577550237E9, 0.0, 2025-11-15 12:42:57.550
20.0, -204.8212309232913, -120.92218526732177, -169.60259304055944, -154.2390840225853, -0.06400000303983688, 0.12800000607967377, 1.0400000493973494, 0.0, 0.0, 0.0, 0.0, 0.0, 1.763228577550237E9, 0.0, 2025-11-15 12:42:57.550
21.0, -263.56757942726836, -170.40480158105493, -219.09268915420398, -202.81290464708582, -0.06400000303983688, 0.12800000607967377, 1.0400000493973494, 0.0, 0.0, 0.0, 0.0, 0.0, 1.7632285775509484E9, 0.0, 2025-11-15 12:42:57.550
21.0, -191.7428007782437, -120.89600596763194, -181.42441680049524, -147.98597129667178, -0.06400000303983688, 0.12800000607967377, 1.0400000493973494, 0.0, 0.0, 0.0, 0.0, 0.0, 1.7632285775509484E9, 0.0, 2025-11-15 12:42:57.550
22.0, -151.63611365342513, -86.83673707116395, -137.44693322153762, -106.1065715928562, -0.06400000303983688, 0.12800000607967377, 1.0400000493973494, 0.0, 0.0, 0.0, 0.0, 0.0, 1.7632285775809195E9, 0.0, 2025-11-15 12:42:57.580
22.0, -258.1783835911192, -156.6644091438502, -196.4775141221471, -173.42851069523022, -0.06400000303983688, 0.12800000607967377, 1.0400000493973494, 0.0, 0.0, 0.0, 0.0, 0.0, 1.7632285775809195E9, 0.0, 2025-11-15 12:42:57.580
23.0, -222.26412431662902, -137.83027296699584, -189.4465022054501, -157.41799898492172, -0.06400000303983688, 0.12800000607967377, 1.0400000493973494, 0.0, 0.0, 0.0, 0.0, 0.0, 1.76322857758161E9, 0.0, 2025-11-15 12:42:57.581
23.0, -153.31906863348559, -82.12446312699467, -140.55852998467162, -107.26968047907576, -0.06400000303983688, 0.12800000607967377, 1.0400000493973494, 0.0, 0.0, 0.0, 0.0, 0.0, 1.76322857758161E9, 0.0, 2025-11-15 12:42:57.581
24.0, -229.84864142676815, -146.439522664994, -190.63579039135948, -174.46446298295632, -0.06400000303983688, 0.12800000607967377, 1.0400000493973494, 0.0, 0.0, 0.0, 0.0, 0.0, 1.7632285775823984E9, 0.0, 2025-11-15 12:42:57.582
24.0, -205.415875016246, -149.96624832320958, -208.90146177494898, -177.01881465269253, -0.06400000303983688, 0.12800000607967377, 1.0400000493973494, 0.0, 0.0, 0.0, 0.0, 0.0, 1.7632285775823984E9, 0.0, 2025-11-15 12:42:57.582
25.0, -194.2560135484673, -107.51838382612914, -166.25912248017266, -124.0393918803893, -0.06400000303983688, 0.12800000607967377, 1.0400000493973494, 0.0, 0.0, 0.0, 0.0, 0.0, 1.7632285775945792E9, 0.0, 2025-11-15 12:42:57.594
25.0, -199.06178499152884, -117.75449000485241, -163.79452840937302, -140.4949516854249, -0.06400000303983688, 0.12800000607967377, 1.0400000493973494, 0.0, 0.0, 0.0, 0.0, 0.0, 1.7632285775945792E9, 0.0, 2025-11-15 12:42:57.594
26.0, -256.41315081203356, -161.72075388394296, -211.1603613481857, -187.12028443301097, -0.06400000303983688, 0.12800000607967377, 1.0400000493973494, 0.0, 0.0, 0.0, 0.0, 0.0, 1.763228577610936E9, 0.0, 2025-11-15 12:42:57.610
26.0, -204.1891878307797, -124.48630992509425, -185.69164264993742, -148.73021138785407, -0.06400000303983688, 0.12800000607967377, 1.0400000493973494, 0.0, 0.0, 0.0, 0.0, 0.0, 1.763228577610936E9, 0.0, 2025-11-15 12:42:57.610
27.0, -164.1385992052965, -82.58447082154453, -137.4170140218921, -104.81630610814318, -0.06400000303983688, 0.12800000607967377, 1.0400000493973494, 0.0, 0.0, 0.0, 0.0, 0.0, 1.7632285776116416E9, 0.0, 2025-11-15 12:42:57.611
27.0, -231.29598270962015, -153.28727948386222, -196.45507472241297, -172.78898780280724, -0.06400000303983688, 0.12800000607967377, 1.0400000493973494, 0.0, 0.0, 0.0, 0.0, 0.0, 1.7632285776116416E9, 0.0, 2025-11-15 12:42:57.611
28.0, -227.9749515489675, -148.38053074199706, -197.26663301279768, -171.22570962132886, -0.06400000303983688, 0.12800000607967377, 1.0400000493973494, 0.0, 0.0, 0.0, 0.0, 0.0, 1.763228577624574E9, 0.0, 2025-11-15 12:42:57.624
28.0, -138.04157731449232, -75.50110030546784, -138.87931490456685, -97.29910719720647, -0.06400000303983688, 0.12800000607967377, 1.0400000493973494, 0.0, 0.0, 0.0, 0.0, 0.0, 1.763228577624574E9, 0.0, 2025-11-15 12:42:57.624
29.0, -235.2789761624299, -136.90277777798474, -175.6537511688657, -155.44707170827314, -0.06400000303983688, 0.12800000607967377, 1.0400000493973494, 0.0, 0.0, 0.0, 0.0, 0.0, 1.7632285776402817E9, 0.0, 2025-11-15 12:42:57.640
29.0, -248.74261600291356, -162.51361267454922, -214.20837981207296, -190.2244013962336, -0.06400000303983688, 0.12800000607967377, 1.0400000493973494, 0.0, 0.0, 0.0, 0.0, 0.0, 1.7632285776402817E9, 0.0, 2025-11-15 12:42:57.640
30.0, -173.75388199137524, -100.8613619050011, -156.15391279989854, -109.79785284912214, -0.06400000303983688, 0.12800000607967377, 1.0400000493973494, 0.0, 0.0, 0.0, 0.0, 0.0, 1.7632285776409922E9, 0.0, 2025-11-15 12:42:57.640
30.0, -194.38691004691646, -105.61103484872729, -151.59497475391254, -133.3442629701458, -0.06400000303983688, 0.12800000607967377, 1.0400000493973494, 0.0, 0.0, 0.0, 0.0, 0.0, 1.7632285776409922E9, 0.0, 2025-11-15 12:42:57.640
31.0, -256.93299690587446, -169.0060789976269, -210.16928785992786, -193.38835675874725, -0.06400000303983688, 0.12800000607967377, 1.0400000493973494, 0.0, 0.0, 0.0, 0.0, 0.0, 1.7632285776545565E9, 0.0, 2025-11-15 12:42:57.654
31.0, -171.947510312777, -116.49414371978492, -179.50210822327062, -145.10998823074624, -0.06400000303983688, 0.12800000607967377, 1.0400000493973494, 0.0, 0.0, 0.0, 0.0, 0.0, 1.7632285776545565E9, 0.0, 2025-11-15 12:42:57.654
32.0, -164.86039989674464, -91.77714491263032, -145.88040762161836, -120.40046922350302, -0.06400000303983688, 0.12800000607967377, 1.0400000493973494, 0.0, 0.0, 0.0, 0.0, 0.0, 1.763228577670322E9, 0.0, 2025-11-15 12:42:57.670
32.0, -271.3764905347489, -166.9266946222633, -208.92390117468312, -198.01087310397997, -0.06400000303983688, 0.12800000607967377, 1.0400000493973494, 0.0, 0.0, 0.0, 0.0, 0.0, 1.763228577670322E9, 0.0, 2025-11-15 12:42:57.670
33.0, -225.79832977475598, -143.37654460128397, -196.0698650269769, -168.92567114857957, -0.06400000303983688, 0.12800000607967377, 1.0400000493973494, 0.0, 0.0, 0.0, 0.0, 0.0, 1.7632285776709452E9, 0.0, 2025-11-15 12:42:57.670
33.0, -152.95629833778366, -89.22279324289411, -146.25439761718735, -109.00873395847157, -0.06400000303983688, 0.12800000607967377, 1.0400000493973494, 0.0, 0.0, 0.0, 0.0, 0.0, 1.7632285776709452E9, 0.0, 2025-11-15 12:42:57.670
34.0, -232.67600579326972, -144.38631758932024, -187.78224672516808, -171.9886492122896, -0.06400000303983688, 0.12800000607967377, 1.0400000493973494, 0.0, 0.0, 0.0, 0.0, 0.0, 1.7632285776845472E9, 0.0, 2025-11-15 12:42:57.684
34.0, -226.14614047063515, -145.24275467917323, -195.75945333065465, -177.39280464826152, -0.06400000303983688, 0.12800000607967377, 1.0400000493973494, 0.0, 0.0, 0.0, 0.0, 0.0, 1.7632285776845472E9, 0.0, 2025-11-15 12:42:57.684
35.0, -170.71334332739934, -96.0443707620725, -156.33342799777165, -122.76782589545473, -0.06400000303983688, 0.12800000607967377, 1.0400000493973494, 0.0, 0.0, 0.0, 0.0, 0.0, 1.7632285777002146E9, 0.0, 2025-11-15 12:42:57.700
35.0, -197.4498881106265, -111.20966508239508, -152.52994974283502, -134.24183895951137, -0.06400000303983688, 0.12800000607967377, 1.0400000493973494, 0.0, 0.0, 0.0, 0.0, 0.0, 1.7632285777002146E9, 0.0, 2025-11-15 12:42:57.700
36.0, -240.73549019778147, -153.0329662868753, -192.25142717221752, -173.92591738933697, -0.06400000303983688, 0.12800000607967377, 1.0400000493973494, 0.0, 0.0, 0.0, 0.0, 0.0, 1.7632285777009273E9, 0.0, 2025-11-15 12:42:57.700
36.0, -155.15161961177364, -98.56132343225181, -154.459738119971, -129.14435531990603, -0.06400000303983688, 0.12800000607967377, 1.0400000493973494, 0.0, 0.0, 0.0, 0.0, 0.0, 1.7632285777009273E9, 0.0, 2025-11-15 12:42:57.700
37.0, -206.13019590778276, -105.44273935072124, -151.30326255736873, -116.87374356528744, -0.06400000303983688, 0.12800000607967377, 1.0400000493973494, 0.0, 0.0, 0.0, 0.0, 0.0, 1.7632285777145844E9, 0.0, 2025-11-15 12:42:57.714
37.0, -230.0580758242868, -142.8118197079748, -185.54578655166551, -170.9152979250066, -0.06400000303983688, 0.12800000607967377, 1.0400000493973494, 0.0, 0.0, 0.0, 0.0, 0.0, 1.7632285777145844E9, 0.0, 2025-11-15 12:42:57.714
38.0, -237.2012847396545, -145.6952825738117, -193.05176576273516, -168.36468615522608, -0.06400000303983688, 0.12800000607967377, 1.0400000493973494, 0.0, 0.0, 0.0, 0.0, 0.0, 1.7632285777302406E9, 0.0, 2025-11-15 12:42:57.730
38.0, -144.70981893548742, -77.76747967861593, -134.4176142574288, -100.10777206392959, -0.06400000303983688, 0.12800000607967377, 1.0400000493973494, 0.0, 0.0, 0.0, 0.0, 0.0, 1.7632285777302406E9, 0.0, 2025-11-15 12:42:57.730
39.0, -214.48139250883833, -133.22645612154156, -175.40691777179018, -150.93301246175542, -0.06400000303983688, 0.12800000607967377, 1.0400000493973494, 0.0, 0.0, 0.0, 0.0, 0.0, 1.763228577730924E9, 0.0, 2025-11-15 12:42:57.730
39.0, -247.79642131412402, -145.474628476426, -186.39100394165143, -165.38024599058554, -0.06400000303983688, 0.12800000607967377, 1.0400000493973494, 0.0, 0.0, 0.0, 0.0, 0.0, 1.763228577730924E9, 0.0, 2025-11-15 12:42:57.730
40.0, -149.6090878774412, -83.71392060816288, -147.95605209702626, -105.16785670397803, -0.06400000303983688, 0.12800000607967377, 1.0400000493973494, 0.0, 0.0, 0.0, 0.0, 0.0, 1.7632285777445476E9, 0.0, 2025-11-15 12:42:57.744
40.0, -150.95919176144525, -97.09902254957706, -148.81996898679063, -140.74552498245612, -0.06400000303983688, 0.12800000607967377, 1.0400000493973494, 0.0, 0.0, 0.0, 0.0, 0.0, 1.7632285777445476E9, 0.0, 2025-11-15 12:42:57.744
41.0, -280.06427813181654, -171.7810847647488, -206.31345100561157, -188.08517862157896, -0.06400000303983688, 0.12800000607967377, 1.0400000493973494, 0.0, 0.0, 0.0, 0.0, 0.0, 1.7632285777602172E9, 0.0, 2025-11-15 12:42:57.760
41.0, -178.48859533527866, -100.82022300548851, -158.93639836693183, -124.29370507737622, -0.06400000303983688, 0.12800000607967377, 1.0400000493973494, 0.0, 0.0, 0.0, 0.0, 0.0, 1.7632285777602172E9, 0.0, 2025-11-15 12:42:57.760
42.0, -174.68137718038633, -96.53055775631219, -148.81622908683494, -116.58577126869932, -0.06400000303983688, 0.12800000607967377, 1.0400000493973494, 0.0, 0.0, 0.0, 0.0, 0.0, 1.7632285777609253E9, 0.0, 2025-11-15 12:42:57.760
42.0, -241.573227787856, -152.96938798762858, -195.26952643645927, -181.19254300324246, -0.06400000303983688, 0.12800000607967377, 1.0400000493973494, 0.0, 0.0, 0.0, 0.0, 0.0, 1.7632285777609253E9, 0.0, 2025-11-15 12:42:57.760
43.0, -223.34121550386772, -138.8026469554752, -192.1803690730594, -165.3952055904083, -0.06400000303983688, 0.12800000607967377, 1.0400000493973494, 0.0, 0.0, 0.0, 0.0, 0.0, 1.7632285777746296E9, 0.0, 2025-11-15 12:42:57.774
43.0, -144.93047303287312, -74.86531731300056, -134.62330875499174, -97.25796829769388, -0.06400000303983688, 0.12800000607967377, 1.0400000493973494, 0.0, 0.0, 0.0, 0.0, 0.0, 1.7632285777746296E9, 0.0, 2025-11-15 12:42:57.774
44.0, -204.42854142794386, -122.97165044303983, -163.30834141513333, -148.4235395914875, -0.06400000303983688, 0.12800000607967377, 1.0400000493973494, 0.0, 0.0, 0.0, 0.0, 0.0, 1.7632285777902343E9, 0.0, 2025-11-15 12:42:57.790
44.0, -238.62244672281668, -147.0715657575056, -197.0347592155449, -171.45758341858163, -0.06400000303983688, 0.12800000607967377, 1.0400000493973494, 0.0, 0.0, 0.0, 0.0, 0.0, 1.7632285777902343E9, 0.0, 2025-11-15 12:42:57.790
45.0, -176.60368575761095, -91.01420532166958, -150.2037319703959, -112.27366661978886, -0.06400000303983688, 0.12800000607967377, 1.0400000493973494, 0.0, 0.0, 0.0, 0.0, 0.0, 1.7632285777909164E9, 0.0, 2025-11-15 12:42:57.790
45.0, -189.1136511093937, -103.02676397934556, -140.61088858405128, -117.09439766267315, -0.06400000303983688, 0.12800000607967377, 1.0400000493973494, 0.0, 0.0, 0.0, 0.0, 0.0, 1.7632285777909164E9, 0.0, 2025-11-15 12:42:57.790
46.0, -233.0537356887944, -141.1064253281802, -187.7747669252567, -168.95933024818078, -0.06400000303983688, 0.12800000607967377, 1.0400000493973494, 0.0, 0.0, 0.0, 0.0, 0.0, 1.7632285778209848E9, 0.0, 2025-11-15 12:42:57.820
46.0, -188.34697161847726, -112.48871086724102, -166.01228908309713, -141.63188127195463, -0.06400000303983688, 0.12800000607967377, 1.0400000493973494, 0.0, 0.0, 0.0, 0.0, 0.0, 1.7632285778209848E9, 0.0, 2025-11-15 12:42:57.820
47.0, -159.7292571575381, -77.25137348473072, -131.59398979088292, -105.01826070575044, -0.06400000303983688, 0.12800000607967377, 1.0400000493973494, 0.0, 0.0, 0.0, 0.0, 0.0, 1.7632285778216488E9, 0.0, 2025-11-15 12:42:57.821
47.0, -193.34347795927897, -126.27772200386971, -180.08553261635825, -162.19385122833773, -0.06400000303983688, 0.12800000607967377, 1.0400000493973494, 0.0, 0.0, 0.0, 0.0, 0.0, 1.7632285778216488E9, 0.0, 2025-11-15 12:42:57.821
48.0, -241.51338938856497, -133.59670621715486, -178.9560828297399, -153.07971503632143, -0.06400000303983688, 0.12800000607967377, 1.0400000493973494, 0.0, 0.0, 0.0, 0.0, 0.0, 1.7632285778223991E9, 0.0, 2025-11-15 12:42:57.822
48.0, -153.9810309256427, -74.19213532097638, -124.742493072059, -88.79457469796762, -0.06400000303983688, 0.12800000607967377, 1.0400000493973494, 0.0, 0.0, 0.0, 0.0, 0.0, 1.7632285778223991E9, 0.0, 2025-11-15 12:42:57.822
49.0, -217.88096156856045, -121.58414755947888, -160.3164214505814, -136.02203133841977, -0.06400000303983688, 0.12800000607967377, 1.0400000493973494, 0.0, 0.0, 0.0, 0.0, 0.0, 1.7632285778346193E9, 0.0, 2025-11-15 12:42:57.834
49.0, -232.81812199158594, -147.20246225595474, -195.8192917299457, -184.63699086243287, -0.06400000303983688, 0.12800000607967377, 1.0400000493973494, 0.0, 0.0, 0.0, 0.0, 0.0, 1.7632285778346193E9, 0.0, 2025-11-15 12:42:57.834
50.0, -153.9024930265732, -72.92804913595319, -134.06980356154963, -98.22660238621756, -0.06400000303983688, 0.12800000607967377, 1.0400000493973494, 0.0, 0.0, 0.0, 0.0, 0.0, 1.7632285778502507E9, 0.0, 2025-11-15 12:42:57.850
50.0, -187.2586607313715, -97.84700254071504, -142.06196976685897, -124.53305867454037, -0.06400000303983688, 0.12800000607967377, 1.0400000493973494, 0.0, 0.0, 0.0, 0.0, 0.0, 1.7632285778502507E9, 0.0, 2025-11-15 12:42:57.850
51.0, -237.70991113362834, -145.9608154706657, -188.93039601156488, -169.55397434113547, -0.06400000303983688, 0.12800000607967377, 1.0400000493973494, 0.0, 0.0, 0.0, 0.0, 0.0, 1.763228577850968E9, 0.0, 2025-11-15 12:42:57.850
51.0, -197.9996534041129, -118.50620989594609, -171.8053941144608, -140.59592898422852, -0.06400000303983688, 0.12800000607967377, 1.0400000493973494, 0.0, 0.0, 0.0, 0.0, 0.0, 1.763228577850968E9, 0.0, 2025-11-15 12:42:57.850
52.0, -151.20976505847648, -71.52558665256947, -118.47816064627841, -89.9502037842758, -0.06400000303983688, 0.12800000607967377, 1.0400000493973494, 0.0, 0.0, 0.0, 0.0, 0.0, 1.763228577864612E9, 0.0, 2025-11-15 12:42:57.864
52.0, -221.0112578314729, -134.36712560802698, -178.42127713607624, -167.5419081649743, -0.06400000303983688, 0.12800000607967377, 1.0400000493973494, 0.0, 0.0, 0.0, 0.0, 0.0, 1.763228577864612E9, 0.0, 2025-11-15 12:42:57.864
53.0, -224.85213508596644, -140.07421294040978, -182.28085389034823, -155.34235450951383, -0.06400000303983688, 0.12800000607967377, 1.0400000493973494, 0.0, 0.0, 0.0, 0.0, 0.0, 1.7632285778807263E9, 0.0, 2025-11-15 12:42:57.880
53.0, -166.99214287148789, -84.42076169978827, -135.13941494887695, -98.18172358674929, -0.06400000303983688, 0.12800000607967377, 1.0400000493973494, 0.0, 0.0, 0.0, 0.0, 0.0, 1.7632285778807263E9, 0.0, 2025-11-15 12:42:57.880
54.0, -232.7919426918961, -133.88841841369867, -168.63395895203575, -155.76870310446247, -0.06400000303983688, 0.12800000607967377, 1.0400000493973494, 0.0, 0.0, 0.0, 0.0, 0.0, 1.7632285778952935E9, 0.0, 2025-11-15 12:42:57.895
54.0, -239.75189650943503, -144.1768831918016, -186.89963033562526, -170.89659842522815, -0.06400000303983688, 0.12800000607967377, 1.0400000493973494, 0.0, 0.0, 0.0, 0.0, 0.0, 1.7632285778952935E9, 0.0, 2025-11-15 12:42:57.895
55.0, -148.04580969596282, -77.0008001876995, -130.5991764026694, -98.49961508298293, -0.06400000303983688, 0.12800000607967377, 1.0400000493973494, 0.0, 0.0, 0.0, 0.0, 0.0, 1.7632285778959703E9, 0.0, 2025-11-15 12:42:57.895
55.0, -188.45168881723657, -99.08864932600409, -142.43595976242796, -118.25002674898133, -0.06400000303983688, 0.12800000607967377, 1.0400000493973494, 0.0, 0.0, 0.0, 0.0, 0.0, 1.7632285778959703E9, 0.0, 2025-11-15 12:42:57.895
56.0, -185.22789505543187, -132.15684473421425, -179.06080002849922, -167.14173886971548, -0.06400000303983688, 0.12800000607967377, 1.0400000493973494, 0.0, 0.0, 0.0, 0.0, 0.0, 1.7632285779102771E9, 0.0, 2025-11-15 12:42:57.910
56.0, -230.63028051750734, -122.00675625447184, -171.63335871649906, -139.07752960221842, -0.06400000303983688, 0.12800000607967377, 1.0400000493973494, 0.0, 0.0, 0.0, 0.0, 0.0, 1.7632285779102771E9, 0.0, 2025-11-15 12:42:57.910
57.0, -174.9880489767529, -85.0378451924771, -130.82731029996648, -98.90352427819744, -0.06400000303983688, 0.12800000607967377, 1.0400000493973494, 0.0, 0.0, 0.0, 0.0, 0.0, 1.7632285779109695E9, 0.0, 2025-11-15 12:42:57.910
57.0, -238.9141589193605, -138.52589435875416, -178.23428213829175, -160.6118735470809, -0.06400000303983688, 0.12800000607967377, 1.0400000493973494, 0.0, 0.0, 0.0, 0.0, 0.0, 1.7632285779109695E9, 0.0, 2025-11-15 12:42:57.910
58.0, -231.1276872116141, -140.33600593730807, -184.20690236752853, -157.0963675887324, -0.06400000303983688, 0.12800000607967377, 1.0400000493973494, 0.0, 0.0, 0.0, 0.0, 0.0, 1.7632285779246416E9, 0.0, 2025-11-15 12:42:57.924
58.0, -146.78172351093963, -68.1447170926258, -118.39962274720892, -83.40911876177415, -0.06400000303983688, 0.12800000607967377, 1.0400000493973494, 0.0, 0.0, 0.0, 0.0, 0.0, 1.7632285779246416E9, 0.0, 2025-11-15 12:42:57.924
59.0, -218.29609046364203, -131.954890136607, -170.4365907306783, -153.4200459322892, -0.06400000303983688, 0.12800000607967377, 1.0400000493973494, 0.0, 0.0, 0.0, 0.0, 0.0, 1.7632285779402578E9, 0.0, 2025-11-15 12:42:57.940
59.0, -228.83886843873188, -144.70420908555388, -185.07829905720428, -172.19060380989686, -0.06400000303983688, 0.12800000607967377, 1.0400000493973494, 0.0, 0.0, 0.0, 0.0, 0.0, 1.7632285779402578E9, 0.0, 2025-11-15 12:42:57.940
60.0, -151.239684258122, -78.87822996545583, -134.32037685858086, -98.66417068103328, -0.06400000303983688, 0.12800000607967377, 1.0240000486373901, 0.0, 0.0, 0.0, 0.0, 0.0, 1.7632285779409788E9, 0.0, 2025-11-15 12:42:57.940
60.0, -195.4789608339779, -99.57857622019947, -137.51051152078435, -109.401423453819, -0.06400000303983688, 0.12800000607967377, 1.0240000486373901, 0.0, 0.0, 0.0, 0.0, 0.0, 1.7632285779409788E9, 0.0, 2025-11-15 12:42:57.940
61.0, -253.12203885102645, -151.95213519968092, -186.8809308358468, -170.08878003479913, -0.06400000303983688, 0.12800000607967377, 1.0240000486373901, 0.0, 0.0, 0.0, 0.0, 0.0, 1.7632285779546432E9, 0.0, 2025-11-15 12:42:57.954
61.0, -186.03945334581658, -108.569295713678, -161.6104268352501, -124.78737187152728, -0.06400000303983688, 0.12800000607967377, 1.0240000486373901, 0.0, 0.0, 0.0, 0.0, 0.0, 1.7632285779546432E9, 0.0, 2025-11-15 12:42:57.954
62.0, -168.38712555496022, -80.98379364050925, -126.05893785646185, -86.55811452446505, -0.06400000303983688, 0.12800000607967377, 1.0240000486373901, 0.0, 0.0, 0.0, 0.0, 0.0, 1.7632285779866276E9, 0.0, 2025-11-15 12:42:57.986
62.0, -220.58490923652425, -152.08303169813007, -192.19532867288217, -182.63240448618308, -0.06400000303983688, 0.12800000607967377, 1.0240000486373901, 0.0, 0.0, 0.0, 0.0, 0.0, 1.7632285779866276E9, 0.0, 2025-11-15 12:42:57.986
63.0, -227.6421004529111, -136.44650998339057, -174.24006898561493, -149.26127718156204, -0.06400000303983688, 0.12800000607967377, 1.0240000486373901, 0.0, 0.0, 0.0, 0.0, 0.0, 1.7632285779874191E9, 0.0, 2025-11-15 12:42:57.987
63.0, -161.81612133281305, -79.25595986098051, -131.87448228755966, -96.68202370451763, -0.06400000303983688, 0.12800000607967377, 1.0240000486373901, 0.0, 0.0, 0.0, 0.0, 0.0, 1.7632285779874191E9, 0.0, 2025-11-15 12:42:57.987
64.0, -221.0860558305867, -126.44975740183145, -166.33766037924215, -150.7609770637937, -0.06400000303983688, 0.12800000607967377, 1.0240000486373901, 0.0, 0.0, 0.0, 0.0, 0.0, 1.7632285779880989E9, 0.0, 2025-11-15 12:42:57.988
64.0, -235.80630205618218, -144.87250458355993, -185.75522094918415, -168.992989347782, -0.06400000303983688, 0.12800000607967377, 1.0240000486373901, 0.0, 0.0, 0.0, 0.0, 0.0, 1.7632285779880989E9, 0.0, 2025-11-15 12:42:57.988
65.0, -164.4639705014415, -83.34367051254958, -133.44150036899373, -86.03826843062416, -0.06400000303983688, 0.12800000607967377, 1.0240000486373901, 0.0, 0.0, 0.0, 0.0, 0.0, 1.763228577988839E9, 0.0, 2025-11-15 12:42:57.988
65.0, -183.34298547776416, -94.43247388117015, -140.1247015898116, -125.0416850685142, -0.06400000303983688, 0.12800000607967377, 1.0240000486373901, 0.0, 0.0, 0.0, 0.0, 0.0, 1.763228577988839E9, 0.0, 2025-11-15 12:42:57.988
66.0, -232.73584419256076, -149.23696783185005, -190.89758338825777, -176.57376655796543, -0.06400000303983688, 0.12800000607967377, 1.0240000486373901, 0.0, 0.0, 0.0, 0.0, 0.0, 1.7632285779997332E9, 0.0, 2025-11-15 12:42:57.999
66.0, -198.44470149884, -112.32789516914636, -157.0589685891755, -126.35438995296136, -0.06400000303983688, 0.12800000607967377, 1.0240000486373901, 0.0, 0.0, 0.0, 0.0, 0.0, 1.7632285779997332E9, 0.0, 2025-11-15 12:42:57.999
67.0, -155.7948824041523, -73.97522112354636, -112.99172741128132, -83.86912645632401, -0.06400000303983688, 0.12800000607967377, 1.0240000486373901, 0.0, 0.0, 0.0, 0.0, 0.0, 1.7632285780145628E9, 0.0, 2025-11-15 12:42:58.014
67.0, -244.9914963473566, -150.8077258132398, -188.0702190217562, -171.03871462354437, -0.06400000303983688, 0.12800000607967377, 1.0240000486373901, 0.0, 0.0, 0.0, 0.0, 0.0, 1.7632285780145628E9, 0.0, 2025-11-15 12:42:58.014
68.0, -209.49610586790368, -129.4641167661175, -171.85401281388476, -149.79234297527, -0.06400000303983688, 0.12800000607967377, 1.0240000486373901, 0.0, 0.0, 0.0, 0.0, 0.0, 1.7632285780302393E9, 0.0, 2025-11-15 12:42:58.030
68.0, -154.43729872023687, -75.41882250644267, -124.75371277192608, -86.9134050202556, -0.06400000303983688, 0.12800000607967377, 1.0240000486373901, 0.0, 0.0, 0.0, 0.0, 0.0, 1.7632285780302393E9, 0.0, 2025-11-15 12:42:58.030
69.0, -208.69202737743035, -125.06225451827049, -162.22377042798325, -155.67520560557023, -0.06400000303983688, 0.12800000607967377, 1.0240000486373901, 0.0, 0.0, 0.0, 0.0, 0.0, 1.7632285780309331E9, 0.0, 2025-11-15 12:42:58.030
69.0, -225.25978418113664, -153.1489031855017, -194.09519785037264, -171.33790661999956, -0.06400000303983688, 0.12800000607967377, 1.0240000486373901, 0.0, 0.0, 0.0, 0.0, 0.0, 1.7632285780309331E9, 0.0, 2025-11-15 12:42:58.030
70.0, -119.70110793178901, -72.61015763971955, -130.21396670723334, -98.82498637912795, -0.06400000303983688, 0.12800000607967377, 1.0400000493973494, 0.0, 0.0, 0.0, 0.0, 0.0, 1.7632285780609784E9, 0.0, 2025-11-15 12:42:58.060
70.0, -221.0860558305867, -108.08310871943831, -142.74637145875022, -121.58227760950103, -0.06400000303983688, 0.12800000607967377, 1.0400000493973494, 0.0, 0.0, 0.0, 0.0, 0.0, 1.7632285780609784E9, 0.0, 2025-11-15 12:42:58.060
71.0, -244.9466175478883, -151.372450706549, -188.10013822140172, -174.23632908565924, -0.06400000303983688, 0.12800000607967377, 1.0400000493973494, 0.0, 0.0, 0.0, 0.0, 0.0, 1.7632285780616572E9, 0.0, 2025-11-15 12:42:58.061
71.0, -195.8492109295912, -107.74651772342622, -155.7238243049942, -125.6325892615132, -0.06400000303983688, 0.12800000607967377, 1.0400000493973494, 0.0, 0.0, 0.0, 0.0, 0.0, 1.7632285780616572E9, 0.0, 2025-11-15 12:42:58.061
72.0, -151.5351363546215, -74.01262012310326, -122.34521720046178, -96.97373590106145, -0.06400000303983688, 0.12800000607967377, 1.0400000493973494, 0.0, 0.0, 0.0, 0.0, 0.0, 1.7632285780624511E9, 0.0, 2025-11-15 12:42:58.062
72.0, -234.34026127355173, -152.50938029307872, -195.4116426347755, -185.57196585135534, -0.06400000303983688, 0.12800000607967377, 1.0400000493973494, 0.0, 0.0, 0.0, 0.0, 0.0, 1.7632285780624511E9, 0.0, 2025-11-15 12:42:58.062
73.0, -245.69833743898198, -158.71761421952397, -194.4804075458087, -168.3572063553147, -0.06400000303983688, 0.12800000607967377, 1.0400000493973494, 0.0, 0.0, 0.0, 0.0, 0.0, 1.763228578074545E9, 0.0, 2025-11-15 12:42:58.074
73.0, -137.98173891520128, -67.86048469599336, -114.14361659763381, -66.29533656453714, -0.06400000303983688, 0.12800000607967377, 1.0400000493973494, 0.0, 0.0, 0.0, 0.0, 0.0, 1.763228578074545E9, 0.0, 2025-11-15 12:42:58.074
74.0, -220.44653293816373, -136.16601748671383, -170.26455533271655, -160.6156134470366, -0.06400000303983688, 0.12800000607967377, 1.0400000493973494, 0.0, 0.0, 0.0, 0.0, 0.0, 1.7632285780902612E9, 0.0, 2025-11-15 12:42:58.090
74.0, -239.3966060136445, -153.4443552820012, -194.4841474457644, -176.50270845880732, -0.06400000303983688, 0.12800000607967377, 1.0400000493973494, 0.0, 0.0, 0.0, 0.0, 0.0, 1.7632285780902612E9, 0.0, 2025-11-15 12:42:58.090
75.0, -144.6836396357976, -77.0718582868576, -127.86530953506008, -87.8035012097098, -0.06400000303983688, 0.12800000607967377, 1.0400000493973494, 0.0, 0.0, 0.0, 0.0, 0.0, 1.7632285780909655E9, 0.0, 2025-11-15 12:42:58.090
75.0, -198.75885309511796, -109.91939959768206, -153.6107808300294, -140.87642148090526, -0.06400000303983688, 0.12800000607967377, 1.0400000493973494, 0.0, 0.0, 0.0, 0.0, 0.0, 1.7632285780909655E9, 0.0, 2025-11-15 12:42:58.090
76.0, -243.15146556915715, -155.47512095794082, -199.51431288616732, -188.15623672073707, -0.06400000303983688, 0.12800000607967377, 1.0400000493973494, 0.0, 0.0, 0.0, 0.0, 0.0, 1.7632285781046302E9, 0.0, 2025-11-15 12:42:58.104
76.0, -202.09110395563766, -122.34334725048393, -172.36637910781428, -143.0081644556485, -0.06400000303983688, 0.12800000607967377, 1.0400000493973494, 0.0, 0.0, 0.0, 0.0, 0.0, 1.7632285781046302E9, 0.0, 2025-11-15 12:42:58.104
77.0, -166.38253917871043, -85.21736039035022, -132.1923737837933, -93.24131574528292, -0.06400000303983688, 0.12800000607967377, 1.0400000493973494, 0.0, 0.0, 0.0, 0.0, 0.0, 1.7632285781372936E9, 0.0, 2025-11-15 12:42:58.137
77.0, -250.42183108301833, -160.5576449977234, -198.17168880207464, -182.05271999305114, -0.06400000303983688, 0.12800000607967377, 1.0400000493973494, 0.0, 0.0, 0.0, 0.0, 0.0, 1.7632285781372936E9, 0.0, 2025-11-15 12:42:58.137
78.0, -205.14660221943632, -141.3607385251671, -193.94934175210074, -172.74410900333896, -0.06400000303983688, 0.12800000607967377, 1.0400000493973494, 0.0, 0.0, 0.0, 0.0, 0.0, 1.7632285781380134E9, 0.0, 2025-11-15 12:42:58.138
78.0, -121.74683320755139, -74.1809156211093, -127.88774893479422, -93.42083094315603, -0.06400000303983688, 0.12800000607967377, 1.0400000493973494, 0.0, 0.0, 0.0, 0.0, 0.0, 1.7632285781380134E9, 0.0, 2025-11-15 12:42:58.138
79.0, -240.30540170287713, -134.18761041015387, -168.618999352213, -146.22447841754183, -0.06400000303983688, 0.12800000607967377, 1.0400000493973494, 0.0, 0.0, 0.0, 0.0, 0.0, 1.7632285781387596E9, 0.0, 2025-11-15 12:42:58.138
79.0, -220.6073486362584, -154.5177065692842, -192.93956876406446, -166.66677157534286, -0.06400000303983688, 0.12800000607967377, 1.0400000493973494, 0.0, 0.0, 0.0, 0.0, 0.0, 1.7632285781387596E9, 0.0, 2025-11-15 12:42:58.138
80.0, -172.8413464021869, -91.81080401223153, -145.20722562959418, -104.51711411168799, -0.06400000303983688, 0.12800000607967377, 1.0400000493973494, 0.0, 0.0, 0.0, 0.0, 0.0, 1.7632285781395144E9, 0.0, 2025-11-15 12:42:58.139
80.0, -202.1546822548844, -111.00023068487644, -148.59931488940492, -127.43896094011143, -0.06400000303983688, 0.12800000607967377, 1.0400000493973494, 0.0, 0.0, 0.0, 0.0, 0.0, 1.7632285781395144E9, 0.0, 2025-11-15 12:42:58.139
81.0, -257.4341434999369, -165.53919173870236, -199.30861838860437, -183.12233138037845, -0.06400000303983688, 0.12800000607967377, 1.0400000493973494, 0.0, 0.0, 0.0, 0.0, 0.0, 1.7632285781496022E9, 0.0, 2025-11-15 12:42:58.149
81.0, -211.21645984752104, -120.49583667237312, -164.71828369842842, -133.05629067355767, -0.06400000303983688, 0.12800000607967377, 1.0400000493973494, 0.0, 0.0, 0.0, 0.0, 0.0, 1.7632285781496022E9, 0.0, 2025-11-15 12:42:58.149
82.0, -160.52211594814435, -81.93746812921017, -124.28996517742053, -92.37739885551855, -0.06400000303983688, 0.12800000607967377, 1.0400000493973494, 0.0, 0.0, 0.0, 0.0, 0.0, 1.763228578164579E9, 0.0, 2025-11-15 12:42:58.164
82.0, -253.12203885102645, -165.76358573604375, -202.80542484717444, -186.48450144054368, -0.06400000303983688, 0.12800000607967377, 1.0400000493973494, 0.0, 0.0, 0.0, 0.0, 0.0, 1.763228578164579E9, 0.0, 2025-11-15 12:42:58.164
83.0, -231.0491493125446, -150.63569041527808, -194.76837984239683, -168.9555903482251, -0.06400000303983688, 0.12800000607967377, 1.0400000493973494, 0.0, 0.0, 0.0, 0.0, 0.0, 1.7632285781802413E9, 0.0, 2025-11-15 12:42:58.180
83.0, -144.642500736285, -77.48698718193918, -129.5594842149876, -90.42891097860411, -0.06400000303983688, 0.12800000607967377, 1.0400000493973494, 0.0, 0.0, 0.0, 0.0, 0.0, 1.7632285781802413E9, 0.0, 2025-11-15 12:42:58.180
84.0, -221.79663682216778, -137.23936877399683, -169.5801536408253, -151.4977373550646, -0.06400000303983688, 0.12800000607967377, 1.0400000493973494, 0.0, 0.0, 0.0, 0.0, 0.0, 1.7632285781809645E9, 0.0, 2025-11-15 12:42:58.180
84.0, -260.49712156364694, -168.25061920657754, -204.39114242838696, -176.66352415690199, -0.06400000303983688, 0.12800000607967377, 1.0400000493973494, 0.0, 0.0, 0.0, 0.0, 0.0, 1.7632285781809645E9, 0.0, 2025-11-15 12:42:58.180
85.0, -139.66095399530604, -76.21542119700462, -131.91562118707225, -95.97518261289224, -0.06400000303983688, 0.12800000607967377, 1.0400000493973494, 0.0, 0.0, 0.0, 0.0, 0.0, 1.7632285781945956E9, 0.0, 2025-11-15 12:42:58.194
85.0, -190.27675999561325, -112.88514026254416, -148.37492089206353, -124.09175047976896, -0.06400000303983688, 0.12800000607967377, 1.0400000493973494, 0.0, 0.0, 0.0, 0.0, 0.0, 1.7632285781945956E9, 0.0, 2025-11-15 12:42:58.194
86.0, -187.65509012667462, -152.65897629130632, -198.27640600083396, -192.34866457106546, -0.06400000303983688, 0.12800000607967377, 1.0400000493973494, 0.0, 0.0, 0.0, 0.0, 0.0, 1.7632285782266288E9, 0.0, 2025-11-15 12:42:58.226
86.0, -261.42835665261373, -146.2188685676083, -179.04584042867646, -157.29458228638396, -0.06400000303983688, 0.12800000607967377, 1.0400000493973494, 0.0, 0.0, 0.0, 0.0, 0.0, 1.7632285782266288E9, 0.0, 2025-11-15 12:42:58.226
87.0, -161.22521713981405, -74.07619842234999, -120.99511331645772, -91.56584056513384, -0.06400000303983688, 0.12800000607967377, 1.0400000493973494, 0.0, 0.0, 0.0, 0.0, 0.0, 1.7632285782274132E9, 0.0, 2025-11-15 12:42:58.227
87.0, -244.07896075816825, -147.56897245161235, -184.59585196292028, -167.9869562597014, -0.06400000303983688, 0.12800000607967377, 1.0400000493973494, 0.0, 0.0, 0.0, 0.0, 0.0, 1.7632285782274132E9, 0.0, 2025-11-15 12:42:58.227
88.0, -229.8636010265909, -148.41044994164258, -190.25058069592342, -164.22461690427735, -0.06400000303983688, 0.12800000607967377, 1.0400000493973494, 0.0, 0.0, 0.0, 0.0, 0.0, 1.7632285782280376E9, 0.0, 2025-11-15 12:42:58.228
88.0, -138.99525180319324, -63.71293564513326, -116.38381667109206, -79.50840310798958, -0.06400000303983688, 0.12800000607967377, 1.0400000493973494, 0.0, 0.0, 0.0, 0.0, 0.0, 1.7632285782280376E9, 0.0, 2025-11-15 12:42:58.228
89.0, -202.8914425461553, -123.0950671415776, -158.84290086803958, -146.07488241931424, -0.06400000303983688, 0.12800000607967377, 1.0400000493973494, 0.0, 0.0, 0.0, 0.0, 0.0, 1.7632285782288463E9, 0.0, 2025-11-15 12:42:58.228
89.0, -227.55982265388593, -150.4823545170948, -193.6277103559114, -179.8050401196815, -0.06400000303983688, 0.12800000607967377, 1.0400000493973494, 0.0, 0.0, 0.0, 0.0, 0.0, 1.7632285782288463E9, 0.0, 2025-11-15 12:42:58.228
90.0, -165.71309708664194, -77.1129971863702, -125.6325892615132, -82.36942657409236, -0.06400000303983688, 0.12800000607967377, 1.0400000493973494, 0.0, 0.0, 0.0, 0.0, 0.0, 1.7632285782395535E9, 0.0, 2025-11-15 12:42:58.239
90.0, -161.63286623498425, -81.80283173080534, -130.04941110918298, -123.87857618229464, -0.06400000303983688, 0.12800000607967377, 1.0400000493973494, 0.0, 0.0, 0.0, 0.0, 0.0, 1.7632285782395535E9, 0.0, 2025-11-15 12:42:58.239
91.0, -269.7010153545998, -170.2626853827387, -202.8166445470415, -187.5167138283141, -0.06400000303983688, 0.12800000607967377, 1.0400000493973494, 0.0, 0.0, 0.0, 0.0, 0.0, 1.7632285782545588E9, 0.0, 2025-11-15 12:42:58.254
91.0, -202.76054604770616, -120.58185437135398, -166.1357057816349, -140.00502479122952, -0.06400000303983688, 0.12800000607967377, 1.0400000493973494, 0.0, 0.0, 0.0, 0.0, 0.0, 1.7632285782545588E9, 0.0, 2025-11-15 12:42:58.254
92.0, -150.7160982643254, -75.83021150156856, -119.68240843201056, -97.14951119897887, -0.06400000303983688, 0.12800000607967377, 1.0400000493973494, 0.0, 0.0, 0.0, 0.0, 0.0, 1.7632285782702813E9, 0.0, 2025-11-15 12:42:58.270
92.0, -242.0631546820514, -150.94236221164465, -186.52938024001196, -172.34767960803583, -0.06400000303983688, 0.12800000607967377, 1.0400000493973494, 0.0, 0.0, 0.0, 0.0, 0.0, 1.7632285782702813E9, 0.0, 2025-11-15 12:42:58.270
93.0, -222.2716041165404, -138.44735645968467, -184.85764495981857, -167.3586530671455, -0.06400000303983688, 0.12800000607967377, 1.0400000493973494, 0.0, 0.0, 0.0, 0.0, 0.0, 1.7632285782709951E9, 0.0, 2025-11-15 12:42:58.270
93.0, -127.37164274090901, -52.66153127606958, -106.57405908731744, -79.34758740989491, -0.06400000303983688, 0.12800000607967377, 1.0400000493973494, 0.0, 0.0, 0.0, 0.0, 0.0, 1.7632285782709951E9, 0.0, 2025-11-15 12:42:58.270
94.0, -183.2158288792707, -104.80321645829827, -147.51848380221054, -143.13906095409766, -0.06400000303983688, 0.12800000607967377, 1.0400000493973494, 0.0, 0.0, 0.0, 0.0, 0.0, 1.7632285782845912E9, 0.0, 2025-11-15 12:42:58.284
94.0, -214.22333941189572, -145.04453998152167, -185.76644064905122, -174.5056018824689, -0.06400000303983688, 0.12800000607967377, 1.0400000493973494, 0.0, 0.0, 0.0, 0.0, 0.0, 1.7632285782845912E9, 0.0, 2025-11-15 12:42:58.284
95.0, -186.61913783894852, -89.83613683562726, -139.54875699663535, -117.61798365646973, -0.06400000303983688, 0.12800000607967377, 1.0400000493973494, 0.0, 0.0, 0.0, 0.0, 0.0, 1.7632285783002765E9, 0.0, 2025-11-15 12:42:58.300
95.0, -153.34524793317541, -69.40880327764899, -110.7739667375572, -97.09715259959921, -0.06400000303983688, 0.12800000607967377, 1.0400000493973494, 0.0, 0.0, 0.0, 0.0, 0.0, 1.7632285783002765E9, 0.0, 2025-11-15 12:42:58.300
96.0, -261.3273793538101, -153.83704477734864, -185.57196585135534, -169.27722174441442, -0.06400000303983688, 0.12800000607967377, 1.0400000493973494, 0.0, 0.0, 0.0, 0.0, 0.0, 1.763228578300986E9, 0.0, 2025-11-15 12:42:58.300
96.0, -183.13729098020121, -100.75664470624179, -148.80126948701218, -125.9280413580127, -0.06400000303983688, 0.12800000607967377, 1.0400000493973494, 0.0, 0.0, 0.0, 0.0, 0.0, 1.763228578300986E9, 0.0, 2025-11-15 12:42:58.300
97.0, -157.3132817861624, -66.32338581420481, -112.27366661978886, -90.14841848192737, -0.06400000303983688, 0.12800000607967377, 1.0400000493973494, 0.0, 0.0, 0.0, 0.0, 0.0, 1.7632285783145616E9, 0.0, 2025-11-15 12:42:58.314
97.0, -242.49324317695573, -140.33226603735238, -176.77572115557268, -170.4739897302352, -0.06400000303983688, 0.12800000607967377, 1.0400000493973494, 0.0, 0.0, 0.0, 0.0, 0.0, 1.7632285783145616E9, 0.0, 2025-11-15 12:42:58.314
98.0, -220.13612124184147, -125.86259310878813, -165.29422829160467, -149.42957267956808, -0.06400000303983688, 0.12800000607967377, 1.0400000493973494, 0.0, 0.0, 0.0, 0.0, 0.0, 1.7632285783306885E9, 0.0, 2025-11-15 12:42:58.330
98.0, -122.5209924983792, -57.12697182316333, -109.70809525018558, -80.0207694019191, -0.06400000303983688, 0.12800000607967377, 1.0400000493973494, 0.0, 0.0, 0.0, 0.0, 0.0, 1.7632285783306885E9, 0.0, 2025-11-15 12:42:58.330
99.0, -208.4489338803105, -123.38303943816572, -161.73384353378788, -154.30266232183203, -0.06400000303983688, 0.12800000607967377, 1.0400000493973494, 0.0, 0.0, 0.0, 0.0, 0.0, 1.7632285783459847E9, 0.0, 2025-11-15 12:42:58.345
99.0, -229.70278532849625, -142.87539800722152, -181.38701780093834, -166.34514017915353, -0.06400000303983688, 0.12800000607967377, 1.0400000493973494, 0.0, 0.0, 0.0, 0.0, 0.0, 1.7632285783459847E9, 0.0, 2025-11-15 12:42:58.345
100.0, -167.48206976568326, -83.20529421418905, -130.7525123008527, -108.18969586817548, -0.06400000303983688, 0.12800000607967377, 1.0400000493973494, 0.0, 0.0, 0.0, 0.0, 0.0, 1.76322857834666E9, 0.0, 2025-11-15 12:42:58.346
100.0, -183.90023057116196, -95.89103486388922, -130.04941110918298, -112.6289571155794, -0.06400000303983688, 0.12800000607967377, 1.0400000493973494, 0.0, 0.0, 0.0, 0.0, 0.0, 1.76322857834666E9, 0.0, 2025-11-15 12:42:58.346
0.0, -247.91048826277256, -156.76164654269814, -186.77434368710965, -179.80691006965935, -0.06400000303983688, 0.12800000607967377, 1.0400000493973494, 0.0, 0.0, 0.0, 0.0, 0.0, 1.7632285783474135E9, 0.0, 2025-11-15 12:42:58.347
1.0, -178.69989968277514, -104.29085016436875, -152.8160520894453, -123.78694863338023, -0.06400000303983688, 0.12800000607967377, 1.0400000493973494, 0.0, 0.0, 0.0, 0.0, 0.0, 1.76322857835962E9, 0.0, 2025-11-15 12:42:58.359
1.0, -97.46553274523467, -52.71388987544924, -108.77499021124095, -87.46130036376417, -0.06400000303983688, 0.12800000607967377, 1.0400000493973494, 0.0, 0.0, 0.0, 0.0, 0.0, 1.76322857835962E9, 0.0, 2025-11-15 12:42:58.359
2.0, -287.59456669259816, -159.91438220534474, -180.7493648584932, -170.94708707462996, -0.06400000303983688, 0.12800000607967377, 1.0400000493973494, 0.0, 0.0, 0.0, 0.0, 0.0, 1.7632285783752773E9, 0.0, 2025-11-15 12:42:58.375
2.0, -228.5490261921659, -134.49054230656475, -173.0788300493732, -160.12755650281906, -0.06400000303983688, 0.12800000607967377, 1.0400000493973494, 0.0, 0.0, 0.0, 0.0, 0.0, 1.7632285783752773E9, 0.0, 2025-11-15 12:42:58.375
3.0, -138.59321255795658, -57.766494715586305, -109.82590209878981, -79.34197755996138, -0.06400000303983688, 0.12800000607967377, 1.0400000493973494, 0.0, 0.0, 0.0, 0.0, 0.0, 1.763228578375978E9, 0.0, 2025-11-15 12:42:58.375
3.0, -202.4632240012288, -111.55747577827424, -144.27786049060524, -130.57112715300173, -0.06400000303983688, 0.12800000607967377, 1.0400000493973494, 0.0, 0.0, 0.0, 0.0, 0.0, 1.763228578375978E9, 0.0, 2025-11-15 12:42:58.375
4.0, -223.6609769500792, -135.0627469997853, -172.74223905336112, -164.69397434871644, -0.06400000303983688, 0.12800000607967377, 1.0400000493973494, 0.0, 0.0, 0.0, 0.0, 0.0, 1.7632285783897097E9, 0.0, 2025-11-15 12:42:58.389
4.0, -161.2270870897919, -76.43607529439032, -125.41006521414965, -91.28347811847925, -0.06400000303983688, 0.12800000607967377, 1.0400000493973494, 0.0, 0.0, 0.0, 0.0, 0.0, 1.7632285783897097E9, 0.0, 2025-11-15 12:42:58.389
5.0, -176.00343181472272, -82.62186982110143, -115.70128492917866, -90.25500563066453, -0.06400000303983688, 0.12800000607967377, 1.0400000493973494, 0.0, 0.0, 0.0, 0.0, 0.0, 1.763228578405268E9, 0.0, 2025-11-15 12:42:58.405
5.0, -237.56966488528997, -139.60298554599285, -174.709426430054, -179.54885697271675, -0.06400000303983688, 0.12800000607967377, 1.0400000493973494, 0.0, 0.0, 0.0, 0.0, 0.0, 1.763228578405268E9, 0.0, 2025-11-15 12:42:58.405
6.0, -176.0857096137479, -98.860515428707, -143.75427449680865, -124.92387821990997, -0.06400000303983688, 0.12800000607967377, 1.0400000493973494, 0.0, 0.0, 0.0, 0.0, 0.0, 1.763228578405976E9, 0.0, 2025-11-15 12:42:58.405
6.0, -141.52155422326177, -72.8495112368837, -119.64313948247582, -94.19686018396169, -0.06400000303983688, 0.12800000607967377, 1.0400000493973494, 0.0, 0.0, 0.0, 0.0, 0.0, 1.763228578405976E9, 0.0, 2025-11-15 12:42:58.405
7.0, -257.204139652662, -148.19353574421257, -175.84635601658374, -163.17557496670634, -0.06400000303983688, 0.12800000607967377, 1.0400000493973494, 0.0, 0.0, 0.0, 0.0, 0.0, 1.7632285784196105E9, 0.0, 2025-11-15 12:42:58.419
7.0, -220.97946868184954, -131.42008444294333, -165.87952263467014, -153.4069562824443, -0.06400000303983688, 0.12800000607967377, 1.0400000493973494, 0.0, 0.0, 0.0, 0.0, 0.0, 1.7632285784196105E9, 0.0, 2025-11-15 12:42:58.419
8.0, -123.84304713271558, -48.77577522210777, -95.14679477270693, -54.524001454003155, -0.06400000303983688, 0.12800000607967377, 1.0400000493973494, 0.0, 0.0, 0.0, 0.0, 0.0, 1.7632285784352696E9, 0.0, 2025-11-15 12:42:58.435
8.0, -168.85274309944361, -102.7911502821371, -144.16192359197885, -147.9990609465167, -0.06400000303983688, 0.12800000607967377, 1.0400000493973494, 0.0, 0.0, 0.0, 0.0, 0.0, 1.7632285784352696E9, 0.0, 2025-11-15 12:42:58.435
9.0, -236.76558639481664, -139.57680624630302, -173.3368831463158, -157.28523253649473, -0.06400000303983688, 0.12800000607967377, 1.0400000493973494, 0.0, 0.0, 0.0, 0.0, 0.0, 1.763228578435978E9, 0.0, 2025-11-15 12:42:58.435
9.0, -186.14230059459805, -88.18310105521232, -129.34070006757975, -103.69620607141405, -0.06400000303983688, 0.12800000607967377, 1.0400000493973494, 0.0, 0.0, 0.0, 0.0, 0.0, 1.763228578435978E9, 0.0, 2025-11-15 12:42:58.435
10.0, -192.45525171980262, -98.55384363234043, -132.75896862708032, -113.92483245022595, -0.06400000303983688, 0.12800000607967377, 1.0400000493973494, 0.0, 0.0, 0.0, 0.0, 0.0, 1.76322857846598E9, 0.0, 2025-11-15 12:42:58.465
10.0, -262.7541511869058, -163.19801436644047, -194.55333559494466, -180.55489006079733, -0.06400000303983688, 0.12800000607967377, 1.0400000493973494, 0.0, 0.0, 0.0, 0.0, 0.0, 1.76322857846598E9, 0.0, 2025-11-15 12:42:58.465
11.0, -192.41037292033434, -117.85172740370035, -159.12526331469417, -130.51502865366638, -0.06400000303983688, 0.12800000607967377, 1.0400000493973494, 0.0, 0.0, 0.0, 0.0, 0.0, 1.7632285784666567E9, 0.0, 2025-11-15 12:42:58.466
11.0, -144.27412059064955, -64.09814534056932, -104.03279706742615, -80.86785674188286, -0.06400000303983688, 0.12800000607967377, 1.0400000493973494, 0.0, 0.0, 0.0, 0.0, 0.0, 1.7632285784666567E9, 0.0, 2025-11-15 12:42:58.466
12.0, -240.9991531446576, -143.94500939454883, -185.383100903593, -170.55065767932683, -0.06400000303983688, 0.12800000607967377, 1.0400000493973494, 0.0, 0.0, 0.0, 0.0, 0.0, 1.763228578467428E9, 0.0, 2025-11-15 12:42:58.467
12.0, -215.96800274122506, -133.9145977133885, -175.11333562526852, -153.59769118018448, -0.06400000303983688, 0.12800000607967377, 1.0400000493973494, 0.0, 0.0, 0.0, 0.0, 0.0, 1.763228578467428E9, 0.0, 2025-11-15 12:42:58.467
13.0, -129.52021526545286, -57.19802992232144, -103.57278937287629, -67.49771440029144, -0.06400000303983688, 0.12800000607967377, 1.0400000493973494, 0.0, 0.0, 0.0, 0.0, 0.0, 1.7632285784795914E9, 0.0, 2025-11-15 12:42:58.479
13.0, -212.9199842773378, -119.02979588974267, -151.72774120233953, -134.47932260669768, -0.06400000303983688, 0.12800000607967377, 1.0400000493973494, 0.0, 0.0, 0.0, 0.0, 0.0, 1.7632285784795914E9, 0.0, 2025-11-15 12:42:58.479
14.0, -263.8761211736128, -178.28103088773787, -212.5459942817688, -197.1338665643707, -0.06400000303983688, 0.12800000607967377, 1.0400000493973494, 0.0, 0.0, 0.0, 0.0, 0.0, 1.763228578495244E9, 0.0, 2025-11-15 12:42:58.495
14.0, -160.3743898998946, -87.3004846656695, -132.66921102814376, -100.8239629054442, -0.06400000303983688, 0.12800000607967377, 1.0400000493973494, 0.0, 0.0, 0.0, 0.0, 0.0, 1.763228578495244E9, 0.0, 2025-11-15 12:42:58.495
15.0, -176.9010078040883, -95.33004987053573, -126.56943420041353, -105.70453234761953, -0.06400000303983688, 0.12800000607967377, 1.0400000493973494, 0.0, 0.0, 0.0, 0.0, 0.0, 1.763228578495978E9, 0.0, 2025-11-15 12:42:58.495
15.0, -253.92050749156624, -162.9997996687889, -196.19141177553684, -189.50447065476328, -0.06400000303983688, 0.12800000607967377, 1.0400000493973494, 0.0, 0.0, 0.0, 0.0, 0.0, 1.763228578495978E9, 0.0, 2025-11-15 12:42:58.495
16.0, -176.80751030519605, -108.60295481327921, -150.9199228119105, -120.86608676798642, -0.06400000303983688, 0.12800000607967377, 1.0400000493973494, 0.0, 0.0, 0.0, 0.0, 0.0, 1.7632285785095775E9, 0.0, 2025-11-15 12:42:58.509
16.0, -102.66773358359933, -62.5124277593568, -114.4259790442884, -91.57893021497875, -0.06400000303983688, 0.12800000607967377, 1.0400000493973494, 0.0, 0.0, 0.0, 0.0, 0.0, 1.7632285785095775E9, 0.0, 2025-11-15 12:42:58.509
17.0, -290.9903958523646, -172.671180954203, -197.9454248547554, -183.24387812893838, -0.06400000303983688, 0.12800000607967377, 1.0400000493973494, 0.0, 0.0, 0.0, 0.0, 0.0, 1.763228578541639E9, 0.0, 2025-11-15 12:42:58.541
17.0, -245.50573259126395, -154.7794995661825, -190.43196584377438, -170.150488384068, -0.06400000303983688, 0.12800000607967377, 1.0400000493973494, 0.0, 0.0, 0.0, 0.0, 0.0, 1.763228578541639E9, 0.0, 2025-11-15 12:42:58.541
18.0, -138.75402825605124, -68.82163898460567, -119.1307731885463, -76.80258549004793, -0.06400000303983688, 0.12800000607967377, 1.0400000493973494, 0.0, 0.0, 0.0, 0.0, 0.0, 1.763228578542416E9, 0.0, 2025-11-15 12:42:58.542
18.0, -214.40846445970237, -124.48257002513856, -155.02633296325803, -142.8866177070886, -0.06400000303983688, 0.12800000607967377, 1.0400000493973494, 0.0, 0.0, 0.0, 0.0, 0.0, 1.763228578542416E9, 0.0, 2025-11-15 12:42:58.542
19.0, -255.01629817858338, -155.97252765204757, -186.25075769331306, -171.5267715677619, -0.06400000303983688, 0.12800000607967377, 1.0400000493973494, 0.0, 0.0, 0.0, 0.0, 0.0, 1.7632285785430357E9, 0.0, 2025-11-15 12:42:58.543
19.0, -153.28727948386222, -78.38082327134907, -122.44432454928756, -105.13980745431036, -0.06400000303983688, 0.12800000607967377, 1.0400000493973494, 0.0, 0.0, 0.0, 0.0, 0.0, 1.7632285785430357E9, 0.0, 2025-11-15 12:42:58.543
20.0, -181.6432009479031, -101.43356659822166, -139.46834914758801, -126.2478028042242, -0.06400000303983688, 0.12800000607967377, 1.0400000493973494, 0.0, 0.0, 0.0, 0.0, 0.0, 1.763228578543836E9, 0.0, 2025-11-15 12:42:58.543
20.0, -249.61962254252285, -158.42964192293584, -192.11492082383484, -176.96458610333502, -0.06400000303983688, 0.12800000607967377, 1.0400000493973494, 0.0, 0.0, 0.0, 0.0, 0.0, 1.763228578543836E9, 0.0, 2025-11-15 12:42:58.543
21.0, -200.18936482816935, -130.42153115477413, -175.47610592097044, -149.2594072315842, -0.06400000303983688, 0.12800000607967377, 1.0400000493973494, 0.0, 0.0, 0.0, 0.0, 0.0, 1.7632285785546136E9, 0.0, 2025-11-15 12:42:58.554
21.0, -133.6902037160471, -61.70834926888347, -101.48218529764563, -68.90765668358654, -0.06400000303983688, 0.12800000607967377, 1.0400000493973494, 0.0, 0.0, 0.0, 0.0, 0.0, 1.7632285785546136E9, 0.0, 2025-11-15 12:42:58.554
22.0, -234.38327012304217, -153.12272388581187, -179.92658686824143, -175.81269691698253, -0.06400000303983688, 0.12800000607967377, 1.0400000493973494, 0.0, 0.0, 0.0, 0.0, 0.0, 1.763228578569602E9, 0.0, 2025-11-15 12:42:58.569
22.0, -206.6556518515572, -136.93643687758595, -173.6398150427267, -154.9964137636125, -0.06400000303983688, 0.12800000607967377, 1.0400000493973494, 0.0, 0.0, 0.0, 0.0, 0.0, 1.763228578569602E9, 0.0, 2025-11-15 12:42:58.569
23.0, -157.50588663388044, -74.0724585223943, -111.00023068487644, -79.57385135721415, -0.06400000303983688, 0.12800000607967377, 1.0400000493973494, 0.0, 0.0, 0.0, 0.0, 0.0, 1.7632285785853064E9, 0.0, 2025-11-15 12:42:58.585
23.0, -225.26539403107017, -129.5763137647882, -157.05335873924196, -137.2842475734651, -0.06400000303983688, 0.12800000607967377, 1.0400000493973494, 0.0, 0.0, 0.0, 0.0, 0.0, 1.7632285785853064E9, 0.0, 2025-11-15 12:42:58.585
24.0, -251.9009615154937, -162.47247377503663, -195.15171958785504, -189.47455145511776, -0.06400000303983688, 0.12800000607967377, 1.0400000493973494, 0.0, 0.0, 0.0, 0.0, 0.0, 1.763228578586002E9, 0.0, 2025-11-15 12:42:58.586
24.0, -169.342669993639, -102.15536728966981, -146.1777296680957, -114.91964583843946, -0.06400000303983688, 0.12800000607967377, 1.0400000493973494, 0.0, 0.0, 0.0, 0.0, 0.0, 1.763228578586002E9, 0.0, 2025-11-15 12:42:58.586
25.0, -173.76323174126446, -95.24403217155486, -132.00350883603096, -117.7245708052069, -0.06400000303983688, 0.12800000607967377, 1.0400000493973494, 0.0, 0.0, 0.0, 0.0, 0.0, 1.7632285785995562E9, 0.0, 2025-11-15 12:42:58.599
25.0, -252.21137321181595, -163.04841836821288, -192.10370112396777, -180.61098856013268, -0.06400000303983688, 0.12800000607967377, 1.0400000493973494, 0.0, 0.0, 0.0, 0.0, 0.0, 1.7632285785995562E9, 0.0, 2025-11-15 12:42:58.599
26.0, -188.16932637058198, -109.70248540025204, -152.82353188935667, -131.9922891361639, -0.06400000303983688, 0.12800000607967377, 1.0400000493973494, 0.0, 0.0, 0.0, 0.0, 0.0, 1.763228578615292E9, 0.0, 2025-11-15 12:42:58.615
26.0, -103.16888017766178, -60.534020682796836, -108.5318967141211, -80.97257394064218, -0.06400000303983688, 0.12800000607967377, 1.0400000493973494, 0.0, 0.0, 0.0, 0.0, 0.0, 1.763228578615292E9, 0.0, 2025-11-15 12:42:58.615
27.0, -267.4963443307206, -158.21646762546152, -182.18922634143382, -167.54377811495215, -0.06400000303983688, 0.12800000607967377, 1.0400000493973494, 0.0, 0.0, 0.0, 0.0, 0.0, 1.7632285786159923E9, 0.0, 2025-11-15 12:42:58.615
27.0, -238.6691954722628, -148.90411673579365, -185.55513630155474, -172.2635318590328, -0.06400000303983688, 0.12800000607967377, 1.0400000493973494, 0.0, 0.0, 0.0, 0.0, 0.0, 1.7632285786159923E9, 0.0, 2025-11-15 12:42:58.615
28.0, -142.95019600633532, -67.60243159905076, -112.98237766139209, -81.29420533683151, -0.06400000303983688, 0.12800000607967377, 1.0400000493973494, 0.0, 0.0, 0.0, 0.0, 0.0, 1.7632285786296284E9, 0.0, 2025-11-15 12:42:58.629
28.0, -205.77677536197007, -117.7208309052512, -149.97746802307665, -139.0980990519747, -0.06400000303983688, 0.12800000607967377, 1.0400000493973494, 0.0, 0.0, 0.0, 0.0, 0.0, 1.7632285786296284E9, 0.0, 2025-11-15 12:42:58.629
29.0, -250.3825621334836, -158.09305092692375, -193.79039600398391, -180.0126045672223, -0.06400000303983688, 0.12800000607967377, 1.0400000493973494, 0.0, 0.0, 0.0, 0.0, 0.0, 1.763228578645275E9, 0.0, 2025-11-15 12:42:58.645
29.0, -166.43676772806793, -94.32027688249946, -143.8141128960997, -110.76087708771229, -0.06400000303983688, 0.12800000607967377, 1.0400000493973494, 0.0, 0.0, 0.0, 0.0, 0.0, 1.763228578645275E9, 0.0, 2025-11-15 12:42:58.645
30.0, -174.81788352876902, -99.55239692050964, -139.8124199435115, -122.62383974716067, -0.06400000303983688, 0.12800000607967377, 1.0400000493973494, 0.0, 0.0, 0.0, 0.0, 0.0, 1.7632285786459885E9, 0.0, 2025-11-15 12:42:58.645
30.0, -249.4550669444725, -162.99231986887753, -193.63706010580063, -180.10610206611454, -0.06400000303983688, 0.12800000607967377, 1.0400000493973494, 0.0, 0.0, 0.0, 0.0, 0.0, 1.7632285786459885E9, 0.0, 2025-11-15 12:42:58.645
31.0, -192.45151181984693, -124.87899942044169, -168.0748439086601, -145.9944745702669, -0.06400000303983688, 0.12800000607967377, 1.0400000493973494, 0.0, 0.0, 0.0, 0.0, 0.0, 1.7632285786596763E9, 0.0, 2025-11-15 12:42:58.659
31.0, -150.24300091993064, -72.74853393808007, -114.4222391443327, -84.47686019912362, -0.06400000303983688, 0.12800000607967377, 1.0400000493973494, 0.0, 0.0, 0.0, 0.0, 0.0, 1.7632285786596763E9, 0.0, 2025-11-15 12:42:58.659
32.0, -250.0871100369841, -158.46704092249274, -190.72741794027388, -184.74731791112572, -0.06400000303983688, 0.12800000607967377, 1.0400000493973494, 0.0, 0.0, 0.0, 0.0, 0.0, 1.7632285786916769E9, 0.0, 2025-11-15 12:42:58.691
32.0, -203.42063838988543, -131.78285473864526, -171.54173116758466, -156.41383584681898, -0.06400000303983688, 0.12800000607967377, 1.0400000493973494, 0.0, 0.0, 0.0, 0.0, 0.0, 1.7632285786916769E9, 0.0, 2025-11-15 12:42:58.691
33.0, -158.53809902165085, -78.97920726425946, -124.35915332660079, -89.43222764041275, -0.06400000303983688, 0.12800000607967377, 1.0400000493973494, 0.0, 0.0, 0.0, 0.0, 0.0, 1.763228578692436E9, 0.0, 2025-11-15 12:42:58.692
33.0, -219.22171570267528, -131.29292784444988, -165.46439373958856, -156.2604999486357, -0.06400000303983688, 0.12800000607967377, 1.0400000493973494, 0.0, 0.0, 0.0, 0.0, 0.0, 1.763228578692436E9, 0.0, 2025-11-15 12:42:58.692
34.0, -235.3743436113, -148.39549034181982, -183.47575192619115, -171.6726276660338, -0.06400000303983688, 0.12800000607967377, 1.0400000493973494, 0.0, 0.0, 0.0, 0.0, 0.0, 1.7632285786931272E9, 0.0, 2025-11-15 12:42:58.693
34.0, -169.73909938894212, -93.00009219814092, -139.67778354510665, -101.72153889480978, -0.06400000303983688, 0.12800000607967377, 1.0400000493973494, 0.0, 0.0, 0.0, 0.0, 0.0, 1.7632285786931272E9, 0.0, 2025-11-15 12:42:58.693
35.0, -119.64313948247582, -79.05774516332895, -124.60224682372063, -98.75953812990338, -0.06400000303983688, 0.12800000607967377, 1.0400000493973494, 0.0, 0.0, 0.0, 0.0, 0.0, 1.763228578693874E9, 0.0, 2025-11-15 12:42:58.693
35.0, -291.9814693406224, -176.1605076128617, -205.03253527078778, -205.73563646245748, -0.06400000303983688, 0.12800000607967377, 1.0400000493973494, 0.0, 0.0, 0.0, 0.0, 0.0, 1.763228578693874E9, 0.0, 2025-11-15 12:42:58.693
36.0, -213.07706007547677, -129.36313946731389, -171.92320096306503, -145.16421678010374, -0.06400000303983688, 0.12800000607967377, 1.0400000493973494, 0.0, 0.0, 0.0, 0.0, 0.0, 1.7632285787046323E9, 0.0, 2025-11-15 12:42:58.704
36.0, -141.42057692445815, -63.22674865089357, -104.0888955667615, -77.40096948295832, -0.06400000303983688, 0.12800000607967377, 1.0400000493973494, 0.0, 0.0, 0.0, 0.0, 0.0, 1.7632285787046323E9, 0.0, 2025-11-15 12:42:58.704
37.0, -253.72603269387037, -161.08871079143137, -188.80510936304927, -180.3491955632344, -0.06400000303983688, 0.12800000607967377, 1.0400000493973494, 0.0, 0.0, 0.0, 0.0, 0.0, 1.7632285787196019E9, 0.0, 2025-11-15 12:42:58.719
37.0, -231.2941127596423, -150.01112712267786, -187.58590197749436, -166.8556365231052, -0.06400000303983688, 0.12800000607967377, 1.0400000493973494, 0.0, 0.0, 0.0, 0.0, 0.0, 1.7632285787196019E9, 0.0, 2025-11-15 12:42:58.719
38.0, -133.63036531675607, -61.52135427109897, -109.84834149852395, -70.04084637016058, -0.06400000303983688, 0.12800000607967377, 1.0400000493973494, 0.0, 0.0, 0.0, 0.0, 0.0, 1.7632285787352984E9, 0.0, 2025-11-15 12:42:58.735
38.0, -226.86981111206114, -132.3587993318215, -165.24373964220285, -155.08991126250476, -0.06400000303983688, 0.12800000607967377, 1.0400000493973494, 0.0, 0.0, 0.0, 0.0, 0.0, 1.7632285787352984E9, 0.0, 2025-11-15 12:42:58.735
39.0, -245.99565948545933, -151.50708710495383, -185.66359340026975, -167.86540951114148, -0.06400000303983688, 0.12800000607967377, 1.0400000493973494, 0.0, 0.0, 0.0, 0.0, 0.0, 1.7632285787359743E9, 0.0, 2025-11-15 12:42:58.735
39.0, -174.90764112770557, -95.25899177137762, -144.6294110864401, -113.80141575168818, -0.06400000303983688, 0.12800000607967377, 1.0400000493973494, 0.0, 0.0, 0.0, 0.0, 0.0, 1.7632285787359743E9, 0.0, 2025-11-15 12:42:58.735
40.0, -150.56837221607566, -79.28213916067034, -121.92447845544666, -100.63696790765971, -0.06400000303983688, 0.12800000607967377, 1.0400000493973494, 0.0, 0.0, 0.0, 0.0, 0.0, 1.7632285787496228E9, 0.0, 2025-11-15 12:42:58.749
40.0, -255.91387416794896, -169.6007230905816, -203.5403151884675, -187.87761417403817, -0.06400000303983688, 0.12800000607967377, 1.0400000493973494, 0.0, 0.0, 0.0, 0.0, 0.0, 1.7632285787496228E9, 0.0, 2025-11-15 12:42:58.749
41.0, -219.76400119625032, -134.8420929023996, -170.042031285353, -134.66631760448217, -0.06400000303983688, 0.144000006839633, 1.0400000493973494, 0.0, 0.0, 0.0, 0.0, 0.0, 1.763228578781654E9, 0.0, 2025-11-15 12:42:58.781
41.0, -146.34602516610175, -75.42630230635405, -120.73519026953727, -92.73455930128694, -0.06400000303983688, 0.144000006839633, 1.0400000493973494, 0.0, 0.0, 0.0, 0.0, 0.0, 1.763228578781654E9, 0.0, 2025-11-15 12:42:58.781
42.0, -258.8983143325895, -172.48044605646282, -206.59581345226616, -197.65745255816728, -0.06400000303983688, 0.144000006839633, 1.0400000493973494, 0.0, 0.0, 0.0, 0.0, 0.0, 1.7632285787824204E9, 0.0, 2025-11-15 12:42:58.782
42.0, -220.96824898198247, -149.02005363442004, -185.22228520549834, -161.4814002867788, -0.06400000303983688, 0.144000006839633, 1.0400000493973494, 0.0, 0.0, 0.0, 0.0, 0.0, 1.7632285787824204E9, 0.0, 2025-11-15 12:42:58.782
43.0, -153.47427448164672, -75.76289330236614, -119.83013448026031, -83.67278170865029, -0.06400000303983688, 0.144000006839633, 1.0400000493973494, 0.0, 0.0, 0.0, 0.0, 0.0, 1.763228578783043E9, 0.0, 2025-11-15 12:42:58.783
43.0, -214.53936095815152, -122.2049709521234, -153.38825678266585, -139.19907635077834, -0.06400000303983688, 0.144000006839633, 1.0400000493973494, 0.0, 0.0, 0.0, 0.0, 0.0, 1.763228578783043E9, 0.0, 2025-11-15 12:42:58.783
44.0, -243.62456291355193, -148.79565963707864, -185.72343179956079, -164.42096165195107, -0.06400000303983688, 0.144000006839633, 1.0400000493973494, 0.0, 0.0, 0.0, 0.0, 0.0, 1.7632285787838633E9, 0.0, 2025-11-15 12:42:58.783
44.0, -166.09643683210015, -91.24981901887804, -139.38981124851853, -113.30774895753711, -0.06400000303983688, 0.144000006839633, 1.0400000493973494, 0.0, 0.0, 0.0, 0.0, 0.0, 1.7632285787838633E9, 0.0, 2025-11-15 12:42:58.783
45.0, -140.2499882383272, -85.39313568826765, -126.15804520528764, -113.2030317587778, -0.06400000303983688, 0.144000006839633, 1.0400000493973494, 0.0, 0.0, 0.0, 0.0, 0.0, 1.763228578794566E9, 0.0, 2025-11-15 12:42:58.794
45.0, -267.3430084325373, -161.45522098708898, -188.92852606158704, -174.25689853541553, -0.06400000303983688, 0.144000006839633, 1.0400000493973494, 0.0, 0.0, 0.0, 0.0, 0.0, 1.763228578794566E9, 0.0, 2025-11-15 12:42:58.794
46.0, -222.1425775680691, -129.26590206846595, -171.10416287276894, -145.66910327412188, -0.06400000303983688, 0.144000006839633, 1.0400000493973494, 0.0, 0.0, 0.0, 0.0, 0.0, 1.7632285788096137E9, 0.0, 2025-11-15 12:42:58.809
46.0, -156.05854535102844, -75.37394370697439, -117.9452249025926, -93.75181208923459, -0.06400000303983688, 0.144000006839633, 1.0400000493973494, 0.0, 0.0, 0.0, 0.0, 0.0, 1.7632285788096137E9, 0.0, 2025-11-15 12:42:58.809
47.0, -243.153335519135, -152.0007538991049, -181.91621364466846, -169.80641758814454, -0.06400000303983688, 0.144000006839633, 1.0400000493973494, 0.0, 0.0, 0.0, 0.0, 0.0, 1.7632285788253708E9, 0.0, 2025-11-15 12:42:58.825
47.0, -220.08563259243965, -142.53880701120943, -177.00198510289192, -164.27136565372348, -0.06400000303983688, 0.144000006839633, 1.0400000493973494, 0.0, 0.0, 0.0, 0.0, 0.0, 1.7632285788253708E9, 0.0, 2025-11-15 12:42:58.825
48.0, -145.50828757602721, -73.66854932717979, -117.67221220582724, -95.72647926583886, -0.06400000303983688, 0.144000006839633, 1.0400000493973494, 0.0, 0.0, 0.0, 0.0, 0.0, 1.7632285788260403E9, 0.0, 2025-11-15 12:42:58.826
48.0, -221.09914548043162, -132.41863773111254, -160.71846069581807, -145.07445918116719, -0.06400000303983688, 0.144000006839633, 1.0400000493973494, 0.0, 0.0, 0.0, 0.0, 0.0, 1.7632285788260403E9, 0.0, 2025-11-15 12:42:58.826
49.0, -238.702854571864, -152.24758729618043, -182.7128123352304, -172.12889546062797, -0.06400000303983688, 0.144000006839633, 1.0400000493973494, 0.0, 0.0, 0.0, 0.0, 0.0, 1.7632285788559513E9, 0.0, 2025-11-15 12:42:58.855
49.0, -172.88061535172164, -93.73311258945614, -136.42781048361212, -100.40135421045125, -0.06400000303983688, 0.144000006839633, 1.0400000493973494, 0.0, 0.0, 0.0, 0.0, 0.0, 1.7632285788559513E9, 0.0, 2025-11-15 12:42:58.855
50.0, -166.72474002465606, -96.54177745617926, -131.7304961392656, -112.3877335684374, -0.06400000303983688, 0.144000006839633, 1.0400000493973494, 0.0, 0.0, 0.0, 0.0, 0.0, 1.7632285788566763E9, 0.0, 2025-11-15 12:42:58.856
50.0, -249.72807964123785, -160.19487470202148, -189.70642525237054, -174.73186582978815, -0.06400000303983688, 0.144000006839633, 1.0400000493973494, 0.0, 0.0, 0.0, 0.0, 0.0, 1.7632285788566763E9, 0.0, 2025-11-15 12:42:58.856
51.0, -209.96920321229845, -138.29402056150138, -177.3049169993028, -149.34542493056506, -0.06400000303983688, 0.12800000607967377, 1.0400000493973494, 0.0, 0.0, 0.0, 0.0, 0.0, 1.7632285788574452E9, 0.0, 2025-11-15 12:42:58.857
51.0, -151.85863770078868, -80.78931884281337, -128.40572507865727, -101.12689480185509, -0.06400000303983688, 0.12800000607967377, 1.0400000493973494, 0.0, 0.0, 0.0, 0.0, 0.0, 1.7632285788574452E9, 0.0, 2025-11-15 12:42:58.857
52.0, -233.35853753518313, -152.31116559542716, -180.47635216172785, -174.07364343758672, -0.06400000303983688, 0.12800000607967377, 1.0400000493973494, 0.0, 0.0, 0.0, 0.0, 0.0, 1.763228578869665E9, 0.0, 2025-11-15 12:42:58.869
52.0, -230.706948466599, -149.7418543258682, -184.1227546185255, -164.67901474889368, -0.06400000303983688, 0.12800000607967377, 1.0400000493973494, 0.0, 0.0, 0.0, 0.0, 0.0, 1.763228578869665E9, 0.0, 2025-11-15 12:42:58.869
53.0, -127.47075008973479, -59.69254319276661, -108.50571741443127, -74.60726421605796, -0.06400000303983688, 0.12800000607967377, 1.0400000493973494, 0.0, 0.0, 0.0, 0.0, 0.0, 1.7632285788852675E9, 0.0, 2025-11-15 12:42:58.885
53.0, -216.02036134060472, -124.59850692376494, -155.8939897529781, -153.01426678709686, -0.06400000303983688, 0.12800000607967377, 1.0400000493973494, 0.0, 0.0, 0.0, 0.0, 0.0, 1.7632285788852675E9, 0.0, 2025-11-15 12:42:58.885
54.0, -253.72977259382606, -156.27171964850277, -191.24726403411478, -177.75744489394128, -0.06400000303983688, 0.12800000607967377, 1.0400000493973494, 0.0, 0.0, 0.0, 0.0, 0.0, 1.7632285788859975E9, 0.0, 2025-11-15 12:42:58.885
54.0, -141.16626372747123, -80.51256624609232, -126.67415139917284, -95.42728726938367, -0.06400000303983688, 0.12800000607967377, 1.0400000493973494, 0.0, 0.0, 0.0, 0.0, 0.0, 1.7632285788859975E9, 0.0, 2025-11-15 12:42:58.885
55.0, -188.31892236880958, -98.68474013078958, -128.19629068113863, -108.89466700982302, -0.06400000303983688, 0.12800000607967377, 1.0400000493973494, 0.0, 0.0, 0.0, 0.0, 0.0, 1.7632285788996525E9, 0.0, 2025-11-15 12:42:58.899
55.0, -258.0755363423377, -162.73800667189062, -191.78580962773412, -170.8909885752946, -0.06400000303983688, 0.12800000607967377, 1.0400000493973494, 0.0, 0.0, 0.0, 0.0, 0.0, 1.7632285788996525E9, 0.0, 2025-11-15 12:42:58.899
56.0, -213.2864944729954, -127.18651769310236, -164.4134818520397, -142.8417389076203, -0.06400000303983688, 0.12800000607967377, 1.0400000493973494, 0.0, 0.0, 0.0, 0.0, 0.0, 1.7632285789153569E9, 0.0, 2025-11-15 12:42:58.915
56.0, -127.16033839341253, -56.43135043140501, -93.40400139335543, -61.52883407101035, -0.06400000303983688, 0.12800000607967377, 1.0400000493973494, 0.0, 0.0, 0.0, 0.0, 0.0, 1.7632285789153569E9, 0.0, 2025-11-15 12:42:58.915
57.0, -233.90830282866955, -146.02065386995673, -171.68010746594518, -160.6698419963941, -0.06400000303983688, 0.12800000607967377, 1.0400000493973494, 0.0, 0.0, 0.0, 0.0, 0.0, 1.7632285789159956E9, 0.0, 2025-11-15 12:42:58.915
57.0, -221.17394347954541, -147.9579220470041, -181.2729508522898, -162.76418597158045, -0.06400000303983688, 0.12800000607967377, 1.0400000493973494, 0.0, 0.0, 0.0, 0.0, 0.0, 1.7632285789159956E9, 0.0, 2025-11-15 12:42:58.915
58.0, -115.0916812364012, -66.30094641447067, -111.85666777472943, -74.99247391149402, -0.06400000303983688, 0.12800000607967377, 1.0400000493973494, 0.0, 0.0, 0.0, 0.0, 0.0, 1.7632285789460256E9, 0.0, 2025-11-15 12:42:58.946
58.0, -251.23899922333658, -141.289680426009, -166.16001513134688, -146.78733336087316, -0.06400000303983688, 0.12800000607967377, 1.0400000493973494, 0.0, 0.0, 0.0, 0.0, 0.0, 1.7632285789460256E9, 0.0, 2025-11-15 12:42:58.946
59.0, -203.22990349214524, -136.29691398516297, -173.05265074968338, -159.4805538104847, -0.06400000303983688, 0.12800000607967377, 1.0400000493973494, 0.0, 0.0, 0.0, 0.0, 0.0, 1.7632285789467096E9, 0.0, 2025-11-15 12:42:58.946
59.0, -189.1304806591943, -98.66978053096682, -136.22959578596056, -96.80357045307755, -0.06400000303983688, 0.12800000607967377, 1.0400000493973494, 0.0, 0.0, 0.0, 0.0, 0.0, 1.7632285789467096E9, 0.0, 2025-11-15 12:42:58.946
60.0, -192.91899931430817, -102.73505178280175, -123.5027162367478, -94.72044617775828, -0.06400000303983688, 0.12800000607967377, 1.0400000493973494, 0.0, 0.0, 0.0, 0.0, 0.0, 1.7632285789474485E9, 0.0, 2025-11-15 12:42:58.947
60.0, -264.1154747707769, -177.80980349332094, -203.18502469267696, -199.84903393220156, -0.06400000303983688, 0.12800000607967377, 1.0400000493973494, 0.0, 0.0, 0.0, 0.0, 0.0, 1.7632285789474485E9, 0.0, 2025-11-15 12:42:58.947
61.0, -211.9513501888141, -126.40487860236317, -156.7429470429197, -137.22066927421838, -0.06400000303983688, 0.12800000607967377, 1.0400000493973494, 0.0, 0.0, 0.0, 0.0, 0.0, 1.7632285789596052E9, 0.0, 2025-11-15 12:42:58.959
61.0, -154.84307786542922, -78.72115416731685, -112.95245846174657, -79.16620226204395, -0.06400000303983688, 0.12800000607967377, 1.0400000493973494, 0.0, 0.0, 0.0, 0.0, 0.0, 1.7632285789596052E9, 0.0, 2025-11-15 12:42:58.959
