%OpenBCI Raw EXG Data
%Number of channels = 4
%Sample Rate = 200 Hz
%Board = OpenBCI_GUI$BoardGanglionBLE
Sample Index, EXG Channel 0, EXG Channel 1, EXG Channel 2, EXG Channel 3, Accel Channel 0, Accel Channel 1, Accel Channel 2, Other, Other, Other, Other, Other, Timestamp, Marker Channel, Timestamp (Formatted)
40.0, -11.354336265474558, -18.306810283102095, -23.37063482310623, -16.204986508004367, 0.0, 0.0, 1.0240000486373901, 0.0, 0.0, 0.0, 0.0, 0.0, 1.7632285645588877E9, 0.0, 2025-11-15 12:42:44.558
40.0, -255.86338551854715, 142.90157730691135, 179.07014977838844, 164.88096934650093, 0.0, 0.0, 1.0240000486373901, 0.0, 0.0, 0.0, 0.0, 0.0, 1.7632285645588877E9, 0.0, 2025-11-15 12:42:44.558
0.0, -250.91362792719156, -162.45564422523603, -202.75493619777262, -159.50860306015238, 0.0, 0.0, 1.0240000486373901, 0.0, 0.0, 0.0, 0.0, 0.0, 1.7632285645907965E9, 0.0, 2025-11-15 12:42:44.590
1.0, -178.086556090042, -97.46740269521251, -146.74993436131626, -88.29716800386086, 0.0, 0.12800000607967377, 1.0240000486373901, 0.0, 0.0, 0.0, 0.0, 0.0, 1.7632285646042483E9, 0.0, 2025-11-15 12:42:44.604
1.0, -249.21571334730834, -160.77642914513126, -196.76735636871308, -153.1993918349035, 0.0, 0.12800000607967377, 1.0240000486373901, 0.0, 0.0, 0.0, 0.0, 0.0, 1.7632285646042483E9, 0.0, 2025-11-15 12:42:44.604
2.0, -257.92220044415444, -177.1758904508315, -215.83336634282023, -180.0256942170672, -0.0800000037997961, 0.12800000607967377, 1.0240000486373901, 0.0, 0.0, 0.0, 0.0, 0.0, 1.7632285646373377E9, 0.0, 2025-11-15 12:42:44.637
2.0, -202.78485539741814, -125.99535955721512, -177.98183889128268, -132.29335108259693, -0.0800000037997961, 0.12800000607967377, 1.0240000486373901, 0.0, 0.0, 0.0, 0.0, 0.0, 1.7632285646373377E9, 0.0, 2025-11-15 12:42:44.637
3.0, -203.9479642836377, -115.73681397875771, -157.90231602918357, -122.09838380338624, -0.0800000037997961, 0.12800000607967377, 1.0240000486373901, 0.0, 0.0, 0.0, 0.0, 0.0, 1.7632285646380825E9, 0.0, 2025-11-15 12:42:44.638
3.0, -263.62554787658155, -175.45553647121415, -217.74819512013346, -198.2614464010112, -0.0800000037997961, 0.12800000607967377, 1.0240000486373901, 0.0, 0.0, 0.0, 0.0, 0.0, 1.7632285646380825E9, 0.0, 2025-11-15 12:42:44.638
4.0, -197.51159645989537, -125.26981896581128, -174.29803743492812, -139.3804614986293, -0.0800000037997961, 0.12800000607967377, 1.0240000486373901, 0.0, 0.0, 0.0, 0.0, 0.0, 1.763228564638829E9, 0.0, 2025-11-15 12:42:44.638
4.0, -179.30202357564121, -88.72351659880951, -134.44940340705216, -91.3190071680583, -0.0800000037997961, 0.12800000607967377, 1.0240000486373901, 0.0, 0.0, 0.0, 0.0, 0.0, 1.763228564638829E9, 0.0, 2025-11-15 12:42:44.638
5.0, -264.6727198641747, -161.3149747387506, -200.0210693301633, -178.35021903691813, -0.0800000037997961, 0.12800000607967377, 1.0240000486373901, 0.0, 0.0, 0.0, 0.0, 0.0, 1.7632285646497238E9, 0.0, 2025-11-15 12:42:44.649
5.0, -227.28494000714272, -150.62634066538885, -193.62958030588925, -170.11121943453327, -0.0800000037997961, 0.12800000607967377, 1.0240000486373901, 0.0, 0.0, 0.0, 0.0, 0.0, 1.7632285646497238E9, 0.0, 2025-11-15 12:42:44.649
6.0, -153.39199668262154, -89.05636769486591, -147.18750265613198, -106.59649848705158, -0.0800000037997961, 0.12800000607967377, 1.0240000486373901, 0.0, 0.0, 0.0, 0.0, 0.0, 1.7632285646504385E9, 0.0, 2025-11-15 12:42:44.650
6.0, -251.45965332072228, -149.8334818747826, -182.59687543660402, -166.66303167538717, -0.0800000037997961, 0.12800000607967377, 1.0240000486373901, 0.0, 0.0, 0.0, 0.0, 0.0, 1.7632285646504385E9, 0.0, 2025-11-15 12:42:44.650
7.0, -278.3906729016453, -169.25478234468028, -210.8817388014868, -190.24684079596773, -0.0800000037997961, 0.12800000607967377, 1.0240000486373901, 0.0, 0.0, 0.0, 0.0, 0.0, 1.7632285646641366E9, 0.0, 2025-11-15 12:42:44.664
7.0, -190.6451401412487, -99.6589840692468, -150.34023831877857, -113.99402059940621, -0.0800000037997961, 0.12800000607967377, 1.0240000486373901, 0.0, 0.0, 0.0, 0.0, 0.0, 1.7632285646641366E9, 0.0, 2025-11-15 12:42:44.664
8.0, -208.49568262975663, -110.58697173977271, -156.75790664274246, -133.6397150666453, -0.0800000037997961, 0.12800000607967377, 1.0240000486373901, 0.0, 0.0, 0.0, 0.0, 0.0, 1.763228564679734E9, 0.0, 2025-11-15 12:42:44.679
8.0, -249.91881453897804, -152.18213904695585, -192.17475922312587, -185.98709474643692, -0.0800000037997961, 0.12800000607967377, 1.0240000486373901, 0.0, 0.0, 0.0, 0.0, 0.0, 1.763228564679734E9, 0.0, 2025-11-15 12:42:44.679
9.0, -218.2942205136642, -127.55115793878213, -182.3837011391297, -167.5381682650186, -0.0800000037997961, 0.12800000607967377, 1.0240000486373901, 0.0, 0.0, 0.0, 0.0, 0.0, 1.7632285646804345E9, 0.0, 2025-11-15 12:42:44.680
9.0, -172.8581759519875, -84.72182364622131, -136.89529797807336, -113.26100020809099, -0.0800000037997961, 0.12800000607967377, 1.0240000486373901, 0.0, 0.0, 0.0, 0.0, 0.0, 1.7632285646804345E9, 0.0, 2025-11-15 12:42:44.680
10.0, -224.31919934228063, -132.64490167843178, -171.29115787055343, -163.60379351163283, -0.0800000037997961, 0.12800000607967377, 1.0240000486373901, 0.0, 0.0, 0.0, 0.0, 0.0, 1.7632285646941314E9, 0.0, 2025-11-15 12:42:44.694
10.0, -243.86765641067177, -142.26392436446622, -182.52581733744591, -164.82300089718774, -0.0800000037997961, 0.12800000607967377, 1.0240000486373901, 0.0, 0.0, 0.0, 0.0, 0.0, 1.7632285646941314E9, 0.0, 2025-11-15 12:42:44.694
11.0, -167.05759112071246, -83.12114646518603, -128.78719487413764, -79.47848390834406, -0.0800000037997961, 0.144000006839633, 1.0240000486373901, 0.0, 0.0, 0.0, 0.0, 0.0, 1.76322856470973E9, 0.0, 2025-11-15 12:42:44.709
11.0, -226.23776801954955, -130.22144650714472, -167.62605591397732, -164.23583660414442, -0.0800000037997961, 0.144000006839633, 1.0240000486373901, 0.0, 0.0, 0.0, 0.0, 0.0, 1.76322856470973E9, 0.0, 2025-11-15 12:42:44.709
12.0, -244.09205040801316, -147.32026910455897, -191.0864483360201, -173.79502089088783, 0.0, 0.144000006839633, 1.0240000486373901, 0.0, 0.0, 0.0, 0.0, 0.0, 1.7632285647104352E9, 0.0, 2025-11-15 12:42:44.710
12.0, -182.8661482334137, -108.11115796910599, -157.7415003310889, -118.96060774056241, 0.0, 0.144000006839633, 1.0240000486373901, 0.0, 0.0, 0.0, 0.0, 0.0, 1.7632285647104352E9, 0.0, 2025-11-15 12:42:44.710
13.0, -184.89691390935332, -108.7357212617062, -156.7803460424766, -140.36405518697575, 0.0, 0.144000006839633, 1.0240000486373901, 0.0, 0.0, 0.0, 0.0, 0.0, 1.7632285647241292E9, 0.0, 2025-11-15 12:42:44.724
13.0, -213.00974187627435, -145.48397822631523, -195.46961108408868, -195.35928403539583, 0.0, 0.144000006839633, 1.0240000486373901, 0.0, 0.0, 0.0, 0.0, 0.0, 1.7632285647241292E9, 0.0, 2025-11-15 12:42:44.724
14.0, -256.8226698571816, -143.65516714798287, -179.91536716837436, -153.67435912927613, 0.0, 0.144000006839633, 1.0240000486373901, 0.0, 0.0, 0.0, 0.0, 0.0, 1.7632285647397797E9, 0.0, 2025-11-15 12:42:44.739
14.0, -180.95131945610046, -97.04479400021955, -141.7010694211349, -107.38187747774646, 0.0, 0.144000006839633, 1.0240000486373901, 0.0, 0.0, 0.0, 0.0, 0.0, 1.7632285647397797E9, 0.0, 2025-11-15 12:42:44.739
15.0, -250.98094612639397, -154.351281021256, -192.15979962330312, -183.46266227634624, 0.0, 0.144000006839633, 1.0240000486373901, 0.0, 0.0, 0.0, 0.0, 0.0, 1.7632285647405045E9, 0.0, 2025-11-15 12:42:44.740
15.0, -237.14331629034132, -149.3846938800998, -196.539222471416, -169.34827984357253, 0.0, 0.144000006839633, 1.0240000486373901, 0.0, 0.0, 0.0, 0.0, 0.0, 1.7632285647405045E9, 0.0, 2025-11-15 12:42:44.740
16.0, -179.1636472772807, -100.57899945834652, -147.50539415236562, -94.51288173021749, 0.0, 0.144000006839633, 1.0240000486373901, 0.0, 0.0, 0.0, 0.0, 0.0, 1.7632285647704668E9, 0.0, 2025-11-15 12:42:44.770
16.0, -236.82542479410768, -139.24956500018016, -181.59832214843482, -148.18792589427903, 0.0, 0.144000006839633, 1.0240000486373901, 0.0, 0.0, 0.0, 0.0, 0.0, 1.7632285647704668E9, 0.0, 2025-11-15 12:42:44.770
17.0, -260.51395111344755, -168.5853402526118, -211.02011509984732, -175.08902627555653, 0.0, 0.144000006839633, 1.0240000486373901, 0.0, 0.0, 0.0, 0.0, 0.0, 1.763228564771166E9, 0.0, 2025-11-15 12:42:44.771
17.0, -177.86964189261198, -99.57296637026593, -151.97083469945937, -97.29536729725078, 0.0, 0.144000006839633, 1.0240000486373901, 0.0, 0.0, 0.0, 0.0, 0.0, 1.763228564771166E9, 0.0, 2025-11-15 12:42:44.771
18.0, -208.0581143349409, -121.33170431246981, -164.66405514907092, -124.3722429764457, 0.0, 0.144000006839633, 1.0240000486373901, 0.0, 0.0, 0.0, 0.0, 0.0, 1.763228564771911E9, 0.0, 2025-11-15 12:42:44.771
18.0, -254.91906077973545, -164.77812209771946, -210.1412386102602, -175.27228137338534, 0.0, 0.144000006839633, 1.0240000486373901, 0.0, 0.0, 0.0, 0.0, 0.0, 1.763228564771911E9, 0.0, 2025-11-15 12:42:44.771
19.0, -198.96641754265875, -123.97207368118688, -173.50517864432186, -126.42918795207515, 0.0, 0.144000006839633, 1.0240000486373901, 0.0, 0.0, 0.0, 0.0, 0.0, 1.763228564784138E9, 0.0, 2025-11-15 12:42:44.784
19.0, -170.150488384068, -92.6167524526827, -141.5477335229516, -85.09207374183461, 0.0, 0.144000006839633, 1.0240000486373901, 0.0, 0.0, 0.0, 0.0, 0.0, 1.763228564784138E9, 0.0, 2025-11-15 12:42:44.784
20.0, -226.54443981591612, -143.51305094966665, -183.03070383146405, -160.89236604375765, 0.0, 0.144000006839633, 0.49600002355873585, 0.0, 0.0, 0.0, 0.0, 0.0, 1.763228564799785E9, 0.0, 2025-11-15 12:42:44.799
20.0, -148.44784894119948, -119.48793363431469, -179.55633677262813, -159.69559805793688, 0.0, 0.144000006839633, 0.49600002355873585, 0.0, 0.0, 0.0, 0.0, 0.0, 1.763228564799785E9, 0.0, 2025-11-15 12:42:44.799
21.0, -170.49829907994717, -71.59477480174974, -124.65834532305598, -87.73992291046306, 0.0, 0.2400000113993883, 0.49600002355873585, 0.0, 0.0, 0.0, 0.0, 0.0, 1.7632285648004892E9, 0.0, 2025-11-15 12:42:44.800
21.0, -209.42691771872342, -116.06218527490273, -159.4094957113266, -128.65816832566634, 0.0, 0.2400000113993883, 0.49600002355873585, 0.0, 0.0, 0.0, 0.0, 0.0, 1.7632285648004892E9, 0.0, 2025-11-15 12:42:44.800
22.0, -240.0080796563998, -139.2009463007562, -173.87542873993516, -127.6708347373642, 0.01600000075995922, 0.2400000113993883, 0.49600002355873585, 0.0, 0.0, 0.0, 0.0, 0.0, 1.7632285648141272E9, 0.0, 2025-11-15 12:42:44.814
22.0, -146.2899266667664, -63.00796450348571, -112.95245846174657, -64.12993449019268, 0.01600000075995922, 0.2400000113993883, 0.49600002355873585, 0.0, 0.0, 0.0, 0.0, 0.0, 1.7632285648141272E9, 0.0, 2025-11-15 12:42:44.814
23.0, -161.672135184519, -75.14767975965515, -123.55133493617177, -100.1040321639739, 0.01600000075995922, 0.2400000113993883, 0.49600002355873585, 0.0, 0.0, 0.0, 0.0, 0.0, 1.7632285648297586E9, 0.0, 2025-11-15 12:42:44.829
23.0, -243.47122701536864, -146.47131181461737, -186.89402048569173, -181.89190429495648, 0.01600000075995922, 0.2400000113993883, 0.49600002355873585, 0.0, 0.0, 0.0, 0.0, 0.0, 1.7632285648297586E9, 0.0, 2025-11-15 12:42:44.829
24.0, -176.14180811308324, -98.25652158586308, -141.93294321838766, -119.51037303404883, 0.01600000075995922, 0.2400000113993883, 0.49600002355873585, 0.0, 0.0, 0.0, 0.0, 0.0, 1.7632285648304732E9, 0.0, 2025-11-15 12:42:44.830
24.0, -146.80229296069592, -67.19291255390272, -109.67630610056221, -74.33612146927044, 0.01600000075995922, 0.2400000113993883, 0.49600002355873585, 0.0, 0.0, 0.0, 0.0, 0.0, 1.7632285648304732E9, 0.0, 2025-11-15 12:42:44.830
25.0, -232.4422620460391, -143.77858384652063, -176.33254301082343, -158.00516327796504, 0.01600000075995922, 0.2400000113993883, 0.49600002355873585, 0.0, 0.0, 0.0, 0.0, 0.0, 1.7632285648441198E9, 0.0, 2025-11-15 12:42:44.844
25.0, -193.07233521249145, -110.49347424088046, -152.4757211934775, -117.48708715802059, 0.01600000075995922, 0.2400000113993883, 0.49600002355873585, 0.0, 0.0, 0.0, 0.0, 0.0, 1.7632285648441198E9, 0.0, 2025-11-15 12:42:44.844
26.0, -130.75812215078622, -58.404147658031434, -101.22039230074733, -47.7080337847583, 0.01600000075995922, 0.2400000113993883, 0.49600002355873585, 0.0, 0.0, 0.0, 0.0, 0.0, 1.7632285648597927E9, 0.0, 2025-11-15 12:42:44.859
26.0, -191.5389762306586, -101.79072704399005, -136.68586358055472, -107.06398598151281, 0.01600000075995922, 0.2400000113993883, 0.49600002355873585, 0.0, 0.0, 0.0, 0.0, 0.0, 1.7632285648597927E9, 0.0, 2025-11-15 12:42:44.859
27.0, -190.92189273796976, -115.63583667995408, -154.38681007083505, -123.72150038415566, 0.01600000075995922, 0.2400000113993883, 0.49600002355873585, 0.0, 0.0, 0.0, 0.0, 0.0, 1.763228564860486E9, 0.0, 2025-11-15 12:42:44.860
27.0, -161.0363521920517, -80.1292265006341, -131.30040764436126, -75.62638695398346, 0.01600000075995922, 0.2400000113993883, 0.49600002355873585, 0.0, 0.0, 0.0, 0.0, 0.0, 1.763228564860486E9, 0.0, 2025-11-15 12:42:44.860
28.0, -161.53375888615847, -74.41465936833993, -112.75050386413932, -61.72143891872838, 0.01600000075995922, 0.2400000113993883, 0.49600002355873585, 0.0, 0.0, 0.0, 0.0, 0.0, 1.763228564874114E9, 0.0, 2025-11-15 12:42:44.874
28.0, -219.75652139633894, -118.4071025471203, -161.9264483815059, -128.53475162712857, 0.01600000075995922, 0.2400000113993883, 0.49600002355873585, 0.0, 0.0, 0.0, 0.0, 0.0, 1.763228564874114E9, 0.0, 2025-11-15 12:42:44.874
29.0, -176.77759110555053, -93.23757584532723, -141.08024602849036, -90.69444387545809, 0.01600000075995922, 0.2400000113993883, 0.49600002355873585, 0.0, 0.0, 0.0, 0.0, 0.0, 1.7632285648897696E9, 0.0, 2025-11-15 12:42:44.889
29.0, -111.47519797924906, -56.695013378281146, -108.65531341265887, -47.02363209286705, 0.01600000075995922, 0.2400000113993883, 0.49600002355873585, 0.0, 0.0, 0.0, 0.0, 0.0, 1.7632285648897696E9, 0.0, 2025-11-15 12:42:44.889
30.0, -231.63818355556577, -133.72199286567047, -168.91632139869034, -131.28731799451634, 0.01600000075995922, 0.2400000113993883, 0.8640000410377979, 0.0, 0.0, 0.0, 0.0, 0.0, 1.7632285648904657E9, 0.0, 2025-11-15 12:42:44.890
30.0, -225.65434362646192, -123.74019988393411, -167.412881616503, -128.4113349285908, 0.01600000075995922, 0.2400000113993883, 0.8640000410377979, 0.0, 0.0, 0.0, 0.0, 0.0, 1.7632285648904657E9, 0.0, 2025-11-15 12:42:44.890
31.0, -151.00968041084707, -69.21245852997527, -118.69320489373058, -57.914220763836056, 0.01600000075995922, 0.288000013679266, 0.8640000410377979, 0.0, 0.0, 0.0, 0.0, 0.0, 1.7632285649041977E9, 0.0, 2025-11-15 12:42:44.904
31.0, -206.18068455718458, -114.98135418770835, -150.17194282077253, -108.41408986551687, 0.01600000075995922, 0.288000013679266, 0.8640000410377979, 0.0, 0.0, 0.0, 0.0, 0.0, 1.7632285649041977E9, 0.0, 2025-11-15 12:42:44.904
32.0, -232.78633284196258, -140.5622698846273, -177.80606359336525, -144.05907634319738, 0.01600000075995922, 0.288000013679266, 0.8640000410377979, 0.0, 0.0, 0.0, 0.0, 0.0, 1.7632285649197624E9, 0.0, 2025-11-15 12:42:44.919
32.0, -150.54219291638583, -74.21644467068836, -124.30305482726544, -70.2745901173912, 0.01600000075995922, 0.288000013679266, 0.8640000410377979, 0.0, 0.0, 0.0, 0.0, 0.0, 1.7632285649197624E9, 0.0, 2025-11-15 12:42:44.919
33.0, -150.99098091106862, -63.78586369426921, -104.4965446619317, -66.7927432586439, 0.01600000075995922, 0.288000013679266, 0.8640000410377979, 0.0, 0.0, 0.0, 0.0, 0.0, 1.763228564920477E9, 0.0, 2025-11-15 12:42:44.920
33.0, -214.41968415956944, -118.31734494818375, -158.95322791673243, -134.36525565804914, 0.01600000075995922, 0.288000013679266, 0.8640000410377979, 0.0, 0.0, 0.0, 0.0, 0.0, 1.763228564920477E9, 0.0, 2025-11-15 12:42:44.920
34.0, -173.6772140422836, -96.82040000287816, -151.86237760074437, -115.6657558795996, 0.01600000075995922, 0.288000013679266, 0.8640000410377979, 0.0, 0.0, 0.0, 0.0, 0.0, 1.7632285649341848E9, 0.0, 2025-11-15 12:42:44.934
34.0, -147.68116945028305, -61.10061552608386, -107.8287955224514, -68.77489023515955, 0.01600000075995922, 0.288000013679266, 0.8640000410377979, 0.0, 0.0, 0.0, 0.0, 0.0, 1.7632285649341848E9, 0.0, 2025-11-15 12:42:44.934
35.0, -209.53163491748273, -109.09849155740812, -151.57814520411193, -140.96617907984182, 0.01600000075995922, 0.288000013679266, 0.8640000410377979, 0.0, 0.0, 0.0, 0.0, 0.0, 1.7632285649497728E9, 0.0, 2025-11-15 12:42:44.949
35.0, -191.03034983668476, -107.04902638169006, -151.1854557087645, -135.46104634506628, 0.01600000075995922, 0.288000013679266, 0.8640000410377979, 0.0, 0.0, 0.0, 0.0, 0.0, 1.7632285649497728E9, 0.0, 2025-11-15 12:42:44.949
36.0, -127.34733339119703, -51.80696413619444, -97.40569434594363, -69.10400143126026, 0.01600000075995922, 0.288000013679266, 0.8640000410377979, 0.0, 0.0, 0.0, 0.0, 0.0, 1.7632285649504743E9, 0.0, 2025-11-15 12:42:44.950
36.0, -175.87253531627357, -88.36448620306328, -130.01014215964824, -122.2629394014366, 0.01600000075995922, 0.288000013679266, 0.8640000410377979, 0.0, 0.0, 0.0, 0.0, 0.0, 1.7632285649504743E9, 0.0, 2025-11-15 12:42:44.950
37.0, -214.26260836143047, -123.63922258513048, -170.49455917999148, -148.92094628559425, 0.01600000075995922, 0.288000013679266, 0.8640000410377979, 0.0, 0.0, 0.0, 0.0, 0.0, 1.7632285649641676E9, 0.0, 2025-11-15 12:42:44.964
37.0, -131.5846400409937, -65.6071949726902, -116.44552502036095, -93.28993444470689, 0.01600000075995922, 0.288000013679266, 0.8640000410377979, 0.0, 0.0, 0.0, 0.0, 0.0, 1.7632285649641676E9, 0.0, 2025-11-15 12:42:44.964
38.0, -160.61000359710306, -91.45364356646314, -136.63350498117507, -119.35703713586554, 0.01600000075995922, 0.288000013679266, 0.8640000410377979, 0.0, 0.0, 0.0, 0.0, 0.0, 1.763228564979781E9, 0.0, 2025-11-15 12:42:44.979
38.0, -219.15439750347286, -135.84999594045803, -172.22239295952022, -170.59366652881727, 0.01600000075995922, 0.288000013679266, 0.8640000410377979, 0.0, 0.0, 0.0, 0.0, 0.0, 1.763228564979781E9, 0.0, 2025-11-15 12:42:44.979
39.0, -166.62002282589674, -96.92885710159317, -149.61469772737473, -130.61413600249216, 0.01600000075995922, 0.288000013679266, 0.8640000410377979, 0.0, 0.0, 0.0, 0.0, 0.0, 1.763228564980477E9, 0.0, 2025-11-15 12:42:44.980
39.0, -158.61663692072034, -84.6133665475063, -139.7002229448408, -113.33579820720479, 0.01600000075995922, 0.288000013679266, 0.8640000410377979, 0.0, 0.0, 0.0, 0.0, 0.0, 1.763228564980477E9, 0.0, 2025-11-15 12:42:44.980
40.0, -232.7003151429817, -148.33752189250663, -195.60050758253783, -195.4827007339336, 0.01600000075995922, 0.288000013679266, 0.9280000440776348, 0.0, 0.0, 0.0, 0.0, 0.0, 1.7632285649941533E9, 0.0, 2025-11-15 12:42:44.994
40.0, -225.97597502265126, -147.94857229711488, -199.2843090388924, -184.97732175840065, 0.01600000075995922, 0.288000013679266, 0.9280000440776348, 0.0, 0.0, 0.0, 0.0, 0.0, 1.7632285649941533E9, 0.0, 2025-11-15 12:42:44.994
41.0, -132.73652922734618, -79.90483250329271, -138.67175045702606, -109.04987285798416, 0.01600000075995922, 0.27200001291930676, 0.9280000440776348, 0.0, 0.0, 0.0, 0.0, 0.0, 1.7632285650098116E9, 0.0, 2025-11-15 12:42:45.009
41.0, -211.93265068903565, -133.09368967311457, -184.91935330908746, -177.9575295415707, 0.01600000075995922, 0.27200001291930676, 0.9280000440776348, 0.0, 0.0, 0.0, 0.0, 0.0, 1.7632285650098116E9, 0.0, 2025-11-15 12:42:45.009
42.0, -229.0389530863613, -154.11192742409185, -205.56360106449574, -197.06467841519043, 0.0, 0.27200001291930676, 0.9280000440776348, 0.0, 0.0, 0.0, 0.0, 0.0, 1.7632285650104785E9, 0.0, 2025-11-15 12:42:45.010
42.0, -184.25739101693034, -124.61533647356555, -179.95276616793126, -143.4158135508187, 0.0, 0.27200001291930676, 0.9280000440776348, 0.0, 0.0, 0.0, 0.0, 0.0, 1.7632285650104785E9, 0.0, 2025-11-15 12:42:45.010
43.0, -206.68557105120271, -131.9679797864519, -179.88170806877315, -171.9512502127327, 0.0, 0.27200001291930676, 0.9280000440776348, 0.0, 0.0, 0.0, 0.0, 0.0, 1.7632285650241354E9, 0.0, 2025-11-15 12:42:45.024
43.0, -253.65123469475657, -176.67848375672475, -220.42970338836312, -221.89387422101572, 0.0, 0.27200001291930676, 0.9280000440776348, 0.0, 0.0, 0.0, 0.0, 0.0, 1.7632285650241354E9, 0.0, 2025-11-15 12:42:45.024
44.0, -205.90393196046352, -133.99874546239153, -191.14628673531115, -172.47857610648498, 0.0, 0.27200001291930676, 0.9280000440776348, 0.0, 0.0, 0.0, 0.0, 0.0, 1.7632285650398304E9, 0.0, 2025-11-15 12:42:45.039
44.0, -138.07710636407137, -83.89156585605815, -140.45194283593446, -115.08607138646767, 0.0, 0.27200001291930676, 0.9280000440776348, 0.0, 0.0, 0.0, 0.0, 0.0, 1.7632285650398304E9, 0.0, 2025-11-15 12:42:45.039
45.0, -215.9193840418011, -135.790157541167, -180.1547207655385, -176.57376655796543, 0.0, 0.27200001291930676, 0.9280000440776348, 0.0, 0.0, 0.0, 0.0, 0.0, 1.7632285650404837E9, 0.0, 2025-11-15 12:42:45.040
45.0, -217.85291231889278, -144.68737953575328, -196.89451296720654, -184.35275846580043, 0.0, 0.27200001291930676, 0.9280000440776348, 0.0, 0.0, 0.0, 0.0, 0.0, 1.7632285650404837E9, 0.0, 2025-11-15 12:42:45.040
46.0, -123.05018834210932, -60.337675935123116, -121.07552116550505, -83.12488636514172, 0.0, 0.27200001291930676, 0.9280000440776348, 0.0, 0.0, 0.0, 0.0, 0.0, 1.7632285650541267E9, 0.0, 2025-11-15 12:42:45.054
46.0, -172.58516325522214, -116.99342036386952, -168.377775805071, -170.23089623311535, 0.0, 0.27200001291930676, 0.9280000440776348, 0.0, 0.0, 0.0, 0.0, 0.0, 1.7632285650541267E9, 0.0, 2025-11-15 12:42:45.054
47.0, -227.46819510497153, -162.32474772678688, -210.51896850578487, -202.72688694810495, 0.0, 0.27200001291930676, 0.9280000440776348, 0.0, 0.0, 0.0, 0.0, 0.0, 1.763228565070507E9, 0.0, 2025-11-15 12:42:45.070
47.0, -195.091881188564, -117.70774125540629, -170.62545567844063, -131.87448228755966, 0.0, 0.27200001291930676, 0.9280000440776348, 0.0, 0.0, 0.0, 0.0, 0.0, 1.763228565070507E9, 0.0, 2025-11-15 12:42:45.070
48.0, -187.9411924732849, -118.19392824964598, -166.8182375235483, -143.18767965352163, 0.0, 0.27200001291930676, 0.9280000440776348, 0.0, 0.0, 0.0, 0.0, 0.0, 1.763228565071174E9, 0.0, 2025-11-15 12:42:45.071
48.0, -251.13054212462157, -175.22740257391706, -219.9921350935474, -202.8877026461996, 0.0, 0.27200001291930676, 0.9280000440776348, 0.0, 0.0, 0.0, 0.0, 0.0, 1.763228565071174E9, 0.0, 2025-11-15 12:42:45.071
49.0, -207.25777574442327, -145.74577122321352, -195.15919938776642, -156.78221599245444, 0.0, 0.27200001291930676, 0.9280000440776348, 0.0, 0.0, 0.0, 0.0, 0.0, 1.7632285650841646E9, 0.0, 2025-11-15 12:42:45.084
49.0, -172.5290647558868, -109.12093095714226, -159.99292010441422, -124.06183128012344, 0.0, 0.27200001291930676, 0.9280000440776348, 0.0, 0.0, 0.0, 0.0, 0.0, 1.7632285650841646E9, 0.0, 2025-11-15 12:42:45.084
50.0, -237.35275068785995, -161.82734103268012, -201.44971111323684, -196.76922631869093, 0.0, 0.27200001291930676, 0.9760000463575125, 0.0, 0.0, 0.0, 0.0, 0.0, 1.7632285650998075E9, 0.0, 2025-11-15 12:42:45.099
50.0, -241.50403963867575, -167.56434756470844, -213.2827545730397, -195.9614079282619, 0.0, 0.27200001291930676, 0.9760000463575125, 0.0, 0.0, 0.0, 0.0, 0.0, 1.7632285650998075E9, 0.0, 2025-11-15 12:42:45.099
51.0, -158.53435912169516, -99.46076937159523, -153.87818367686123, -110.4411156415008, 0.0, 0.25600001215934753, 0.9760000463575125, 0.0, 0.0, 0.0, 0.0, 0.0, 1.763228565100483E9, 0.0, 2025-11-15 12:42:45.100
51.0, -209.95798351243138, -144.39192743925378, -183.46827212627977, -164.8379604970105, 0.0, 0.25600001215934753, 0.9760000463575125, 0.0, 0.0, 0.0, 0.0, 0.0, 1.763228565100483E9, 0.0, 2025-11-15 12:42:45.100
52.0, -256.07094996608794, -176.30823366111144, -219.33391270134598, -200.1874948781915, -0.01600000075995922, 0.25600001215934753, 0.9760000463575125, 0.0, 0.0, 0.0, 0.0, 0.0, 1.7632285651141655E9, 0.0, 2025-11-15 12:42:45.114
52.0, -202.33232750277966, -120.14241612656042, -168.1197227081284, -123.13059619115666, -0.01600000075995922, 0.25600001215934753, 0.9760000463575125, 0.0, 0.0, 0.0, 0.0, 0.0, 1.7632285651141655E9, 0.0, 2025-11-15 12:42:45.114
53.0, -189.77748335152864, -118.40336264716461, -155.46764115802944, -129.90729491086677, -0.01600000075995922, 0.25600001215934753, 0.9760000463575125, 0.0, 0.0, 0.0, 0.0, 0.0, 1.7632285651295092E9, 0.0, 2025-11-15 12:42:45.129
53.0, -231.2903728596866, -164.45649070153013, -207.429811142385, -196.0698650269769, -0.01600000075995922, 0.25600001215934753, 0.9760000463575125, 0.0, 0.0, 0.0, 0.0, 0.0, 1.7632285651295092E9, 0.0, 2025-11-15 12:42:45.129
54.0, -204.93529787193984, -135.0047785504721, -182.7876103343442, -148.6030547893606, -0.01600000075995922, 0.25600001215934753, 0.9760000463575125, 0.0, 0.0, 0.0, 0.0, 0.0, 1.763228565144778E9, 0.0, 2025-11-15 12:42:45.144
54.0, -185.00537100806832, -108.75442076148465, -154.4466484701261, -114.84671778930351, -0.01600000075995922, 0.25600001215934753, 0.9760000463575125, 0.0, 0.0, 0.0, 0.0, 0.0, 1.763228565144778E9, 0.0, 2025-11-15 12:42:45.144
55.0, -245.68898768909276, -155.10674081230536, -194.81138869188726, -181.6263713981025, -0.01600000075995922, 0.25600001215934753, 0.9760000463575125, 0.0, 0.0, 0.0, 0.0, 0.0, 1.7632285651455314E9, 0.0, 2025-11-15 12:42:45.145
55.0, -236.41777569893748, -156.04171580122784, -196.50930327177048, -186.50320094032213, -0.01600000075995922, 0.25600001215934753, 0.9760000463575125, 0.0, 0.0, 0.0, 0.0, 0.0, 1.7632285651455314E9, 0.0, 2025-11-15 12:42:45.145
56.0, -152.80109248962253, -91.55836076522246, -141.33829912543297, -105.0332203055732, -0.01600000075995922, 0.25600001215934753, 0.9760000463575125, 0.0, 0.0, 0.0, 0.0, 0.0, 1.7632285651597505E9, 0.0, 2025-11-15 12:42:45.159
56.0, -208.70137712731957, -122.25919950148091, -157.6704422319308, -151.26212365785614, -0.01600000075995922, 0.25600001215934753, 0.9760000463575125, 0.0, 0.0, 0.0, 0.0, 0.0, 1.7632285651597505E9, 0.0, 2025-11-15 12:42:45.159
57.0, -236.8890030933544, -151.58749495400116, -186.52003049012274, -174.26250838534907, -0.01600000075995922, 0.25600001215934753, 0.9760000463575125, 0.0, 0.0, 0.0, 0.0, 0.0, 1.7632285651604598E9, 0.0, 2025-11-15 12:42:45.160
57.0, -164.5967369498685, -100.10777206392959, -148.87045763619244, -121.8926893058233, -0.01600000075995922, 0.25600001215934753, 0.9760000463575125, 0.0, 0.0, 0.0, 0.0, 0.0, 1.7632285651604598E9, 0.0, 2025-11-15 12:42:45.160
58.0, -161.57489778567106, -100.02549426490441, -140.60527873411775, -122.94734109332785, -0.01600000075995922, 0.25600001215934753, 0.9760000463575125, 0.0, 0.0, 0.0, 0.0, 0.0, 1.7632285651741743E9, 0.0, 2025-11-15 12:42:45.174
58.0, -243.97611350938678, -151.37432065652683, -187.69809897616506, -173.15923789842054, -0.01600000075995922, 0.25600001215934753, 0.9760000463575125, 0.0, 0.0, 0.0, 0.0, 0.0, 1.7632285651741743E9, 0.0, 2025-11-15 12:42:45.174
59.0, -208.2825083322823, -124.14784897910431, -171.66888776607811, -148.83866848656908, -0.01600000075995922, 0.25600001215934753, 0.9760000463575125, 0.0, 0.0, 0.0, 0.0, 0.0, 1.7632285651897645E9, 0.0, 2025-11-15 12:42:45.189
59.0, -145.56812597531825, -76.58754124259576, -119.78525568079203, -91.10209297062829, -0.01600000075995922, 0.25600001215934753, 0.9760000463575125, 0.0, 0.0, 0.0, 0.0, 0.0, 1.7632285651897645E9, 0.0, 2025-11-15 12:42:45.189
60.0, -229.13245058525354, -142.95206595631316, -173.39298164565116, -170.7993610263802, -0.01600000075995922, 0.25600001215934753, 0.9920000471174717, 0.0, 0.0, 0.0, 0.0, 0.0, 1.7632285651904721E9, 0.0, 2025-11-15 12:42:45.190
60.0, -229.7009153785184, -150.8320351629518, -189.17535945866257, -179.22535562654957, -0.01600000075995922, 0.25600001215934753, 0.9920000471174717, 0.0, 0.0, 0.0, 0.0, 0.0, 1.7632285651904721E9, 0.0, 2025-11-15 12:42:45.190
61.0, -151.97831449937075, -79.08953431295231, -127.31367429159582, -92.20536345755681, -0.01600000075995922, 0.2240000106394291, 0.9920000471174717, 0.0, 0.0, 0.0, 0.0, 0.0, 1.7632285652041736E9, 0.0, 2025-11-15 12:42:45.204
61.0, -203.70861068647355, -120.76323951920494, -157.1094572385773, -152.74686394026503, -0.01600000075995922, 0.2240000106394291, 0.9920000471174717, 0.0, 0.0, 0.0, 0.0, 0.0, 1.7632285652041736E9, 0.0, 2025-11-15 12:42:45.204
62.0, -242.36795652844012, -161.07562114158645, -194.62813359405845, -187.19882233208045, -0.03200000151991844, 0.2240000106394291, 0.9920000471174717, 0.0, 0.0, 0.0, 0.0, 0.0, 1.7632285652197528E9, 0.0, 2025-11-15 12:42:45.219
62.0, -167.80557111185044, -96.51746810646728, -138.59321255795658, -113.99028069945052, -0.03200000151991844, 0.2240000106394291, 0.9920000471174717, 0.0, 0.0, 0.0, 0.0, 0.0, 1.7632285652197528E9, 0.0, 2025-11-15 12:42:45.219
63.0, -166.44424752797931, -92.31382055627182, -132.00724873598665, -117.62172355642542, -0.03200000151991844, 0.2240000106394291, 0.9920000471174717, 0.0, 0.0, 0.0, 0.0, 0.0, 1.7632285652204895E9, 0.0, 2025-11-15 12:42:45.220
63.0, -226.6229777149856, -147.0098574082367, -186.0862020952627, -183.212088979315, -0.03200000151991844, 0.2240000106394291, 0.9920000471174717, 0.0, 0.0, 0.0, 0.0, 0.0, 1.7632285652204895E9, 0.0, 2025-11-15 12:42:45.220
64.0, -194.4635779960081, -122.59205059753731, -162.01620598044246, -141.13073467789218, -0.03200000151991844, 0.2240000106394291, 0.9920000471174717, 0.0, 0.0, 0.0, 0.0, 0.0, 1.7632285652341936E9, 0.0, 2025-11-15 12:42:45.234
64.0, -129.41923796664923, -59.27180444775149, -100.69680630695075, -72.20811839448288, -0.03200000151991844, 0.2240000106394291, 0.9920000471174717, 0.0, 0.0, 0.0, 0.0, 0.0, 1.7632285652341936E9, 0.0, 2025-11-15 12:42:45.234
65.0, -222.7334817610681, -133.68459386611357, -175.09463612549007, -173.1330585987307, -0.03200000151991844, 0.2240000106394291, 0.9920000471174717, 0.0, 0.0, 0.0, 0.0, 0.0, 1.7632285652661548E9, 0.0, 2025-11-15 12:42:45.266
65.0, -211.70825669169426, -125.57649076217785, -173.76323174126446, -162.4706038250588, -0.03200000151991844, 0.2240000106394291, 0.9920000471174717, 0.0, 0.0, 0.0, 0.0, 0.0, 1.7632285652661548E9, 0.0, 2025-11-15 12:42:45.266
66.0, -132.13066543452442, -55.520684792194515, -107.18179283011705, -71.62469400139526, -0.03200000151991844, 0.2240000106394291, 0.9920000471174717, 0.0, 0.0, 0.0, 0.0, 0.0, 1.7632285652668457E9, 0.0, 2025-11-15 12:42:45.266
66.0, -183.20647912938148, -92.49707565410063, -130.07372045889497, -132.88799517555162, -0.03200000151991844, 0.2240000106394291, 0.9920000471174717, 0.0, 0.0, 0.0, 0.0, 0.0, 1.7632285652668457E9, 0.0, 2025-11-15 12:42:45.266
67.0, -218.11470531579107, -127.20708714285865, -169.88869538716972, -167.05198127077892, -0.03200000151991844, 0.2240000106394291, 0.9920000471174717, 0.0, 0.0, 0.0, 0.0, 0.0, 1.7632285652675908E9, 0.0, 2025-11-15 12:42:45.267
67.0, -158.24638682510704, -77.21958433510736, -126.58439380023628, -100.56029995856807, -0.03200000151991844, 0.2240000106394291, 0.9920000471174717, 0.0, 0.0, 0.0, 0.0, 0.0, 1.7632285652675908E9, 0.0, 2025-11-15 12:42:45.267
68.0, -146.53676006384194, -62.824709405656904, -109.1265408070758, -94.41190443141386, -0.03200000151991844, 0.2240000106394291, 0.9920000471174717, 0.0, 0.0, 0.0, 0.0, 0.0, 1.7632285652683558E9, 0.0, 2025-11-15 12:42:45.268
68.0, -230.58353176806122, -133.83044996438548, -171.69880696572363, -172.4673564066179, -0.03200000151991844, 0.2240000106394291, 0.9920000471174717, 0.0, 0.0, 0.0, 0.0, 0.0, 1.7632285652683558E9, 0.0, 2025-11-15 12:42:45.268
69.0, -186.56490928959101, -108.71702176192775, -150.49357421696186, -136.72513253008947, -0.03200000151991844, 0.2240000106394291, 0.9920000471174717, 0.0, 0.0, 0.0, 0.0, 0.0, 1.7632285652792056E9, 0.0, 2025-11-15 12:42:45.279
69.0, -145.35495167784393, -68.311142640654, -117.54879550728947, -91.83137346198782, -0.03200000151991844, 0.2240000106394291, 0.9920000471174717, 0.0, 0.0, 0.0, 0.0, 0.0, 1.7632285652792056E9, 0.0, 2025-11-15 12:42:45.279
70.0, -216.20735633838922, -125.58397056208923, -158.27630602475256, -150.99285086104646, -0.03200000151991844, 0.2240000106394291, 1.008000047877431, 0.0, 0.0, 0.0, 0.0, 0.0, 1.763228565294145E9, 0.0, 2025-11-15 12:42:45.294
70.0, -219.7303420966491, -137.47685242118314, -172.25605205912143, -155.2376373107545, -0.03200000151991844, 0.2240000106394291, 1.008000047877431, 0.0, 0.0, 0.0, 0.0, 0.0, 1.763228565294145E9, 0.0, 2025-11-15 12:42:45.294
71.0, -143.2157289031893, -65.07986907893792, -114.37362044490874, -86.53567512473091, -0.03200000151991844, 0.20800000987946987, 1.008000047877431, 0.0, 0.0, 0.0, 0.0, 0.0, 1.7632285653097882E9, 0.0, 2025-11-15 12:42:45.309
71.0, -202.5380220003426, -111.95577512355521, -155.557398756966, -150.40194666804746, -0.03200000151991844, 0.20800000987946987, 1.008000047877431, 0.0, 0.0, 0.0, 0.0, 0.0, 1.7632285653097882E9, 0.0, 2025-11-15 12:42:45.309
72.0, -227.39339710585773, -135.01599825033918, -174.17462073639035, -169.34453994361684, -0.03200000151991844, 0.20800000987946987, 1.008000047877431, 0.0, 0.0, 0.0, 0.0, 0.0, 1.7632285653105E9, 0.0, 2025-11-15 12:42:45.310
72.0, -164.64535564929247, -86.30754122743383, -132.77766812685877, -95.82558661466464, -0.03200000151991844, 0.20800000987946987, 1.008000047877431, 0.0, 0.0, 0.0, 0.0, 0.0, 1.7632285653105E9, 0.0, 2025-11-15 12:42:45.310
73.0, -149.74559422582388, -79.0184762137942, -115.6825854294002, -97.20934959826991, -0.03200000151991844, 0.20800000987946987, 1.008000047877431, 0.0, 0.0, 0.0, 0.0, 0.0, 1.76322856532418E9, 0.0, 2025-11-15 12:42:45.324
73.0, -248.05260446108878, -150.648780065123, -182.57443603686988, -174.37096548406407, -0.03200000151991844, 0.20800000987946987, 1.008000047877431, 0.0, 0.0, 0.0, 0.0, 0.0, 1.76322856532418E9, 0.0, 2025-11-15 12:42:45.324
74.0, -209.4381374185905, -124.24134647799656, -168.36281620524824, -143.25499785272405, -0.03200000151991844, 0.20800000987946987, 1.008000047877431, 0.0, 0.0, 0.0, 0.0, 0.0, 1.763228565339789E9, 0.0, 2025-11-15 12:42:45.339
74.0, -157.73402053117752, -81.2811156869866, -120.0208693780005, -88.31212760368362, -0.03200000151991844, 0.20800000987946987, 1.008000047877431, 0.0, 0.0, 0.0, 0.0, 0.0, 1.763228565339789E9, 0.0, 2025-11-15 12:42:45.339
75.0, -231.3726506587118, -137.74238531803712, -168.7068870011717, -158.71200436959043, -0.03200000151991844, 0.20800000987946987, 1.008000047877431, 0.0, 0.0, 0.0, 0.0, 0.0, 1.7632285653404994E9, 0.0, 2025-11-15 12:42:45.340
75.0, -232.94340864010155, -145.55129642551765, -180.81294315773994, -170.283254832495, -0.03200000151991844, 0.20800000987946987, 1.008000047877431, 0.0, 0.0, 0.0, 0.0, 0.0, 1.7632285653404994E9, 0.0, 2025-11-15 12:42:45.340
76.0, -139.12427835166454, -70.02775672031567, -114.73639074061066, -81.3147747865878, -0.03200000151991844, 0.20800000987946987, 1.008000047877431, 0.0, 0.0, 0.0, 0.0, 0.0, 1.7632285653541727E9, 0.0, 2025-11-15 12:42:45.354
76.0, -207.07078074663877, -124.95192746957764, -157.21043453738093, -147.33896860433742, -0.03200000151991844, 0.20800000987946987, 1.008000047877431, 0.0, 0.0, 0.0, 0.0, 0.0, 1.7632285653541727E9, 0.0, 2025-11-15 12:42:45.354
77.0, -231.23801426030695, -153.4574449318461, -194.11576730012894, -181.6974294972606, -0.03200000151991844, 0.20800000987946987, 1.008000047877431, 0.0, 0.0, 0.0, 0.0, 0.0, 1.7632285653698015E9, 0.0, 2025-11-15 12:42:45.369
77.0, -160.38560959976166, -85.36508643859997, -135.37315869610757, -97.07471319986507, -0.03200000151991844, 0.20800000987946987, 1.008000047877431, 0.0, 0.0, 0.0, 0.0, 0.0, 1.7632285653698015E9, 0.0, 2025-11-15 12:42:45.369
78.0, -183.453312526457, -102.84163893153891, -139.31501324940473, -119.98534032842144, -0.03200000151991844, 0.20800000987946987, 1.008000047877431, 0.0, 0.0, 0.0, 0.0, 0.0, 1.7632285653705163E9, 0.0, 2025-11-15 12:42:45.370
78.0, -254.42913388554007, -162.5005230247043, -195.5369292832911, -186.6303575388156, -0.03200000151991844, 0.20800000987946987, 1.008000047877431, 0.0, 0.0, 0.0, 0.0, 0.0, 1.7632285653705163E9, 0.0, 2025-11-15 12:42:45.370
79.0, -202.5417619002983, -128.50857232743874, -166.81075772363693, -139.61607519583777, -0.03200000151991844, 0.20800000987946987, 1.008000047877431, 0.0, 0.0, 0.0, 0.0, 0.0, 1.763228565384194E9, 0.0, 2025-11-15 12:42:45.384
79.0, -158.09305092692375, -86.28884172765538, -129.56509406492114, -98.22660238621756, -0.03200000151991844, 0.20800000987946987, 1.008000047877431, 0.0, 0.0, 0.0, 0.0, 0.0, 1.763228565384194E9, 0.0, 2025-11-15 12:42:45.384
80.0, -223.75073454901576, -135.0459174499847, -165.9356211340055, -150.4954441669397, -0.03200000151991844, 0.20800000987946987, 1.0240000486373901, 0.0, 0.0, 0.0, 0.0, 0.0, 1.7632285653997965E9, 0.0, 2025-11-15 12:42:45.399
80.0, -221.90322397090495, -141.0110578793101, -181.99101164378226, -170.7993610263802, -0.03200000151991844, 0.20800000987946987, 1.0240000486373901, 0.0, 0.0, 0.0, 0.0, 0.0, 1.7632285653997965E9, 0.0, 2025-11-15 12:42:45.399
81.0, -153.61639067996293, -75.42069245642051, -125.40258541423827, -86.24022302823141, -0.03200000151991844, 0.19200000911951065, 1.0240000486373901, 0.0, 0.0, 0.0, 0.0, 0.0, 1.763228565400509E9, 0.0, 2025-11-15 12:42:45.400
81.0, -186.04506319575012, -108.72076166188344, -142.34807211346924, -121.99366660462692, -0.03200000151991844, 0.19200000911951065, 1.0240000486373901, 0.0, 0.0, 0.0, 0.0, 0.0, 1.763228565400509E9, 0.0, 2025-11-15 12:42:45.400
82.0, -244.36506310477853, -160.8699266440235, -195.24895698670298, -184.85764495981857, -0.03200000151991844, 0.19200000911951065, 1.0240000486373901, 0.0, 0.0, 0.0, 0.0, 0.0, 1.7632285654141693E9, 0.0, 2025-11-15 12:42:45.414
82.0, -156.35399744752795, -85.02475554263219, -130.52998825348914, -101.37933804886416, -0.03200000151991844, 0.19200000911951065, 1.0240000486373901, 0.0, 0.0, 0.0, 0.0, 0.0, 1.7632285654141693E9, 0.0, 2025-11-15 12:42:45.414
83.0, -164.1853479547426, -84.5011695488356, -123.45409753732383, -103.16701022768393, -0.03200000151991844, 0.19200000911951065, 1.0240000486373901, 0.0, 0.0, 0.0, 0.0, 0.0, 1.7632285654468267E9, 0.0, 2025-11-15 12:42:45.446
83.0, -229.79815277736634, -141.91985356854275, -173.9315272392705, -165.15585199324414, -0.03200000151991844, 0.19200000911951065, 1.0240000486373901, 0.0, 0.0, 0.0, 0.0, 0.0, 1.7632285654468267E9, 0.0, 2025-11-15 12:42:45.446
84.0, -196.86085386760533, -119.03540573967621, -157.83499782998115, -130.6029163026251, -0.03200000151991844, 0.19200000911951065, 1.0240000486373901, 0.0, 0.0, 0.0, 0.0, 0.0, 1.763228565447535E9, 0.0, 2025-11-15 12:42:45.447
84.0, -140.91195053048432, -64.63856088416651, -110.07273549586535, -77.36170053342357, -0.03200000151991844, 0.19200000911951065, 1.0240000486373901, 0.0, 0.0, 0.0, 0.0, 0.0, 1.763228565447535E9, 0.0, 2025-11-15 12:42:45.447
85.0, -228.09649829752743, -134.24557885946706, -177.66020749509335, -172.87126560183242, -0.03200000151991844, 0.19200000911951065, 1.0240000486373901, 0.0, 0.0, 0.0, 0.0, 0.0, 1.7632285654482777E9, 0.0, 2025-11-15 12:42:45.448
85.0, -219.85749869514257, -140.48373198555782, -181.0822159545496, -163.42053841380402, -0.03200000151991844, 0.19200000911951065, 1.0240000486373901, 0.0, 0.0, 0.0, 0.0, 0.0, 1.7632285654482777E9, 0.0, 2025-11-15 12:42:45.448
86.0, -141.2859405260533, -70.74207761185244, -114.3137820456177, -76.00411684950814, -0.03200000151991844, 0.19200000911951065, 1.0240000486373901, 0.0, 0.0, 0.0, 0.0, 0.0, 1.7632285654491072E9, 0.0, 2025-11-15 12:42:45.449
86.0, -197.33582116197795, -111.83235842501745, -146.4806615645066, -135.4124276456423, -0.03200000151991844, 0.19200000911951065, 1.0240000486373901, 0.0, 0.0, 0.0, 0.0, 0.0, 1.7632285654491072E9, 0.0, 2025-11-15 12:42:45.449
87.0, -245.14670219551772, -152.8665407388471, -188.77145026344806, -172.8450863021426, -0.03200000151991844, 0.19200000911951065, 1.0240000486373901, 0.0, 0.0, 0.0, 0.0, 0.0, 1.7632285654591455E9, 0.0, 2025-11-15 12:42:45.459
87.0, -172.39442835748196, -97.55342039419338, -138.6231317576021, -105.41095020109788, -0.03200000151991844, 0.19200000911951065, 1.0240000486373901, 0.0, 0.0, 0.0, 0.0, 0.0, 1.7632285654591455E9, 0.0, 2025-11-15 12:42:45.459
88.0, -167.4091417165473, -95.41793751949444, -134.38956500776112, -110.46729494119063, -0.03200000151991844, 0.19200000911951065, 1.0240000486373901, 0.0, 0.0, 0.0, 0.0, 0.0, 1.7632285654741397E9, 0.0, 2025-11-15 12:42:45.474
88.0, -239.75376645941287, -151.1686261589639, -185.03155030775815, -164.5387685005553, -0.03200000151991844, 0.19200000911951065, 1.0240000486373901, 0.0, 0.0, 0.0, 0.0, 0.0, 1.7632285654741397E9, 0.0, 2025-11-15 12:42:45.474
89.0, -192.14857992343605, -118.83345114206895, -164.32372425310314, -136.77375122951344, -0.03200000151991844, 0.19200000911951065, 1.0240000486373901, 0.0, 0.0, 0.0, 0.0, 0.0, 1.7632285654899237E9, 0.0, 2025-11-15 12:42:45.489
89.0, -168.85274309944361, -89.62109258817509, -129.51647536549717, -95.71712951594964, -0.03200000151991844, 0.19200000911951065, 1.0240000486373901, 0.0, 0.0, 0.0, 0.0, 0.0, 1.7632285654899237E9, 0.0, 2025-11-15 12:42:45.489
90.0, -239.45831436291337, -152.15221984731033, -182.95964573230594, -169.38193894317374, -0.03200000151991844, 0.19200000911951065, 1.0240000486373901, 0.0, 0.0, 0.0, 0.0, 0.0, 1.7632285654904895E9, 0.0, 2025-11-15 12:42:45.490
90.0, -242.73072682414204, -156.69619829347357, -197.85192735586315, -171.3192071202211, -0.03200000151991844, 0.19200000911951065, 1.0240000486373901, 0.0, 0.0, 0.0, 0.0, 0.0, 1.7632285654904895E9, 0.0, 2025-11-15 12:42:45.490
91.0, -143.48500169999897, -73.32634848123416, -118.59970739483833, -78.07602142496035, -0.03200000151991844, 0.17600000835955143, 1.0240000486373901, 0.0, 0.0, 0.0, 0.0, 0.0, 1.7632285655041895E9, 0.0, 2025-11-15 12:42:45.504
91.0, -199.69569803401828, -131.98293938627467, -172.37198895774782, -155.29373581008986, -0.03200000151991844, 0.17600000835955143, 1.0240000486373901, 0.0, 0.0, 0.0, 0.0, 0.0, 1.7632285655041895E9, 0.0, 2025-11-15 12:42:45.504
92.0, -229.04269298631698, -168.74241605075076, -217.79307391960174, -204.54447832657024, -0.04800000227987766, 0.17600000835955143, 1.0240000486373901, 0.0, 0.0, 0.0, 0.0, 0.0, 1.763228565519784E9, 0.0, 2025-11-15 12:42:45.519
92.0, -225.665563326329, -126.91537494631484, -167.4502806160599, -125.36705636465922, -0.04800000227987766, 0.17600000835955143, 1.0240000486373901, 0.0, 0.0, 0.0, 0.0, 0.0, 1.763228565519784E9, 0.0, 2025-11-15 12:42:45.519
93.0, -204.67350487504154, -115.3703037831001, -152.34482469502836, -126.3768293526955, -0.04800000227987766, 0.17600000835955143, 1.0240000486373901, 0.0, 0.0, 0.0, 0.0, 0.0, 1.7632285655204885E9, 0.0, 2025-11-15 12:42:45.520
93.0, -265.5441165538505, -177.82663304312155, -210.07392041105777, -194.80951874190941, -0.04800000227987766, 0.17600000835955143, 1.0240000486373901, 0.0, 0.0, 0.0, 0.0, 0.0, 1.7632285655204885E9, 0.0, 2025-11-15 12:42:45.520
94.0, -229.23716778401285, -152.82540183933452, -194.0895880004391, -160.55951494770125, -0.04800000227987766, 0.17600000835955143, 1.0240000486373901, 0.0, 0.0, 0.0, 0.0, 0.0, 1.763228565534164E9, 0.0, 2025-11-15 12:42:45.534
94.0, -158.09305092692375, -85.40996523806825, -131.0273949475959, -89.60987288830802, -0.04800000227987766, 0.17600000835955143, 1.0240000486373901, 0.0, 0.0, 0.0, 0.0, 0.0, 1.763228565534164E9, 0.0, 2025-11-15 12:42:45.534
95.0, -243.16829511895776, -163.39809901406989, -199.01129634212703, -175.9940820648335, -0.04800000227987766, 0.17600000835955143, 1.0240000486373901, 0.0, 0.0, 0.0, 0.0, 0.0, 1.7632285655497656E9, 0.0, 2025-11-15 12:42:45.549
95.0, -273.55498225893825, -181.79466689610854, -220.1828699912876, -196.1110039264895, -0.04800000227987766, 0.17600000835955143, 1.0240000486373901, 0.0, 0.0, 0.0, 0.0, 0.0, 1.7632285655497656E9, 0.0, 2025-11-15 12:42:45.549
96.0, -189.35861455649137, -113.74718720233068, -158.0369524275884, -124.51061927480623, -0.04800000227987766, 0.17600000835955143, 1.0240000486373901, 0.0, 0.0, 0.0, 0.0, 0.0, 1.7632285655504775E9, 0.0, 2025-11-15 12:42:45.550
96.0, -239.3722966639325, -149.24631758173928, -184.77723711077124, -176.09131946368143, -0.04800000227987766, 0.17600000835955143, 1.0240000486373901, 0.0, 0.0, 0.0, 0.0, 0.0, 1.7632285655504775E9, 0.0, 2025-11-15 12:42:45.550
97.0, -262.6868329877034, -171.15091162221506, -207.7664021383971, -186.1030316450633, -0.04800000227987766, 0.17600000835955143, 1.0240000486373901, 0.0, 0.0, 0.0, 0.0, 0.0, 1.76322856556416E9, 0.0, 2025-11-15 12:42:45.564
97.0, -186.87532098591328, -109.87265084823593, -152.71507479064167, -114.75322029041126, -0.04800000227987766, 0.17600000835955143, 1.0240000486373901, 0.0, 0.0, 0.0, 0.0, 0.0, 1.76322856556416E9, 0.0, 2025-11-15 12:42:45.564
98.0, -187.2418311815709, -104.30019991425797, -134.15395131055266, -110.02598674641922, -0.04800000227987766, 0.17600000835955143, 1.0240000486373901, 0.0, 0.0, 0.0, 0.0, 0.0, 1.7632285655797987E9, 0.0, 2025-11-15 12:42:45.579
98.0, -252.58162330742925, -166.59571347618476, -196.81597506813705, -187.8832240239717, -0.04800000227987766, 0.17600000835955143, 1.0240000486373901, 0.0, 0.0, 0.0, 0.0, 0.0, 1.7632285655797987E9, 0.0, 2025-11-15 12:42:45.579
99.0, -227.95438209921122, -141.68797977128997, -182.8287492338568, -153.2031317348592, -0.04800000227987766, 0.17600000835955143, 1.0240000486373901, 0.0, 0.0, 0.0, 0.0, 0.0, 1.7632285655804813E9, 0.0, 2025-11-15 12:42:45.580
99.0, -167.16230831947178, -89.55003448901698, -128.62637917604297, -82.29462857497856, -0.04800000227987766, 0.17600000835955143, 1.0240000486373901, 0.0, 0.0, 0.0, 0.0, 0.0, 1.7632285655804813E9, 0.0, 2025-11-15 12:42:45.580
100.0, -239.61539016105235, -153.6818389291875, -185.28960340470076, -179.1056788279675, -0.04800000227987766, 0.17600000835955143, 1.0240000486373901, 0.0, 0.0, 0.0, 0.0, 0.0, 1.763228565594858E9, 0.0, 2025-11-15 12:42:45.594
100.0, -249.7804382406175, -162.00311633059755, -196.38214667327702, -172.75906860316172, -0.04800000227987766, 0.17600000835955143, 1.0240000486373901, 0.0, 0.0, 0.0, 0.0, 0.0, 1.763228565594858E9, 0.0, 2025-11-15 12:42:45.594
0.0, -172.3794687576592, -97.00178515072912, -140.99983817944303, -99.24385517416522, -0.04800000227987766, 0.17600000835955143, 1.0240000486373901, 0.0, 0.0, 0.0, 0.0, 0.0, 1.7632285655955427E9, 0.0, 2025-11-15 12:42:45.595
1.0, -218.30170031357557, -134.210049809888, -164.08624060591683, -156.22123099910095, -0.04800000227987766, 0.144000006839633, 1.0240000486373901, 0.0, 0.0, 0.0, 0.0, 0.0, 1.763228565609126E9, 0.0, 2025-11-15 12:42:45.609
1.0, -250.6368753304705, -169.7428392888978, -197.0048400158994, -182.39305088901892, -0.04800000227987766, 0.144000006839633, 1.0240000486373901, 0.0, 0.0, 0.0, 0.0, 0.0, 1.763228565609126E9, 0.0, 2025-11-15 12:42:45.609
2.0, -140.5828393343836, -94.22303948365152, -138.68858000682667, -95.99388211267069, -0.04800000227987766, 0.144000006839633, 1.0240000486373901, 0.0, 0.0, 0.0, 0.0, 0.0, 1.7632285656248376E9, 0.0, 2025-11-15 12:42:45.624
2.0, -195.2788761863485, -114.44093864411116, -147.09587510721758, -130.01575200958177, -0.04800000227987766, 0.144000006839633, 1.0240000486373901, 0.0, 0.0, 0.0, 0.0, 0.0, 1.7632285656248376E9, 0.0, 2025-11-15 12:42:45.624
3.0, -281.11705996934325, -175.1619543246925, -206.28727170592174, -192.28508627181873, -0.04800000227987766, 0.144000006839633, 1.0240000486373901, 0.0, 0.0, 0.0, 0.0, 0.0, 1.763228565625523E9, 0.0, 2025-11-15 12:42:45.625
3.0, -242.39413582812995, -148.5189070403576, -185.91603664727882, -136.77375122951344, -0.04800000227987766, 0.144000006839633, 1.0240000486373901, 0.0, 0.0, 0.0, 0.0, 0.0, 1.763228565625523E9, 0.0, 2025-11-15 12:42:45.625
4.0, -162.2256403779611, -88.76278554834425, -131.10032299673185, -104.31141961412504, -0.04800000227987766, 0.144000006839633, 1.0240000486373901, 0.0, 0.0, 0.0, 0.0, 0.0, 1.7632285656391656E9, 0.0, 2025-11-15 12:42:45.639
4.0, -249.8627160396427, -163.38874926418066, -193.20510166091844, -179.50210822327062, -0.04800000227987766, 0.144000006839633, 1.0240000486373901, 0.0, 0.0, 0.0, 0.0, 0.0, 1.7632285656391656E9, 0.0, 2025-11-15 12:42:45.639
5.0, -249.002539049834, -157.63678313232958, -189.97008819924667, -164.75194279802963, -0.04800000227987766, 0.144000006839633, 1.0240000486373901, 0.0, 0.0, 0.0, 0.0, 0.0, 1.7632285656548593E9, 0.0, 2025-11-15 12:42:45.654
5.0, -169.4847861919552, -84.94434769358486, -123.5943437856622, -82.36568667413667, -0.04800000227987766, 0.144000006839633, 1.0240000486373901, 0.0, 0.0, 0.0, 0.0, 0.0, 1.7632285656548593E9, 0.0, 2025-11-15 12:42:45.654
6.0, -214.59171955753118, -123.62613293528557, -155.92577890260145, -137.85458231670782, -0.04800000227987766, 0.144000006839633, 1.0240000486373901, 0.0, 0.0, 0.0, 0.0, 0.0, 1.76322856565553E9, 0.0, 2025-11-15 12:42:45.655
6.0, -238.84871067013592, -150.30657921917737, -186.34612514218315, -169.10892624640837, -0.04800000227987766, 0.144000006839633, 1.0240000486373901, 0.0, 0.0, 0.0, 0.0, 0.0, 1.76322856565553E9, 0.0, 2025-11-15 12:42:45.655
7.0, -172.6412617545575, -92.4877259042114, -137.89198131626472, -95.89664471382275, -0.04800000227987766, 0.144000006839633, 1.0240000486373901, 0.0, 0.0, 0.0, 0.0, 0.0, 1.7632285656691935E9, 0.0, 2025-11-15 12:42:45.669
7.0, -171.39587506931275, -81.58965743333101, -122.63692939700559, -88.82449389761314, -0.04800000227987766, 0.144000006839633, 1.0240000486373901, 0.0, 0.0, 0.0, 0.0, 0.0, 1.7632285656691935E9, 0.0, 2025-11-15 12:42:45.669
8.0, -237.2218541894108, -139.46460924763232, -170.21593663329259, -158.15475927619264, -0.04800000227987766, 0.144000006839633, 1.0240000486373901, 0.0, 0.0, 0.0, 0.0, 0.0, 1.7632285656849737E9, 0.0, 2025-11-15 12:42:45.684
8.0, -198.9813771424815, -118.66702559404075, -155.96691780211404, -129.28273161826655, -0.04800000227987766, 0.144000006839633, 1.0240000486373901, 0.0, 0.0, 0.0, 0.0, 0.0, 1.7632285656849737E9, 0.0, 2025-11-15 12:42:45.684
9.0, -136.93269697763026, -58.70520960446447, -96.68202370451763, -54.17432080814615, -0.04800000227987766, 0.144000006839633, 1.0240000486373901, 0.0, 0.0, 0.0, 0.0, 0.0, 1.76322856568553E9, 0.0, 2025-11-15 12:42:45.685
9.0, -226.39858371764421, -136.49512868281454, -164.3181144031696, -143.31857615197077, -0.04800000227987766, 0.144000006839633, 1.0240000486373901, 0.0, 0.0, 0.0, 0.0, 0.0, 1.76322856568553E9, 0.0, 2025-11-15 12:42:45.685
10.0, -233.80732552986592, -146.04309326969087, -180.89335100678727, -156.389526497107, -0.04800000227987766, 0.144000006839633, 1.0400000493973494, 0.0, 0.0, 0.0, 0.0, 0.0, 1.763228565699156E9, 0.0, 2025-11-15 12:42:45.699
10.0, -149.22948803193867, -69.61449777521193, -111.98943422315642, -74.4969371673651, -0.04800000227987766, 0.144000006839633, 1.0400000493973494, 0.0, 0.0, 0.0, 0.0, 0.0, 1.763228565699156E9, 0.0, 2025-11-15 12:42:45.699
11.0, -195.88847987912595, -126.12064620573074, -164.9875564952381, -158.8690801677294, -0.04800000227987766, 0.144000006839633, 1.0400000493973494, 0.0, 0.0, 0.0, 0.0, 0.0, 1.7632285657148104E9, 0.0, 2025-11-15 12:42:45.714
11.0, -256.0073716668412, -161.06627139169723, -195.333104735706, -179.09071922814474, -0.04800000227987766, 0.144000006839633, 1.0400000493973494, 0.0, 0.0, 0.0, 0.0, 0.0, 1.7632285657148104E9, 0.0, 2025-11-15 12:42:45.714
12.0, -196.04555567726493, -114.96078473795205, -150.11397437145934, -118.82597134215757, -0.06400000303983688, 0.144000006839633, 1.0400000493973494, 0.0, 0.0, 0.0, 0.0, 0.0, 1.7632285657155204E9, 0.0, 2025-11-15 12:42:45.715
12.0, -195.0582220889628, -97.27853774745017, -130.90958809899166, -108.72450156183913, -0.06400000303983688, 0.144000006839633, 1.0400000493973494, 0.0, 0.0, 0.0, 0.0, 0.0, 1.7632285657155204E9, 0.0, 2025-11-15 12:42:45.715
13.0, -256.57957636006176, -160.69228139612824, -193.67258915537968, -179.38617132464424, -0.06400000303983688, 0.144000006839633, 1.0400000493973494, 0.0, 0.0, 0.0, 0.0, 0.0, 1.763228565729197E9, 0.0, 2025-11-15 12:42:45.729
13.0, -222.46420896425843, -136.59610598161817, -173.41355109540746, -146.14220061851665, -0.06400000303983688, 0.144000006839633, 1.0400000493973494, 0.0, 0.0, 0.0, 0.0, 0.0, 1.763228565729197E9, 0.0, 2025-11-15 12:42:45.729
14.0, -155.665855855681, -76.01720649935305, -115.10477088624611, -76.96153123816475, -0.06400000303983688, 0.144000006839633, 1.0400000493973494, 0.0, 0.0, 0.0, 0.0, 0.0, 1.7632285657448137E9, 0.0, 2025-11-15 12:42:45.744
14.0, -238.68789497204125, -147.57645225152373, -172.6206923048012, -157.7994687804021, -0.06400000303983688, 0.144000006839633, 1.0400000493973494, 0.0, 0.0, 0.0, 0.0, 0.0, 1.7632285657448137E9, 0.0, 2025-11-15 12:42:45.744
15.0, -207.14183884579688, -142.37425141315907, -176.70092315645888, -168.47688315389678, -0.06400000303983688, 0.144000006839633, 1.0400000493973494, 0.0, 0.0, 0.0, 0.0, 0.0, 1.7632285657455158E9, 0.0, 2025-11-15 12:42:45.745
15.0, -170.1205691844225, -85.23231999017298, -121.94130800524727, -83.40537886181846, -0.06400000303983688, 0.144000006839633, 1.0400000493973494, 0.0, 0.0, 0.0, 0.0, 0.0, 1.7632285657455158E9, 0.0, 2025-11-15 12:42:45.745
16.0, -217.01891462877393, -133.83231991436332, -162.55288162408397, -145.44283932680264, -0.06400000303983688, 0.144000006839633, 1.0400000493973494, 0.0, 0.0, 0.0, 0.0, 0.0, 1.7632285657591896E9, 0.0, 2025-11-15 12:42:45.759
16.0, -245.67402808927, -161.34676388837397, -193.2200612607412, -176.50270845880732, -0.06400000303983688, 0.144000006839633, 1.0400000493973494, 0.0, 0.0, 0.0, 0.0, 0.0, 1.7632285657591896E9, 0.0, 2025-11-15 12:42:45.759
17.0, -205.08863377012312, -121.41959196142852, -165.1371524934657, -140.9773987797089, -0.06400000303983688, 0.144000006839633, 1.0400000493973494, 0.0, 0.0, 0.0, 0.0, 0.0, 1.7632285657748454E9, 0.0, 2025-11-15 12:42:45.774
17.0, -173.64729484263808, -97.77594444155693, -132.59254307905212, -109.4762214529328, -0.06400000303983688, 0.144000006839633, 1.0400000493973494, 0.0, 0.0, 0.0, 0.0, 0.0, 1.7632285657748454E9, 0.0, 2025-11-15 12:42:45.774
18.0, -259.1189684299752, -170.37114248145372, -200.25107317743823, -195.90156952897087, -0.06400000303983688, 0.144000006839633, 1.0400000493973494, 0.0, 0.0, 0.0, 0.0, 0.0, 1.7632285657755332E9, 0.0, 2025-11-15 12:42:45.775
18.0, -199.07113474141806, -126.86488629691303, -166.92856457224116, -139.20468620071188, -0.06400000303983688, 0.144000006839633, 1.0400000493973494, 0.0, 0.0, 0.0, 0.0, 0.0, 1.7632285657755332E9, 0.0, 2025-11-15 12:42:45.775
19.0, -94.36889558192343, -65.25003452692181, -113.20116180879995, -78.86140041565523, -0.06400000303983688, 0.144000006839633, 1.0400000493973494, 0.0, 0.0, 0.0, 0.0, 0.0, 1.7632285657891655E9, 0.0, 2025-11-15 12:42:45.789
19.0, -273.95889145415276, -156.95612134039402, -183.50006127590314, -165.42138489009812, -0.06400000303983688, 0.144000006839633, 1.0400000493973494, 0.0, 0.0, 0.0, 0.0, 0.0, 1.7632285657891655E9, 0.0, 2025-11-15 12:42:45.789
20.0, -259.784670622088, -159.27485931292176, -190.78912628954276, -169.00420904764906, -0.06400000303983688, 0.144000006839633, 1.0240000486373901, 0.0, 0.0, 0.0, 0.0, 0.0, 1.7632285658048253E9, 0.0, 2025-11-15 12:42:45.804
20.0, -179.44039987400174, -98.16115413699299, -138.76711790589616, -104.85370510770008, -0.06400000303983688, 0.144000006839633, 1.0240000486373901, 0.0, 0.0, 0.0, 0.0, 0.0, 1.7632285658048253E9, 0.0, 2025-11-15 12:42:45.804
21.0, -202.5081028006971, -128.25612908042967, -164.98007669532672, -150.3869870682247, -0.06400000303983688, 0.144000006839633, 1.0240000486373901, 0.0, 0.0, 0.0, 0.0, 0.0, 1.7632285658055232E9, 0.0, 2025-11-15 12:42:45.805
21.0, -237.30413198843598, -153.08158498629928, -187.42321632942185, -167.96077696001157, -0.06400000303983688, 0.144000006839633, 1.0240000486373901, 0.0, 0.0, 0.0, 0.0, 0.0, 1.7632285658055232E9, 0.0, 2025-11-15 12:42:45.805
22.0, -193.89885310269892, -119.22801058739424, -164.63226599944755, -143.9356596446596, -0.06400000303983688, 0.144000006839633, 1.0240000486373901, 0.0, 0.0, 0.0, 0.0, 0.0, 1.7632285658191352E9, 0.0, 2025-11-15 12:42:45.819
22.0, -171.22009977139533, -96.86714875232428, -133.65093476651236, -114.85793748917058, -0.06400000303983688, 0.144000006839633, 1.0240000486373901, 0.0, 0.0, 0.0, 0.0, 0.0, 1.7632285658191352E9, 0.0, 2025-11-15 12:42:45.819
23.0, -254.7881642812863, -167.80931101180613, -197.45362801058218, -193.50055375741795, -0.06400000303983688, 0.144000006839633, 1.0240000486373901, 0.0, 0.0, 0.0, 0.0, 0.0, 1.7632285658512056E9, 0.0, 2025-11-15 12:42:45.851
23.0, -223.18600965570658, -139.10931875184178, -181.59645219845697, -150.29348956933245, -0.06400000303983688, 0.144000006839633, 1.0240000486373901, 0.0, 0.0, 0.0, 0.0, 0.0, 1.7632285658512056E9, 0.0, 2025-11-15 12:42:45.851
24.0, -148.93403593543917, -77.90211607702076, -118.46320104645565, -79.55328190745786, -0.06400000303983688, 0.144000006839633, 1.0240000486373901, 0.0, 0.0, 0.0, 0.0, 0.0, 1.7632285658519497E9, 0.0, 2025-11-15 12:42:45.851
24.0, -249.72807964123785, -151.93343569990247, -182.7333817849867, -183.9974679700099, -0.06400000303983688, 0.144000006839633, 1.0240000486373901, 0.0, 0.0, 0.0, 0.0, 0.0, 1.7632285658519497E9, 0.0, 2025-11-15 12:42:45.851
25.0, -224.30423974245787, -156.79904554225504, -190.83026518905535, -176.9552363534458, -0.06400000303983688, 0.144000006839633, 1.0240000486373901, 0.0, 0.0, 0.0, 0.0, 0.0, 1.7632285658526533E9, 0.0, 2025-11-15 12:42:45.852
25.0, -157.64052303228527, -86.73575977236032, -132.33075008215383, -93.74994213925675, -0.06400000303983688, 0.144000006839633, 1.0240000486373901, 0.0, 0.0, 0.0, 0.0, 0.0, 1.7632285658526533E9, 0.0, 2025-11-15 12:42:45.852
26.0, -201.11312011722475, -122.04789515398443, -155.6116273063235, -138.03783741453663, -0.06400000303983688, 0.144000006839633, 1.0240000486373901, 0.0, 0.0, 0.0, 0.0, 0.0, 1.763228565853398E9, 0.0, 2025-11-15 12:42:45.853
26.0, -276.8760134195909, -172.5253248559311, -204.7838319237344, -196.00628672773018, -0.06400000303983688, 0.144000006839633, 1.0240000486373901, 0.0, 0.0, 0.0, 0.0, 0.0, 1.763228565853398E9, 0.0, 2025-11-15 12:42:45.853
27.0, -184.51918401382864, -110.55518259014934, -154.1680259234272, -123.99825298087671, -0.06400000303983688, 0.144000006839633, 1.0240000486373901, 0.0, 0.0, 0.0, 0.0, 0.0, 1.7632285658642085E9, 0.0, 2025-11-15 12:42:45.864
27.0, -203.0915271937847, -105.38664085138589, -142.1554672657512, -119.36077703582123, -0.06400000303983688, 0.144000006839633, 1.0240000486373901, 0.0, 0.0, 0.0, 0.0, 0.0, 1.7632285658642085E9, 0.0, 2025-11-15 12:42:45.864
28.0, -209.6587915159762, -144.34143878985196, -180.02195431711152, -170.90033832518384, -0.06400000303983688, 0.144000006839633, 1.0240000486373901, 0.0, 0.0, 0.0, 0.0, 0.0, 1.7632285658791595E9, 0.0, 2025-11-15 12:42:45.879
28.0, -253.55025739595294, -158.39224292337894, -188.8817773121409, -162.92687161965296, -0.06400000303983688, 0.144000006839633, 1.0240000486373901, 0.0, 0.0, 0.0, 0.0, 0.0, 1.7632285658791595E9, 0.0, 2025-11-15 12:42:45.879
29.0, -159.84706400614232, -80.62476324476302, -111.53690632851794, -74.41091946838424, -0.06400000303983688, 0.144000006839633, 1.0240000486373901, 0.0, 0.0, 0.0, 0.0, 0.0, 1.7632285658947928E9, 0.0, 2025-11-15 12:42:45.894
29.0, -220.83735248353332, -140.7286954326555, -169.8756057373248, -167.38109246687964, -0.06400000303983688, 0.144000006839633, 1.0240000486373901, 0.0, 0.0, 0.0, 0.0, 0.0, 1.7632285658947928E9, 0.0, 2025-11-15 12:42:45.894
30.0, -254.88914158008993, -164.6341359494254, -202.08362415572628, -181.37953800102696, -0.06400000303983688, 0.144000006839633, 1.0240000486373901, 0.0, 0.0, 0.0, 0.0, 0.0, 1.7632285658955028E9, 0.0, 2025-11-15 12:42:45.895
30.0, -131.47992284223437, -74.71572131477296, -127.19586744299158, -90.84403987368569, -0.06400000303983688, 0.144000006839633, 1.0240000486373901, 0.0, 0.0, 0.0, 0.0, 0.0, 1.7632285658955028E9, 0.0, 2025-11-15 12:42:45.895
31.0, -208.27502853237092, -128.6936973752454, -159.73673695744947, -136.7849709293805, -0.06400000303983688, 0.12800000607967377, 1.0240000486373901, 0.0, 0.0, 0.0, 0.0, 0.0, 1.7632285659091704E9, 0.0, 2025-11-15 12:42:45.909
31.0, -190.52546334266663, -145.23153497930616, -194.9291955404915, -183.15973037993535, -0.06400000303983688, 0.12800000607967377, 1.0240000486373901, 0.0, 0.0, 0.0, 0.0, 0.0, 1.7632285659091704E9, 0.0, 2025-11-15 12:42:45.909
32.0, -266.07518234755844, -141.663670421578, -173.85485929017887, -138.1201152135618, -0.06400000303983688, 0.12800000607967377, 1.0240000486373901, 0.0, 0.0, 0.0, 0.0, 0.0, 1.763228565924776E9, 0.0, 2025-11-15 12:42:45.924
32.0, -202.60534019954503, -109.06670240778476, -141.17935337731615, -115.2955057839863, -0.06400000303983688, 0.12800000607967377, 1.0240000486373901, 0.0, 0.0, 0.0, 0.0, 0.0, 1.763228565924776E9, 0.0, 2025-11-15 12:42:45.924
33.0, -255.18459367658943, -175.49854532070458, -206.8557364991866, -189.109911209438, -0.06400000303983688, 0.12800000607967377, 1.0240000486373901, 0.0, 0.0, 0.0, 0.0, 0.0, 1.7632285659254875E9, 0.0, 2025-11-15 12:42:45.925
33.0, -208.5106422295794, -133.67898401618004, -170.07008053502068, -134.25305865937844, -0.06400000303983688, 0.12800000607967377, 1.0240000486373901, 0.0, 0.0, 0.0, 0.0, 0.0, 1.7632285659254875E9, 0.0, 2025-11-15 12:42:45.925
34.0, -153.7398073785007, -84.60775669757277, -130.6328355022706, -84.63580594724044, -0.06400000303983688, 0.12800000607967377, 1.0240000486373901, 0.0, 0.0, 0.0, 0.0, 0.0, 1.7632285659392197E9, 0.0, 2025-11-15 12:42:45.939
34.0, -218.585932710208, -144.33769888989627, -180.98684850567952, -161.44213133724406, -0.06400000303983688, 0.12800000607967377, 1.0240000486373901, 0.0, 0.0, 0.0, 0.0, 0.0, 1.7632285659392197E9, 0.0, 2025-11-15 12:42:45.939
35.0, -229.90660987608135, -157.93597512878478, -193.35843755910173, -177.81541334325448, -0.06400000303983688, 0.12800000607967377, 1.0240000486373901, 0.0, 0.0, 0.0, 0.0, 0.0, 1.763228565954787E9, 0.0, 2025-11-15 12:42:45.954
35.0, -176.14928791299462, -97.68244694266468, -134.42135415738449, -92.04828765941784, -0.06400000303983688, 0.12800000607967377, 1.0240000486373901, 0.0, 0.0, 0.0, 0.0, 0.0, 1.763228565954787E9, 0.0, 2025-11-15 12:42:45.954
36.0, -229.68969567865133, -140.5117812352255, -164.23583660414442, -145.96642532059923, -0.06400000303983688, 0.12800000607967377, 1.0240000486373901, 0.0, 0.0, 0.0, 0.0, 0.0, 1.763228565955492E9, 0.0, 2025-11-15 12:42:45.955
36.0, -224.75676763709635, -159.60023060906678, -195.74823363078758, -188.93039601156488, -0.06400000303983688, 0.12800000607967377, 1.0240000486373901, 0.0, 0.0, 0.0, 0.0, 0.0, 1.763228565955492E9, 0.0, 2025-11-15 12:42:45.955
37.0, -218.52235441096127, -131.44626374263316, -165.57098088832572, -125.79714485956356, -0.06400000303983688, 0.12800000607967377, 1.0240000486373901, 0.0, 0.0, 0.0, 0.0, 0.0, 1.763228565969157E9, 0.0, 2025-11-15 12:42:45.969
37.0, -198.40543254930526, -106.68438613601029, -139.7133125946857, -123.11937649128959, -0.06400000303983688, 0.12800000607967377, 1.0240000486373901, 0.0, 0.0, 0.0, 0.0, 0.0, 1.763228565969157E9, 0.0, 2025-11-15 12:42:45.969
38.0, -254.39547478593886, -164.7799920476973, -202.80916474713013, -195.02643293933943, -0.06400000303983688, 0.12800000607967377, 1.0240000486373901, 0.0, 0.0, 0.0, 0.0, 0.0, 1.7632285659847853E9, 0.0, 2025-11-15 12:42:45.984
38.0, -210.40677150711417, -133.64532491657883, -174.61031908122823, -140.05364349065349, -0.06400000303983688, 0.12800000607967377, 1.0240000486373901, 0.0, 0.0, 0.0, 0.0, 0.0, 1.7632285659847853E9, 0.0, 2025-11-15 12:42:45.984
39.0, -139.67778354510665, -81.38022303581238, -124.0767908799462, -94.2099498338066, -0.06400000303983688, 0.12800000607967377, 1.0240000486373901, 0.0, 0.0, 0.0, 0.0, 0.0, 1.763228565985505E9, 0.0, 2025-11-15 12:42:45.985
39.0, -234.53286612126976, -154.98145416378975, -187.65509012667462, -174.90203127777204, -0.06400000303983688, 0.12800000607967377, 1.0240000486373901, 0.0, 0.0, 0.0, 0.0, 0.0, 1.763228565985505E9, 0.0, 2025-11-15 12:42:45.985
40.0, -234.49172722175717, -156.86636374145746, -200.02667918009683, -179.43105012411252, -0.06400000303983688, 0.12800000607967377, 1.0400000493973494, 0.0, 0.0, 0.0, 0.0, 0.0, 1.7632285660155585E9, 0.0, 2025-11-15 12:42:46.015
40.0, -163.75525945983827, -89.72393983695656, -136.40350113390014, -92.84862624993548, -0.06400000303983688, 0.12800000607967377, 1.0400000493973494, 0.0, 0.0, 0.0, 0.0, 0.0, 1.7632285660155585E9, 0.0, 2025-11-15 12:42:46.015
41.0, -204.27333557978272, -116.93545191455632, -154.07826832449064, -145.72707172343507, -0.06400000303983688, 0.12800000607967377, 1.0400000493973494, 0.0, 0.0, 0.0, 0.0, 0.0, 1.7632285660162284E9, 0.0, 2025-11-15 12:42:46.016
41.0, -275.548348935321, -180.341715763323, -213.5651170196943, -197.38256991142407, -0.06400000303983688, 0.12800000607967377, 1.0400000493973494, 0.0, 0.0, 0.0, 0.0, 0.0, 1.7632285660162284E9, 0.0, 2025-11-15 12:42:46.016
42.0, -181.94613284431398, -115.40209293272346, -160.92602514335886, -120.89787591760978, -0.06400000303983688, 0.12800000607967377, 1.0400000493973494, 0.0, 0.0, 0.0, 0.0, 0.0, 1.7632285660169559E9, 0.0, 2025-11-15 12:42:46.016
42.0, -156.45871464628726, -90.4868794279173, -129.81005751201883, -94.1014927350916, -0.06400000303983688, 0.12800000607967377, 1.0400000493973494, 0.0, 0.0, 0.0, 0.0, 0.0, 1.7632285660169559E9, 0.0, 2025-11-15 12:42:46.016
43.0, -285.365586319007, -174.10356263723224, -208.3367368816398, -202.12102315528318, -0.06400000303983688, 0.12800000607967377, 1.0400000493973494, 0.0, 0.0, 0.0, 0.0, 0.0, 1.7632285660291843E9, 0.0, 2025-11-15 12:42:46.029
43.0, -229.68221587873995, -144.60323178675026, -183.28314707847312, -158.8316811681725, -0.06400000303983688, 0.12800000607967377, 1.0400000493973494, 0.0, 0.0, 0.0, 0.0, 0.0, 1.7632285660291843E9, 0.0, 2025-11-15 12:42:46.029
44.0, -137.213189474307, -68.52244698815048, -112.99172741128132, -74.18652547104284, -0.06400000303983688, 0.12800000607967377, 1.0400000493973494, 0.0, 0.0, 0.0, 0.0, 0.0, 1.7632285660448627E9, 0.0, 2025-11-15 12:42:46.044
44.0, -243.370249716565, -148.42166964150965, -184.63325096247718, -179.91349721839651, -0.06400000303983688, 0.12800000607967377, 1.0400000493973494, 0.0, 0.0, 0.0, 0.0, 0.0, 1.7632285660448627E9, 0.0, 2025-11-15 12:42:46.044
45.0, -203.11022669356316, -130.61600595247, -169.73722943896428, -149.07802208373323, -0.06400000303983688, 0.12800000607967377, 1.0400000493973494, 0.0, 0.0, 0.0, 0.0, 0.0, 1.763228566045563E9, 0.0, 2025-11-15 12:42:46.045
45.0, -166.2983914297074, -100.8277028053999, -139.75819139415398, -101.69348964514211, -0.06400000303983688, 0.12800000607967377, 1.0400000493973494, 0.0, 0.0, 0.0, 0.0, 0.0, 1.763228566045563E9, 0.0, 2025-11-15 12:42:46.045
46.0, -225.97971492260695, -136.4726892830804, -167.4671101658605, -141.9722121679224, -0.06400000303983688, 0.12800000607967377, 1.0400000493973494, 0.0, 0.0, 0.0, 0.0, 0.0, 1.7632285660592127E9, 0.0, 2025-11-15 12:42:46.059
46.0, -254.1935201883316, -170.53195817954838, -203.97975343326107, -184.20316246757284, -0.06400000303983688, 0.12800000607967377, 1.0400000493973494, 0.0, 0.0, 0.0, 0.0, 0.0, 1.7632285660592127E9, 0.0, 2025-11-15 12:42:46.059
47.0, -167.06133102066815, -108.17286631837487, -157.21604438731447, -116.95976126426831, -0.06400000303983688, 0.12800000607967377, 1.0400000493973494, 0.0, 0.0, 0.0, 0.0, 0.0, 1.7632285660748453E9, 0.0, 2025-11-15 12:42:46.074
47.0, -168.7143668010831, -98.61742193158716, -138.4567062095739, -113.57889170432463, -0.06400000303983688, 0.12800000607967377, 1.0400000493973494, 0.0, 0.0, 0.0, 0.0, 0.0, 1.7632285660748453E9, 0.0, 2025-11-15 12:42:46.074
48.0, -220.11555179208517, -159.8956827055663, -202.6670485488139, -185.4410693529062, -0.06400000303983688, 0.12800000607967377, 1.0400000493973494, 0.0, 0.0, 0.0, 0.0, 0.0, 1.763228566075539E9, 0.0, 2025-11-15 12:42:46.075
48.0, -282.1791915567592, -153.50045378133655, -190.82278538914397, -168.33102705562487, -0.06400000303983688, 0.12800000607967377, 1.0400000493973494, 0.0, 0.0, 0.0, 0.0, 0.0, 1.763228566075539E9, 0.0, 2025-11-15 12:42:46.075
49.0, -153.04418598674238, -62.82657935563475, -107.12008448084816, -65.0873488788493, -0.06400000303983688, 0.12800000607967377, 1.0400000493973494, 0.0, 0.0, 0.0, 0.0, 0.0, 1.7632285660891583E9, 0.0, 2025-11-15 12:42:46.089
49.0, -241.24972644168884, -141.08024602849036, -178.79152723168954, -176.2184760621749, -0.06400000303983688, 0.12800000607967377, 1.0400000493973494, 0.0, 0.0, 0.0, 0.0, 0.0, 1.7632285660891583E9, 0.0, 2025-11-15 12:42:46.089
50.0, -242.6671485248953, -151.20789510849863, -195.9314887286164, -179.07201972836629, -0.06400000303983688, 0.12800000607967377, 1.0240000486373901, 0.0, 0.0, 0.0, 0.0, 0.0, 1.7632285661048162E9, 0.0, 2025-11-15 12:42:46.104
50.0, -132.90482472535223, -62.08981906436384, -114.4802075936459, -75.75354355247691, -0.06400000303983688, 0.12800000607967377, 1.0240000486373901, 0.0, 0.0, 0.0, 0.0, 0.0, 1.7632285661048162E9, 0.0, 2025-11-15 12:42:46.104
51.0, -199.9874102305621, -106.13836074247956, -138.88305480452254, -117.02333956351504, -0.06400000303983688, 0.12800000607967377, 1.0240000486373901, 0.0, 0.0, 0.0, 0.0, 0.0, 1.7632285661055293E9, 0.0, 2025-11-15 12:42:46.105
51.0, -232.09819125011563, -154.966494563967, -192.34866457106546, -177.83411284303293, -0.06400000303983688, 0.12800000607967377, 1.0240000486373901, 0.0, 0.0, 0.0, 0.0, 0.0, 1.7632285661055293E9, 0.0, 2025-11-15 12:42:46.105
52.0, -192.85168111510575, -100.790303805843, -142.40230066282675, -111.86975742457435, -0.06400000303983688, 0.12800000607967377, 1.0240000486373901, 0.0, 0.0, 0.0, 0.0, 0.0, 1.7632285661191785E9, 0.0, 2025-11-15 12:42:46.119
52.0, -154.36437067110091, -75.35150430724025, -118.71751424344257, -98.9184838780202, -0.06400000303983688, 0.12800000607967377, 1.0240000486373901, 0.0, 0.0, 0.0, 0.0, 0.0, 1.7632285661191785E9, 0.0, 2025-11-15 12:42:46.119
53.0, -248.89034205116332, -145.68032297398895, -179.79008051985875, -174.8795918780379, -0.06400000303983688, 0.12800000607967377, 1.0240000486373901, 0.0, 0.0, 0.0, 0.0, 0.0, 1.7632285661348572E9, 0.0, 2025-11-15 12:42:46.134
53.0, -150.5534126162529, -103.88694096915424, -151.722131352406, -131.0853633969091, -0.06400000303983688, 0.12800000607967377, 1.0240000486373901, 0.0, 0.0, 0.0, 0.0, 0.0, 1.7632285661348572E9, 0.0, 2025-11-15 12:42:46.134
54.0, -203.90308548416942, -79.95532115269452, -118.99052694020793, -88.36074630310759, -0.06400000303983688, 0.12800000607967377, 1.0240000486373901, 0.0, 0.0, 0.0, 0.0, 0.0, 1.7632285661355436E9, 0.0, 2025-11-15 12:42:46.135
54.0, -240.53914545010775, -132.14936493430287, -164.1012002057396, -150.33836836880073, -0.06400000303983688, 0.12800000607967377, 1.0240000486373901, 0.0, 0.0, 0.0, 0.0, 0.0, 1.7632285661355436E9, 0.0, 2025-11-15 12:42:46.135
55.0, -251.92714081518352, -157.62182353250682, -198.5606383974664, -194.56642524478957, -0.06400000303983688, 0.12800000607967377, 1.0240000486373901, 0.0, 0.0, 0.0, 0.0, 0.0, 1.7632285661492512E9, 0.0, 2025-11-15 12:42:46.149
55.0, -160.9690339928493, -81.31664473656565, -126.36186975287274, -88.86189289717004, -0.06400000303983688, 0.12800000607967377, 1.0240000486373901, 0.0, 0.0, 0.0, 0.0, 0.0, 1.7632285661492512E9, 0.0, 2025-11-15 12:42:46.149
56.0, -197.36574036162347, -106.9386993329972, -146.21699861763045, -134.47745265671983, -0.06400000303983688, 0.12800000607967377, 1.0240000486373901, 0.0, 0.0, 0.0, 0.0, 0.0, 1.7632285661648223E9, 0.0, 2025-11-15 12:42:46.164
56.0, -261.14599420595914, -157.0346592394635, -192.6665560672991, -173.12557879881933, -0.06400000303983688, 0.12800000607967377, 1.0240000486373901, 0.0, 0.0, 0.0, 0.0, 0.0, 1.7632285661648223E9, 0.0, 2025-11-15 12:42:46.164
57.0, -180.58854916039854, -95.80127726495266, -143.7112656473182, -119.2971987365745, -0.06400000303983688, 0.12800000607967377, 1.0240000486373901, 0.0, 0.0, 0.0, 0.0, 0.0, 1.763228566165524E9, 0.0, 2025-11-15 12:42:46.165
57.0, -142.94271620642394, -69.10961128119379, -112.69627531478181, -88.10643310612068, -0.06400000303983688, 0.12800000607967377, 1.0240000486373901, 0.0, 0.0, 0.0, 0.0, 0.0, 1.763228566165524E9, 0.0, 2025-11-15 12:42:46.165
58.0, -230.53865296859294, -135.03282780013978, -173.60428599314764, -164.8790993965231, -0.06400000303983688, 0.12800000607967377, 1.0240000486373901, 0.0, 0.0, 0.0, 0.0, 0.0, 1.7632285661792011E9, 0.0, 2025-11-15 12:42:46.179
58.0, -198.11372035276145, -116.5726816188544, -163.22980351606384, -132.7159597775899, -0.06400000303983688, 0.12800000607967377, 1.0240000486373901, 0.0, 0.0, 0.0, 0.0, 0.0, 1.7632285661792011E9, 0.0, 2025-11-15 12:42:46.179
59.0, -99.17466702498496, -45.04335506632924, -96.04250081209466, -67.75015764730051, -0.06400000303983688, 0.12800000607967377, 1.0240000486373901, 0.0, 0.0, 0.0, 0.0, 0.0, 1.7632285661948411E9, 0.0, 2025-11-15 12:42:46.194
59.0, -248.9651400502771, -125.46990361344069, -155.70512480521575, -149.70258537633345, -0.06400000303983688, 0.12800000607967377, 1.0240000486373901, 0.0, 0.0, 0.0, 0.0, 0.0, 1.7632285661948411E9, 0.0, 2025-11-15 12:42:46.194
60.0, -256.32526316307485, -154.41672927048057, -194.87683694111183, -178.60827213386074, -0.06400000303983688, 0.12800000607967377, 1.0400000493973494, 0.0, 0.0, 0.0, 0.0, 0.0, 1.7632285661955376E9, 0.0, 2025-11-15 12:42:46.195
60.0, -154.94405516423285, -73.4030164303258, -123.7439397838898, -86.95454391976818, -0.06400000303983688, 0.12800000607967377, 1.0400000493973494, 0.0, 0.0, 0.0, 0.0, 0.0, 1.7632285661955376E9, 0.0, 2025-11-15 12:42:46.195
61.0, -173.53509784396738, -91.10770282056183, -128.13458233186975, -113.4816543054767, -0.06400000303983688, 0.12800000607967377, 1.0400000493973494, 0.0, 0.0, 0.0, 0.0, 0.0, 1.7632285662091613E9, 0.0, 2025-11-15 12:42:46.209
61.0, -244.60815660189837, -154.68974196724594, -187.32223903061822, -167.34369346732274, -0.06400000303983688, 0.12800000607967377, 1.0400000493973494, 0.0, 0.0, 0.0, 0.0, 0.0, 1.7632285662091613E9, 0.0, 2025-11-15 12:42:46.209
62.0, -166.3058712296188, -88.97595984581858, -133.35174277005717, -102.10861854022369, -0.06400000303983688, 0.12800000607967377, 1.0400000493973494, 0.0, 0.0, 0.0, 0.0, 0.0, 1.763228566224828E9, 0.0, 2025-11-15 12:42:46.224
62.0, -153.99038067553192, -76.06208529882133, -115.99486707570031, -86.44965742575005, -0.06400000303983688, 0.12800000607967377, 1.0400000493973494, 0.0, 0.0, 0.0, 0.0, 0.0, 1.763228566224828E9, 0.0, 2025-11-15 12:42:46.224
63.0, -237.0049399919808, -147.138883956708, -182.75956108467653, -166.92856457224116, -0.06400000303983688, 0.12800000607967377, 1.0400000493973494, 0.0, 0.0, 0.0, 0.0, 0.0, 1.7632285662255516E9, 0.0, 2025-11-15 12:42:46.225
63.0, -187.70931867603213, -114.40353964455426, -162.81093472102657, -148.96582508506253, -0.06400000303983688, 0.12800000607967377, 1.0400000493973494, 0.0, 0.0, 0.0, 0.0, 0.0, 1.7632285662255516E9, 0.0, 2025-11-15 12:42:46.225
64.0, -137.23562887404114, -59.24375519808382, -100.49672165932134, -67.36494795186445, -0.06400000303983688, 0.12800000607967377, 1.0400000493973494, 0.0, 0.0, 0.0, 0.0, 0.0, 1.7632285662392156E9, 0.0, 2025-11-15 12:42:46.239
64.0, -194.95724479015917, -117.94896480254829, -158.97753726644441, -155.92203900264576, -0.06400000303983688, 0.12800000607967377, 1.0400000493973494, 0.0, 0.0, 0.0, 0.0, 0.0, 1.7632285662392156E9, 0.0, 2025-11-15 12:42:46.239
65.0, -281.10958016943187, -153.91558267641813, -189.60731790354475, -180.04813361680135, -0.06400000303983688, 0.12800000607967377, 1.0400000493973494, 0.0, 0.0, 0.0, 0.0, 0.0, 1.763228566254836E9, 0.0, 2025-11-15 12:42:46.254
65.0, -141.76464772038162, -61.99632156547159, -114.21093479683623, -72.78032308770344, -0.06400000303983688, 0.12800000607967377, 1.0400000493973494, 0.0, 0.0, 0.0, 0.0, 0.0, 1.763228566254836E9, 0.0, 2025-11-15 12:42:46.254
66.0, -186.89776038564742, -100.09842231404036, -134.7841244530864, -107.0677258814685, -0.06400000303983688, 0.12800000607967377, 1.0400000493973494, 0.0, 0.0, 0.0, 0.0, 0.0, 1.7632285662555192E9, 0.0, 2025-11-15 12:42:46.255
66.0, -228.53032669238746, -139.9545361418277, -175.38821827201173, -160.8736665439792, -0.06400000303983688, 0.12800000607967377, 1.0400000493973494, 0.0, 0.0, 0.0, 0.0, 0.0, 1.7632285662555192E9, 0.0, 2025-11-15 12:42:46.255
67.0, -189.92333944980055, -109.33223530463874, -160.3126815506257, -138.20239301258698, -0.06400000303983688, 0.12800000607967377, 1.0400000493973494, 0.0, 0.0, 0.0, 0.0, 0.0, 1.763228566269158E9, 0.0, 2025-11-15 12:42:46.269
67.0, -157.50588663388044, -71.73502105008811, -115.00379358744249, -88.42806450231001, -0.06400000303983688, 0.12800000607967377, 1.0400000493973494, 0.0, 0.0, 0.0, 0.0, 0.0, 1.763228566269158E9, 0.0, 2025-11-15 12:42:46.269
68.0, -245.98069988563657, -148.83305863663554, -190.87140408856794, -181.08034600457177, -0.06400000303983688, 0.12800000607967377, 1.0400000493973494, 0.0, 0.0, 0.0, 0.0, 0.0, 1.763228566284564E9, 0.0, 2025-11-15 12:42:46.284
68.0, -199.22447063960135, -122.41440534964204, -165.1708115930669, -140.566009784583, -0.06400000303983688, 0.12800000607967377, 1.0400000493973494, 0.0, 0.0, 0.0, 0.0, 0.0, 1.763228566284564E9, 0.0, 2025-11-15 12:42:46.284
69.0, -141.77960732020438, -57.59445931762457, -106.09909179294482, -69.7921430231072, -0.06400000303983688, 0.12800000607967377, 1.0400000493973494, 0.0, 0.0, 0.0, 0.0, 0.0, 1.7632285662998245E9, 0.0, 2025-11-15 12:42:46.299
69.0, -209.18382422160357, -130.44771045446396, -166.5470947767608, -163.51029601274058, -0.06400000303983688, 0.12800000607967377, 1.0400000493973494, 0.0, 0.0, 0.0, 0.0, 0.0, 1.7632285662998245E9, 0.0, 2025-11-15 12:42:46.299
70.0, -184.6014618128538, -135.1412848988548, -180.18650991516188, -167.52694856515154, -0.06400000303983688, 0.12800000607967377, 1.0400000493973494, 0.0, 0.0, 0.0, 0.0, 0.0, 1.763228566300531E9, 0.0, 2025-11-15 12:42:46.300
70.0, -181.66938024759293, -72.36332424264401, -118.3734434475191, -69.44059242727235, -0.06400000303983688, 0.12800000607967377, 1.0400000493973494, 0.0, 0.0, 0.0, 0.0, 0.0, 1.763228566300531E9, 0.0, 2025-11-15 12:42:46.300
71.0, -217.8416926190257, -124.50874932482839, -158.90273926733062, -139.7544514941983, -0.06400000303983688, 0.12800000607967377, 1.0400000493973494, 0.0, 0.0, 0.0, 0.0, 0.0, 1.7632285663312187E9, 0.0, 2025-11-15 12:42:46.331
71.0, -261.50876450166106, -159.76104630716145, -192.21028827270493, -171.52864151773974, -0.06400000303983688, 0.12800000607967377, 1.0400000493973494, 0.0, 0.0, 0.0, 0.0, 0.0, 1.7632285663312187E9, 0.0, 2025-11-15 12:42:46.331
72.0, -190.6077411416918, -108.3823007158935, -151.18732565874234, -103.0286339293234, -0.0800000037997961, 0.12800000607967377, 1.0400000493973494, 0.0, 0.0, 0.0, 0.0, 0.0, 1.7632285663319194E9, 0.0, 2025-11-15 12:42:46.331
72.0, -159.36087701190263, -79.04278556350619, -115.71437457902357, -96.11355891125277, -0.0800000037997961, 0.12800000607967377, 1.0400000493973494, 0.0, 0.0, 0.0, 0.0, 0.0, 1.7632285663319194E9, 0.0, 2025-11-15 12:42:46.331
73.0, -246.93811427429318, -150.28039991948754, -184.50609436398372, -177.22450915025547, -0.0800000037997961, 0.12800000607967377, 1.0400000493973494, 0.0, 0.0, 0.0, 0.0, 0.0, 1.7632285663326547E9, 0.0, 2025-11-15 12:42:46.332
73.0, -228.75472068972886, -144.70794898550957, -192.46834136964753, -172.104586110916, -0.0800000037997961, 0.12800000607967377, 1.0400000493973494, 0.0, 0.0, 0.0, 0.0, 0.0, 1.7632285663326547E9, 0.0, 2025-11-15 12:42:46.332
74.0, -138.13320486340672, -68.8852172838524, -116.2940590721555, -67.9034935454838, -0.0800000037997961, 0.12800000607967377, 1.0400000493973494, 0.0, 0.0, 0.0, 0.0, 0.0, 1.7632285663333988E9, 0.0, 2025-11-15 12:42:46.333
74.0, -221.1402843799442, -131.43878394272178, -171.23692932119593, -160.47349724872038, -0.0800000037997961, 0.12800000607967377, 1.0400000493973494, 0.0, 0.0, 0.0, 0.0, 0.0, 1.7632285663333988E9, 0.0, 2025-11-15 12:42:46.333
75.0, -247.64869526587427, -160.61374349705875, -196.46629442228004, -178.81770653137937, -0.0800000037997961, 0.12800000607967377, 1.0400000493973494, 0.0, 0.0, 0.0, 0.0, 0.0, 1.7632285663441684E9, 0.0, 2025-11-15 12:42:46.344
75.0, -130.46267005428672, -69.12831078097224, -120.69966121995822, -76.70721804117784, -0.0800000037997961, 0.12800000607967377, 1.0400000493973494, 0.0, 0.0, 0.0, 0.0, 0.0, 1.7632285663441684E9, 0.0, 2025-11-15 12:42:46.344
76.0, -165.95432063378394, -97.94797983951867, -138.57638300815597, -122.49855309864506, -0.0800000037997961, 0.12800000607967377, 1.0400000493973494, 0.0, 0.0, 0.0, 0.0, 0.0, 1.763228566375502E9, 0.0, 2025-11-15 12:42:46.375
76.0, -284.37077293079346, -160.52772579807788, -194.60008434439078, -172.63191200466827, -0.0800000037997961, 0.12800000607967377, 1.0400000493973494, 0.0, 0.0, 0.0, 0.0, 0.0, 1.763228566375502E9, 0.0, 2025-11-15 12:42:46.375
77.0, -189.50447065476328, -110.7571371877566, -155.40967270871624, -113.90426300046965, -0.0800000037997961, 0.12800000607967377, 1.0400000493973494, 0.0, 0.0, 0.0, 0.0, 0.0, 1.7632285663762064E9, 0.0, 2025-11-15 12:42:46.376
77.0, -160.06397820357233, -81.61583673302084, -118.30238534836099, -86.17664472898468, -0.0800000037997961, 0.12800000607967377, 1.0400000493973494, 0.0, 0.0, 0.0, 0.0, 0.0, 1.7632285663762064E9, 0.0, 2025-11-15 12:42:46.376
78.0, -248.6696879537776, -154.8168985657394, -178.7354287323542, -149.10046148346737, -0.0800000037997961, 0.12800000607967377, 1.0400000493973494, 0.0, 0.0, 0.0, 0.0, 0.0, 1.763228566376954E9, 0.0, 2025-11-15 12:42:46.376
78.0, -212.9947822764516, -131.5771602410823, -169.26600204454735, -135.15063464874402, -0.0800000037997961, 0.12800000607967377, 1.0400000493973494, 0.0, 0.0, 0.0, 0.0, 0.0, 1.763228566376954E9, 0.0, 2025-11-15 12:42:46.376
79.0, -137.2879874734208, -58.510734806768596, -109.28548655519262, -75.97045774990693, -0.0800000037997961, 0.12800000607967377, 1.0400000493973494, 0.0, 0.0, 0.0, 0.0, 0.0, 1.763228566405485E9, 0.0, 2025-11-15 12:42:46.405
79.0, -220.35864528920501, -138.15564426314086, -179.22909552650526, -161.32619443861768, -0.0800000037997961, 0.12800000607967377, 1.0400000493973494, 0.0, 0.0, 0.0, 0.0, 0.0, 1.763228566405485E9, 0.0, 2025-11-15 12:42:46.405
80.0, -227.15404350869358, -148.23093474376947, -193.45941485790536, -173.99697548849508, -0.0800000037997961, 0.12800000607967377, 1.0400000493973494, 0.0, 0.0, 0.0, 0.0, 0.0, 1.763228566406185E9, 0.0, 2025-11-15 12:42:46.406
80.0, -119.14573278836906, -82.3002384249121, -138.62874160753563, -94.77467472711578, -0.0800000037997961, 0.12800000607967377, 1.0400000493973494, 0.0, 0.0, 0.0, 0.0, 0.0, 1.763228566406185E9, 0.0, 2025-11-15 12:42:46.406
81.0, -179.00283157918602, -104.21979206521064, -141.5271640731953, -116.62317026825622, -0.0800000037997961, 0.12800000607967377, 1.0400000493973494, 0.0, 0.0, 0.0, 0.0, 0.0, 1.7632285664069426E9, 0.0, 2025-11-15 12:42:46.406
81.0, -275.174358939752, -169.0472178971395, -206.04791810875759, -185.6579835503362, -0.0800000037997961, 0.12800000607967377, 1.0400000493973494, 0.0, 0.0, 0.0, 0.0, 0.0, 1.7632285664069426E9, 0.0, 2025-11-15 12:42:46.406
82.0, -191.10888773575425, -108.34116181638092, -160.5071563483216, -121.83285090653226, -0.06400000303983688, 0.12800000607967377, 1.0400000493973494, 0.0, 0.0, 0.0, 0.0, 0.0, 1.7632285664191806E9, 0.0, 2025-11-15 12:42:46.419
82.0, -160.35943030007184, -88.0035858573392, -136.35488243447617, -97.32902639685199, -0.06400000303983688, 0.12800000607967377, 1.0400000493973494, 0.0, 0.0, 0.0, 0.0, 0.0, 1.7632285664191806E9, 0.0, 2025-11-15 12:42:46.419
83.0, -241.01411274448037, -150.5908116158098, -193.5903113563545, -175.68367036851123, -0.06400000303983688, 0.12800000607967377, 1.0400000493973494, 0.0, 0.0, 0.0, 0.0, 0.0, 1.7632285664348576E9, 0.0, 2025-11-15 12:42:46.434
83.0, -204.55382807645947, -133.77622141502798, -178.89624443044886, -147.94857229711488, -0.06400000303983688, 0.12800000607967377, 1.0400000493973494, 0.0, 0.0, 0.0, 0.0, 0.0, 1.7632285664348576E9, 0.0, 2025-11-15 12:42:46.434
84.0, -131.37146574351937, -71.74250084999949, -120.91657541738823, -84.29173515131697, -0.06400000303983688, 0.12800000607967377, 1.0400000493973494, 0.0, 0.0, 0.0, 0.0, 0.0, 1.76322856643552E9, 0.0, 2025-11-15 12:42:46.435
84.0, -234.5964444205165, -146.04683316964656, -186.2601074432023, -168.52550185332075, -0.06400000303983688, 0.12800000607967377, 1.0400000493973494, 0.0, 0.0, 0.0, 0.0, 0.0, 1.76322856643552E9, 0.0, 2025-11-15 12:42:46.435
85.0, -240.2249938538298, -162.06108477991074, -205.34855681704357, -184.5098342639394, -0.06400000303983688, 0.12800000607967377, 1.0400000493973494, 0.0, 0.0, 0.0, 0.0, 0.0, 1.7632285664491677E9, 0.0, 2025-11-15 12:42:46.449
85.0, -151.75392050202936, -87.46130036376417, -141.639361071866, -96.581046405714, -0.06400000303983688, 0.12800000607967377, 1.0400000493973494, 0.0, 0.0, 0.0, 0.0, 0.0, 1.7632285664491677E9, 0.0, 2025-11-15 12:42:46.449
86.0, -189.35113475658, -111.99504407308996, -149.683885876555, -115.8153518778272, -0.06400000303983688, 0.12800000607967377, 1.0400000493973494, 0.0, 0.0, 0.0, 0.0, 0.0, 1.7632285664647942E9, 0.0, 2025-11-15 12:42:46.464
86.0, -230.75182726606727, -156.94864154048264, -201.31320476485416, -186.24514784337953, -0.06400000303983688, 0.12800000607967377, 1.0400000493973494, 0.0, 0.0, 0.0, 0.0, 0.0, 1.7632285664647942E9, 0.0, 2025-11-15 12:42:46.464
87.0, -123.05018834210932, -100.02362431492656, -161.04196204198524, -123.1492956909351, -0.06400000303983688, 0.12800000607967377, 1.0400000493973494, 0.0, 0.0, 0.0, 0.0, 0.0, 1.7632285664655104E9, 0.0, 2025-11-15 12:42:46.465
87.0, -207.8412001375109, -100.07224301435053, -136.90464772796258, -98.74270858010277, -0.06400000303983688, 0.12800000607967377, 1.0400000493973494, 0.0, 0.0, 0.0, 0.0, 0.0, 1.7632285664655104E9, 0.0, 2025-11-15 12:42:46.465
88.0, -242.27445902954787, -154.5513656688854, -201.821831158828, -184.44999586464837, -0.06400000303983688, 0.12800000607967377, 1.0400000493973494, 0.0, 0.0, 0.0, 0.0, 0.0, 1.7632285664791677E9, 0.0, 2025-11-15 12:42:46.479
88.0, -196.54670227132738, -132.07830683514476, -180.23138871463016, -145.70463232370093, -0.06400000303983688, 0.12800000607967377, 1.0400000493973494, 0.0, 0.0, 0.0, 0.0, 0.0, 1.7632285664791677E9, 0.0, 2025-11-15 12:42:46.479
89.0, -156.0024468516931, -78.01805297564715, -131.6687877899967, -82.73219686979428, -0.06400000303983688, 0.12800000607967377, 1.0400000493973494, 0.0, 0.0, 0.0, 0.0, 0.0, 1.7632285664948282E9, 0.0, 2025-11-15 12:42:46.494
89.0, -235.68849520757794, -141.0989455282688, -183.24574807891622, -167.9906961596571, -0.06400000303983688, 0.12800000607967377, 1.0400000493973494, 0.0, 0.0, 0.0, 0.0, 0.0, 1.7632285664948282E9, 0.0, 2025-11-15 12:42:46.494
90.0, -244.1144898077473, -160.61000359710306, -207.4877795916982, -178.219322538469, -0.06400000303983688, 0.12800000607967377, 1.0240000486373901, 0.0, 0.0, 0.0, 0.0, 0.0, 1.7632285664955256E9, 0.0, 2025-11-15 12:42:46.495
90.0, -152.64027679152787, -89.05449774488807, -148.81248918687925, -98.08448618790135, -0.06400000303983688, 0.12800000607967377, 1.0240000486373901, 0.0, 0.0, 0.0, 0.0, 0.0, 1.7632285664955256E9, 0.0, 2025-11-15 12:42:46.495
91.0, -187.0136972842738, -116.74845691677183, -156.5765214948915, -118.53425914561376, -0.06400000303983688, 0.12800000607967377, 1.0240000486373901, 0.0, 0.0, 0.0, 0.0, 0.0, 1.763228566509179E9, 0.0, 2025-11-15 12:42:46.509
91.0, -255.33044977486134, -169.4174679927528, -217.4583528735675, -195.2994456361048, -0.06400000303983688, 0.12800000607967377, 1.0240000486373901, 0.0, 0.0, 0.0, 0.0, 0.0, 1.763228566509179E9, 0.0, 2025-11-15 12:42:46.509
92.0, -183.59168882481754, -122.52286244835705, -171.58847991703078, -132.39806828135625, -0.06400000303983688, 0.12800000607967377, 1.0240000486373901, 0.0, 0.0, 0.0, 0.0, 0.0, 1.7632285665248675E9, 0.0, 2025-11-15 12:42:46.524
92.0, -126.34878010302782, -80.42654854711145, -132.64864157838747, -95.59745271736756, -0.06400000303983688, 0.12800000607967377, 1.0240000486373901, 0.0, 0.0, 0.0, 0.0, 0.0, 1.7632285665248675E9, 0.0, 2025-11-15 12:42:46.524
93.0, -248.3779757572338, -163.16435526683927, -201.60117706144229, -177.96500934148207, -0.06400000303983688, 0.12800000607967377, 1.0240000486373901, 0.0, 0.0, 0.0, 0.0, 0.0, 1.763228566525526E9, 0.0, 2025-11-15 12:42:46.525
93.0, -237.43128858692944, -144.63315098639578, -186.806132836733, -145.54007672565058, -0.06400000303983688, 0.12800000607967377, 1.0240000486373901, 0.0, 0.0, 0.0, 0.0, 0.0, 1.763228566525526E9, 0.0, 2025-11-15 12:42:46.525
94.0, -148.41792974155396, -81.47372053470463, -134.76916485326365, -93.951896736864, -0.06400000303983688, 0.12800000607967377, 1.0240000486373901, 0.0, 0.0, 0.0, 0.0, 0.0, 1.7632285665391874E9, 0.0, 2025-11-15 12:42:46.539
94.0, -218.67943020910025, -143.52614059951156, -187.59525172738358, -171.52490161778405, -0.06400000303983688, 0.12800000607967377, 1.0240000486373901, 0.0, 0.0, 0.0, 0.0, 0.0, 1.7632285665391874E9, 0.0, 2025-11-15 12:42:46.539
95.0, -243.39268911629915, -154.20729487296194, -195.15732943778858, -173.36867229593918, -0.06400000303983688, 0.12800000607967377, 1.0240000486373901, 0.0, 0.0, 0.0, 0.0, 0.0, 1.7632285665711992E9, 0.0, 2025-11-15 12:42:46.571
95.0, -167.94768731016666, -101.73275859467685, -159.392666161526, -116.26787977246568, -0.06400000303983688, 0.12800000607967377, 1.0240000486373901, 0.0, 0.0, 0.0, 0.0, 0.0, 1.7632285665711992E9, 0.0, 2025-11-15 12:42:46.571
96.0, -199.52366263605654, -123.08010754175484, -169.23608284490183, -142.43221986247227, -0.06400000303983688, 0.12800000607967377, 1.0240000486373901, 0.0, 0.0, 0.0, 0.0, 0.0, 1.763228566571896E9, 0.0, 2025-11-15 12:42:46.571
96.0, -227.0755056096241, -162.2256403779611, -201.60117706144229, -171.88767191348597, -0.06400000303983688, 0.12800000607967377, 1.0240000486373901, 0.0, 0.0, 0.0, 0.0, 0.0, 1.763228566571896E9, 0.0, 2025-11-15 12:42:46.571
97.0, -195.85856067948043, -119.79273548070341, -169.15754494583234, -119.42435533506796, -0.06400000303983688, 0.12800000607967377, 1.0240000486373901, 0.0, 0.0, 0.0, 0.0, 0.0, 1.7632285665726347E9, 0.0, 2025-11-15 12:42:46.572
97.0, -149.65209672693163, -87.58845696225762, -135.57698324369267, -85.73159663425758, -0.06400000303983688, 0.12800000607967377, 1.0240000486373901, 0.0, 0.0, 0.0, 0.0, 0.0, 1.7632285665726347E9, 0.0, 2025-11-15 12:42:46.572
98.0, -234.94051521643996, -154.71966116689146, -193.39209665870294, -175.38821827201173, -0.06400000303983688, 0.12800000607967377, 1.0240000486373901, 0.0, 0.0, 0.0, 0.0, 0.0, 1.763228566573387E9, 0.0, 2025-11-15 12:42:46.573
98.0, -202.63525939919055, -131.22934954520315, -174.57665998162702, -141.9348131683655, -0.06400000303983688, 0.12800000607967377, 1.0240000486373901, 0.0, 0.0, 0.0, 0.0, 0.0, 1.763228566573387E9, 0.0, 2025-11-15 12:42:46.573
99.0, -141.6187916221097, -63.49228154774755, -118.67263544397429, -70.70467861229554, -0.06400000303983688, 0.12800000607967377, 1.0240000486373901, 0.0, 0.0, 0.0, 0.0, 0.0, 1.7632285665841713E9, 0.0, 2025-11-15 12:42:46.584
99.0, -208.6938973274082, -132.48969583027065, -177.11979195149615, -152.58230834221467, -0.06400000303983688, 0.12800000607967377, 1.0240000486373901, 0.0, 0.0, 0.0, 0.0, 0.0, 1.7632285665841713E9, 0.0, 2025-11-15 12:42:46.584
100.0, -205.72067686263472, -140.3210463374853, -188.24225441971794, -162.238730027806, -0.06400000303983688, 0.12800000607967377, 1.0240000486373901, 0.0, 0.0, 0.0, 0.0, 0.0, 1.763228566599858E9, 0.0, 2025-11-15 12:42:46.599
100.0, -179.77325097005814, -94.79524417687207, -142.09188896650448, -94.94671012507752, -0.06400000303983688, 0.12800000607967377, 1.0240000486373901, 0.0, 0.0, 0.0, 0.0, 0.0, 1.763228566599858E9, 0.0, 2025-11-15 12:42:46.599
0.0, -193.5192532571964, -107.43610602710396, -148.22719484381378, -114.99631378753111, -0.06400000303983688, 0.12800000607967377, 1.0240000486373901, 0.0, 0.0, 0.0, 0.0, 0.0, 1.7632285666005511E9, 0.0, 2025-11-15 12:42:46.600
1.0, -236.16159255197272, -151.52204670477659, -193.03493621293455, -159.3216080623679, -0.06400000303983688, 0.12800000607967377, 1.0240000486373901, 0.0, 0.0, 0.0, 0.0, 0.0, 1.7632285666141946E9, 0.0, 2025-11-15 12:42:46.614
1.0, -176.78320095548406, -111.80430917534977, -163.51216596271843, -108.18595596821979, -0.06400000303983688, 0.12800000607967377, 1.0240000486373901, 0.0, 0.0, 0.0, 0.0, 0.0, 1.7632285666141946E9, 0.0, 2025-11-15 12:42:46.614
2.0, -153.3901267326437, -91.0441245213151, -139.19533645082265, -106.87325108377263, -0.06400000303983688, 0.12800000607967377, 1.0240000486373901, 0.0, 0.0, 0.0, 0.0, 0.0, 1.763228566629831E9, 0.0, 2025-11-15 12:42:46.629
2.0, -216.07084999000654, -136.38293168414384, -175.3040705230087, -154.43355882028118, -0.06400000303983688, 0.12800000607967377, 1.0240000486373901, 0.0, 0.0, 0.0, 0.0, 0.0, 1.763228566629831E9, 0.0, 2025-11-15 12:42:46.629
3.0, -194.3308115475811, -123.21474394015968, -169.0846168966964, -141.8974141688086, -0.06400000303983688, 0.12800000607967377, 1.0240000486373901, 0.0, 0.0, 0.0, 0.0, 0.0, 1.7632285666305583E9, 0.0, 2025-11-15 12:42:46.630
3.0, -146.8266023104079, -68.2905731908977, -120.9857635665685, -70.78695641132072, -0.06400000303983688, 0.12800000607967377, 1.0240000486373901, 0.0, 0.0, 0.0, 0.0, 0.0, 1.7632285666305583E9, 0.0, 2025-11-15 12:42:46.630
4.0, -192.8161520655267, -125.08843381796032, -168.74054610077292, -147.0472564077936, -0.06400000303983688, 0.12800000607967377, 1.0240000486373901, 0.0, 0.0, 0.0, 0.0, 0.0, 1.7632285666442044E9, 0.0, 2025-11-15 12:42:46.644
4.0, -248.56310080504045, -152.1840089969337, -193.25933021027595, -162.60524022346362, -0.06400000303983688, 0.12800000607967377, 1.0240000486373901, 0.0, 0.0, 0.0, 0.0, 0.0, 1.7632285666442044E9, 0.0, 2025-11-15 12:42:46.644
5.0, -154.4260790203698, -86.87039617076516, -143.50744109973311, -86.92836462007836, -0.06400000303983688, 0.12800000607967377, 1.0240000486373901, 0.0, 0.0, 0.0, 0.0, 0.0, 1.763228566659835E9, 0.0, 2025-11-15 12:42:46.659
5.0, -178.37265843665227, -102.4919582856819, -142.9913349058479, -112.12407062156126, -0.06400000303983688, 0.12800000607967377, 1.0240000486373901, 0.0, 0.0, 0.0, 0.0, 0.0, 1.763228566659835E9, 0.0, 2025-11-15 12:42:46.659
6.0, -220.66718703554943, -144.93608288280666, -185.41302010323852, -156.47554419608787, -0.06400000303983688, 0.12800000607967377, 1.0240000486373901, 0.0, 0.0, 0.0, 0.0, 0.0, 1.7632285666605568E9, 0.0, 2025-11-15 12:42:46.660
6.0, -171.89889161335304, -103.77848387043923, -155.16096936166286, -106.18884939188138, -0.06400000303983688, 0.12800000607967377, 1.0240000486373901, 0.0, 0.0, 0.0, 0.0, 0.0, 1.7632285666605568E9, 0.0, 2025-11-15 12:42:46.660
7.0, -134.66070775454864, -71.79485944937915, -115.56290863081813, -74.34360126918182, -0.06400000303983688, 0.12800000607967377, 1.0240000486373901, 0.0, 0.0, 0.0, 0.0, 0.0, 1.7632285666741724E9, 0.0, 2025-11-15 12:42:46.674
7.0, -221.87517472123727, -138.78768735565245, -176.80751030519605, -146.65830681240186, -0.06400000303983688, 0.12800000607967377, 1.0240000486373901, 0.0, 0.0, 0.0, 0.0, 0.0, 1.7632285666741724E9, 0.0, 2025-11-15 12:42:46.674
8.0, -190.71806819038466, -124.38907252624631, -170.88724867533892, -138.66614060709253, -0.06400000303983688, 0.12800000607967377, 1.0240000486373901, 0.0, 0.0, 0.0, 0.0, 0.0, 1.763228566689824E9, 0.0, 2025-11-15 12:42:46.689
8.0, -91.26664856867865, -67.34437850210816, -122.18627145234495, -73.52456317888573, -0.06400000303983688, 0.12800000607967377, 1.0240000486373901, 0.0, 0.0, 0.0, 0.0, 0.0, 1.763228566689824E9, 0.0, 2025-11-15 12:42:46.689
9.0, -259.5584066747688, -155.57235835678875, -186.21335869375616, -152.78800283977762, -0.06400000303983688, 0.12800000607967377, 1.0240000486373901, 0.0, 0.0, 0.0, 0.0, 0.0, 1.7632285666905355E9, 0.0, 2025-11-15 12:42:46.690
9.0, -229.61676762951538, -148.98265463486314, -188.93226596154273, -152.89272003853694, -0.06400000303983688, 0.12800000607967377, 1.0240000486373901, 0.0, 0.0, 0.0, 0.0, 0.0, 1.7632285666905355E9, 0.0, 2025-11-15 12:42:46.690
10.0, -159.0897342651151, -92.13617530837655, -144.6294110864401, -88.86937269708142, -0.06400000303983688, 0.12800000607967377, 1.0240000486373901, 0.0, 0.0, 0.0, 0.0, 0.0, 1.76322856670421E9, 0.0, 2025-11-15 12:42:46.704
10.0, -180.48570191161707, -110.08395519573241, -153.9604614758864, -122.61448999727145, -0.06400000303983688, 0.12800000607967377, 1.0240000486373901, 0.0, 0.0, 0.0, 0.0, 0.0, 1.76322856670421E9, 0.0, 2025-11-15 12:42:46.704
11.0, -224.91197348525748, -148.5151671404019, -185.80570959858596, -156.70741799334064, -0.06400000303983688, 0.12800000607967377, 1.0240000486373901, 0.0, 0.0, 0.0, 0.0, 0.0, 1.763228566719882E9, 0.0, 2025-11-15 12:42:46.719
11.0, -173.4359904951416, -105.65217374823987, -157.93597512878478, -108.16725646844134, -0.06400000303983688, 0.12800000607967377, 1.0240000486373901, 0.0, 0.0, 0.0, 0.0, 0.0, 1.763228566719882E9, 0.0, 2025-11-15 12:42:46.719
12.0, -165.70935718668625, -94.4885723805055, -139.34867234900594, -94.52410143008456, -0.06400000303983688, 0.12800000607967377, 1.0240000486373901, 0.0, 0.0, 0.0, 0.0, 0.0, 1.763228566720531E9, 0.0, 2025-11-15 12:42:46.720
12.0, -217.02078457875177, -148.64980353880674, -182.2752440404147, -149.25753728160635, -0.06400000303983688, 0.12800000607967377, 1.0240000486373901, 0.0, 0.0, 0.0, 0.0, 0.0, 1.763228566720531E9, 0.0, 2025-11-15 12:42:46.720
13.0, -210.06831056112424, -137.34782587271184, -174.65332793071866, -132.3008308825083, -0.06400000303983688, 0.12800000607967377, 1.0240000486373901, 0.0, 0.0, 0.0, 0.0, 0.0, 1.763228566734193E9, 0.0, 2025-11-15 12:42:46.734
13.0, -142.48831836180761, -72.19128884468228, -118.01254310179502, -58.63602145528421, -0.06400000303983688, 0.12800000607967377, 1.0240000486373901, 0.0, 0.0, 0.0, 0.0, 0.0, 1.763228566734193E9, 0.0, 2025-11-15 12:42:46.734
14.0, -227.33916855650023, -140.9942283295095, -173.77445144113153, -155.32365500973538, -0.06400000303983688, 0.12800000607967377, 1.0240000486373901, 0.0, 0.0, 0.0, 0.0, 0.0, 1.7632285667498405E9, 0.0, 2025-11-15 12:42:46.749
14.0, -223.87602119753137, -144.42745648883283, -180.4576526619494, -136.31748343491927, -0.06400000303983688, 0.12800000607967377, 1.0240000486373901, 0.0, 0.0, 0.0, 0.0, 0.0, 1.7632285667498405E9, 0.0, 2025-11-15 12:42:46.749
15.0, -135.58072314364836, -86.27201217785478, -147.44929565303028, -100.88941115466878, -0.06400000303983688, 0.12800000607967377, 1.0240000486373901, 0.0, 0.0, 0.0, 0.0, 0.0, 1.763228566750529E9, 0.0, 2025-11-15 12:42:46.750
15.0, -186.75003433739766, -119.56834148336202, -161.65343568474054, -147.61946110101417, -0.06400000303983688, 0.12800000607967377, 1.0240000486373901, 0.0, 0.0, 0.0, 0.0, 0.0, 1.763228566750529E9, 0.0, 2025-11-15 12:42:46.750
16.0, -263.9153901231475, -172.58516325522214, -207.14931864570826, -174.57665998162702, -0.06400000303983688, 0.12800000607967377, 1.0240000486373901, 0.0, 0.0, 0.0, 0.0, 0.0, 1.7632285667642326E9, 0.0, 2025-11-15 12:42:46.764
16.0, -206.2648323061876, -131.0647939471528, -178.20997278857976, -127.28936494188383, -0.06400000303983688, 0.12800000607967377, 1.0240000486373901, 0.0, 0.0, 0.0, 0.0, 0.0, 1.7632285667642326E9, 0.0, 2025-11-15 12:42:46.764
17.0, -162.986710018944, -97.29723724722862, -141.09146572835743, -100.77721415599808, -0.06400000303983688, 0.12800000607967377, 1.0240000486373901, 0.0, 0.0, 0.0, 0.0, 0.0, 1.7632285667795837E9, 0.0, 2025-11-15 12:42:46.779
17.0, -240.81402809685096, -156.2231009490788, -192.48517091944814, -159.30664846254513, -0.06400000303983688, 0.12800000607967377, 1.0240000486373901, 0.0, 0.0, 0.0, 0.0, 0.0, 1.7632285667795837E9, 0.0, 2025-11-15 12:42:46.779
18.0, -217.10306237777695, -139.85355884302408, -188.32266226876527, -147.55588280176744, -0.06400000303983688, 0.12800000607967377, 1.0240000486373901, 0.0, 0.0, 0.0, 0.0, 0.0, 1.7632285667962053E9, 0.0, 2025-11-15 12:42:46.796
18.0, -157.84060767991468, -89.73515953682363, -143.1446708040312, -96.73438230389729, -0.06400000303983688, 0.12800000607967377, 1.0240000486373901, 0.0, 0.0, 0.0, 0.0, 0.0, 1.7632285667962053E9, 0.0, 2025-11-15 12:42:46.796
19.0, -218.18389346497133, -139.75258154422045, -178.2735510878265, -142.6079951603897, -0.06400000303983688, 0.12800000607967377, 1.0240000486373901, 0.0, 0.0, 0.0, 0.0, 0.0, 1.7632285667969136E9, 0.0, 2025-11-15 12:42:46.796
19.0, -209.73545946506783, -145.37739107757807, -190.37960724439472, -161.35985353821889, -0.06400000303983688, 0.12800000607967377, 1.0240000486373901, 0.0, 0.0, 0.0, 0.0, 0.0, 1.7632285667969136E9, 0.0, 2025-11-15 12:42:46.796
20.0, -187.2923198309727, -118.6483260942623, -168.46753340400755, -116.12576357414946, -0.06400000303983688, 0.12800000607967377, 1.0400000493973494, 0.0, 0.0, 0.0, 0.0, 0.0, 1.7632285667976637E9, 0.0, 2025-11-15 12:42:46.797
20.0, -196.81036521820351, -122.18253155238926, -158.39224292337894, -119.64126953249797, -0.06400000303983688, 0.12800000607967377, 1.0400000493973494, 0.0, 0.0, 0.0, 0.0, 0.0, 1.7632285667976637E9, 0.0, 2025-11-15 12:42:46.797
21.0, -254.71149633219466, -177.43581349775195, -217.79681381955743, -191.08831828599796, -0.06400000303983688, 0.144000006839633, 1.0400000493973494, 0.0, 0.0, 0.0, 0.0, 0.0, 1.7632285668092124E9, 0.0, 2025-11-15 12:42:46.809
21.0, -200.7858788711019, -125.76909560989588, -179.50397817324847, -132.92539417510852, -0.06400000303983688, 0.144000006839633, 1.0400000493973494, 0.0, 0.0, 0.0, 0.0, 0.0, 1.7632285668092124E9, 0.0, 2025-11-15 12:42:46.809
22.0, -154.70283161709085, -97.06910334993154, -146.8434318602085, -105.26883400278166, -0.06400000303983688, 0.144000006839633, 1.0400000493973494, 0.0, 0.0, 0.0, 0.0, 0.0, 1.7632285668241708E9, 0.0, 2025-11-15 12:42:46.824
22.0, -193.61649065604433, -149.24818753171712, -194.32520169764757, -162.59028062364087, -0.06400000303983688, 0.144000006839633, 1.0400000493973494, 0.0, 0.0, 0.0, 0.0, 0.0, 1.7632285668241708E9, 0.0, 2025-11-15 12:42:46.824
23.0, -267.0718656857498, -170.62545567844063, -208.34982653148472, -172.59825290506706, -0.06400000303983688, 0.144000006839633, 1.0400000493973494, 0.0, 0.0, 0.0, 0.0, 0.0, 1.763228566839827E9, 0.0, 2025-11-15 12:42:46.839
23.0, -161.51692933635786, -97.00178515072912, -143.38776430115104, -88.40936500253156, -0.06400000303983688, 0.144000006839633, 1.0400000493973494, 0.0, 0.0, 0.0, 0.0, 0.0, 1.763228566839827E9, 0.0, 2025-11-15 12:42:46.839
24.0, -202.6745283487253, -137.40766427200288, -179.42918017413467, -149.07054228382185, -0.06400000303983688, 0.144000006839633, 1.0400000493973494, 0.0, 0.0, 0.0, 0.0, 0.0, 1.76322856684053E9, 0.0, 2025-11-15 12:42:46.840
24.0, -240.89630589587614, -153.99038067553192, -195.17415898758918, -168.3160674558021, -0.06400000303983688, 0.144000006839633, 1.0400000493973494, 0.0, 0.0, 0.0, 0.0, 0.0, 1.76322856684053E9, 0.0, 2025-11-15 12:42:46.840
25.0, -166.1768446811475, -99.24198522418737, -153.59769118018448, -112.69253541482612, -0.06400000303983688, 0.144000006839633, 1.0400000493973494, 0.0, 0.0, 0.0, 0.0, 0.0, 1.7632285668541987E9, 0.0, 2025-11-15 12:42:46.854
25.0, -213.09762952523306, -126.913504996337, -169.6755210896954, -138.42678700992838, -0.06400000303983688, 0.144000006839633, 1.0400000493973494, 0.0, 0.0, 0.0, 0.0, 0.0, 1.7632285668541987E9, 0.0, 2025-11-15 12:42:46.854
26.0, -231.18378571094945, -162.7492263717577, -209.1352055221796, -179.38243142468855, -0.06400000303983688, 0.144000006839633, 1.0400000493973494, 0.0, 0.0, 0.0, 0.0, 0.0, 1.76322856686966E9, 0.0, 2025-11-15 12:42:46.869
26.0, -201.7395533598028, -128.9480105722323, -178.41192738618702, -135.46852614497766, -0.06400000303983688, 0.144000006839633, 1.0400000493973494, 0.0, 0.0, 0.0, 0.0, 0.0, 1.76322856686966E9, 0.0, 2025-11-15 12:42:46.869
27.0, -166.77148877410218, -101.21291250083596, -141.49911482352763, -88.51408220129088, -0.06400000303983688, 0.144000006839633, 1.0400000493973494, 0.0, 0.0, 0.0, 0.0, 0.0, 1.7632285668848224E9, 0.0, 2025-11-15 12:42:46.884
27.0, -242.29502847930416, -164.14046915527433, -200.94108471926302, -165.5822005881928, -0.06400000303983688, 0.144000006839633, 1.0400000493973494, 0.0, 0.0, 0.0, 0.0, 0.0, 1.7632285668848224E9, 0.0, 2025-11-15 12:42:46.884
28.0, -230.59288151795045, -162.21068077813834, -212.87136557791382, -180.4333433122374, -0.06400000303983688, 0.144000006839633, 1.0400000493973494, 0.0, 0.0, 0.0, 0.0, 0.0, 1.7632285668855407E9, 0.0, 2025-11-15 12:42:46.885
28.0, -112.75985361402854, -94.95231997501105, -153.59769118018448, -102.39285093685612, -0.06400000303983688, 0.144000006839633, 1.0400000493973494, 0.0, 0.0, 0.0, 0.0, 0.0, 1.7632285668855407E9, 0.0, 2025-11-15 12:42:46.885
29.0, -270.0338664506562, -171.1976603716612, -202.8035548971966, -165.63455918757245, -0.06400000303983688, 0.144000006839633, 1.0400000493973494, 0.0, 0.0, 0.0, 0.0, 0.0, 1.7632285668998623E9, 0.0, 2025-11-15 12:42:46.899
29.0, -252.14966486254707, -170.32626368198544, -212.40761798340827, -168.23752955673262, -0.06400000303983688, 0.144000006839633, 1.0400000493973494, 0.0, 0.0, 0.0, 0.0, 0.0, 1.7632285668998623E9, 0.0, 2025-11-15 12:42:46.899
30.0, -173.08443989930674, -112.78042306378484, -161.27196588926017, -94.61385902902111, -0.06400000303983688, 0.144000006839633, 1.0400000493973494, 0.0, 0.0, 0.0, 0.0, 0.0, 1.7632285669005396E9, 0.0, 2025-11-15 12:42:46.900
30.0, -194.05031905090436, -122.19375125225633, -164.7425930481404, -138.31832991121337, -0.06400000303983688, 0.144000006839633, 1.0400000493973494, 0.0, 0.0, 0.0, 0.0, 0.0, 1.7632285669005396E9, 0.0, 2025-11-15 12:42:46.900
31.0, -260.5532200629823, -171.3023775704205, -206.25174265634269, -172.45987660670653, -0.06400000303983688, 0.144000006839633, 1.0400000493973494, 0.0, 0.0, 0.0, 0.0, 0.0, 1.7632285669142385E9, 0.0, 2025-11-15 12:42:46.914
31.0, -187.71118862600997, -134.07915331143886, -182.17052684165537, -129.83249691175297, -0.06400000303983688, 0.144000006839633, 1.0400000493973494, 0.0, 0.0, 0.0, 0.0, 0.0, 1.7632285669142385E9, 0.0, 2025-11-15 12:42:46.914
32.0, -186.2937665428035, -113.41620605625212, -160.12007670290768, -118.48564044618979, -0.04800000227987766, 0.144000006839633, 1.0400000493973494, 0.0, 0.0, 0.0, 0.0, 0.0, 1.7632285669298165E9, 0.0, 2025-11-15 12:42:46.929
32.0, -242.37730627832934, -172.86565575189888, -211.61101929284632, -186.56677923956886, -0.04800000227987766, 0.144000006839633, 1.0400000493973494, 0.0, 0.0, 0.0, 0.0, 0.0, 1.7632285669298165E9, 0.0, 2025-11-15 12:42:46.929
33.0, -195.95766802830622, -142.22839531488717, -194.60943409428, -154.23160422267392, -0.04800000227987766, 0.144000006839633, 1.0400000493973494, 0.0, 0.0, 0.0, 0.0, 0.0, 1.7632285669305243E9, 0.0, 2025-11-15 12:42:46.930
33.0, -183.64965727413073, -112.67944576498121, -164.8547900468111, -106.86951118381694, -0.04800000227987766, 0.144000006839633, 1.0400000493973494, 0.0, 0.0, 0.0, 0.0, 0.0, 1.7632285669305243E9, 0.0, 2025-11-15 12:42:46.930
34.0, -231.11272761179134, -151.68286240287125, -194.14568649977446, -163.60753341158852, -0.04800000227987766, 0.144000006839633, 1.0400000493973494, 0.0, 0.0, 0.0, 0.0, 0.0, 1.7632285669441807E9, 0.0, 2025-11-15 12:42:46.944
34.0, -238.7196841216646, -159.02054611593485, -204.0601612823084, -167.22027676878497, -0.04800000227987766, 0.144000006839633, 1.0400000493973494, 0.0, 0.0, 0.0, 0.0, 0.0, 1.7632285669441807E9, 0.0, 2025-11-15 12:42:46.944
35.0, -178.63071153359488, -115.74990362860262, -164.7425930481404, -106.31226609041914, -0.04800000227987766, 0.144000006839633, 1.0400000493973494, 0.0, 0.0, 0.0, 0.0, 0.0, 1.7632285669598184E9, 0.0, 2025-11-15 12:42:46.959
35.0, -207.81315088784322, -133.6602845164016, -176.20912631228566, -136.14544803695753, -0.04800000227987766, 0.144000006839633, 1.0400000493973494, 0.0, 0.0, 0.0, 0.0, 0.0, 1.7632285669598184E9, 0.0, 2025-11-15 12:42:46.959
36.0, -243.64513236330822, -163.01475926861167, -208.41340483073145, -173.26395509717986, -0.04800000227987766, 0.144000006839633, 1.0400000493973494, 0.0, 0.0, 0.0, 0.0, 0.0, 1.7632285669605236E9, 0.0, 2025-11-15 12:42:46.960
36.0, -161.9058789317496, -130.133558858186, -183.7525045229122, -139.73201209446415, -0.04800000227987766, 0.144000006839633, 1.0400000493973494, 0.0, 0.0, 0.0, 0.0, 0.0, 1.7632285669605236E9, 0.0, 2025-11-15 12:42:46.960
37.0, -208.89024207508191, -112.11472087167203, -150.06348572205752, -98.63799138134345, -0.04800000227987766, 0.144000006839633, 1.0400000493973494, 0.0, 0.0, 0.0, 0.0, 0.0, 1.7632285669741912E9, 0.0, 2025-11-15 12:42:46.974
37.0, -229.78132322756574, -158.58671772107482, -199.58724093530327, -165.9449708838947, -0.04800000227987766, 0.144000006839633, 1.0400000493973494, 0.0, 0.0, 0.0, 0.0, 0.0, 1.7632285669741912E9, 0.0, 2025-11-15 12:42:46.974
38.0, -238.38309312565252, -156.61205054447055, -206.6182528520003, -164.9501574956812, -0.04800000227987766, 0.144000006839633, 1.0400000493973494, 0.0, 0.0, 0.0, 0.0, 0.0, 1.7632285669898577E9, 0.0, 2025-11-15 12:42:46.989
38.0, -155.07308171270415, -90.3410233296454, -146.05431296955794, -98.23782208608463, -0.04800000227987766, 0.144000006839633, 1.0400000493973494, 0.0, 0.0, 0.0, 0.0, 0.0, 1.7632285669898577E9, 0.0, 2025-11-15 12:42:46.989
39.0, -225.48043827852234, -147.37449765391648, -185.65237370040268, -148.72647148789838, -0.04800000227987766, 0.144000006839633, 1.0400000493973494, 0.0, 0.0, 0.0, 0.0, 0.0, 1.763228566990538E9, 0.0, 2025-11-15 12:42:46.990
39.0, -229.11936093540862, -165.27365884184837, -209.3259404199198, -168.33476695558056, -0.04800000227987766, 0.144000006839633, 1.0400000493973494, 0.0, 0.0, 0.0, 0.0, 0.0, 1.763228566990538E9, 0.0, 2025-11-15 12:42:46.990
40.0, -183.60103857470676, -117.11122721247375, -164.95576734561473, -96.59974590549245, -0.04800000227987766, 0.144000006839633, 1.0240000486373901, 0.0, 0.0, 0.0, 0.0, 0.0, 1.7632285670041988E9, 0.0, 2025-11-15 12:42:47.004
40.0, -178.60827213386074, -124.42647152580321, -168.28427830617875, -138.57638300815597, -0.04800000227987766, 0.144000006839633, 1.0240000486373901, 0.0, 0.0, 0.0, 0.0, 0.0, 1.7632285670041988E9, 0.0, 2025-11-15 12:42:47.004
41.0, -241.92103848373517, -163.68420136068016, -202.0967138055712, -180.14911091560498, -0.04800000227987766, 0.144000006839633, 1.0240000486373901, 0.0, 0.0, 0.0, 0.0, 0.0, 1.7632285670198236E9, 0.0, 2025-11-15 12:42:47.019
41.0, -221.06361643085256, -147.63629065081477, -197.5415156595409, -153.9847708255984, -0.04800000227987766, 0.144000006839633, 1.0240000486373901, 0.0, 0.0, 0.0, 0.0, 0.0, 1.7632285670198236E9, 0.0, 2025-11-15 12:42:47.019
42.0, -181.46181580005214, -112.26805676985532, -156.00618675164878, -108.89279705984518, -0.04800000227987766, 0.144000006839633, 1.0240000486373901, 0.0, 0.0, 0.0, 0.0, 0.0, 1.7632285670205288E9, 0.0, 2025-11-15 12:42:47.020
42.0, -250.70606347965077, -175.65188121888787, -208.05063453502953, -175.0329277762212, -0.04800000227987766, 0.144000006839633, 1.0240000486373901, 0.0, 0.0, 0.0, 0.0, 0.0, 1.7632285670205288E9, 0.0, 2025-11-15 12:42:47.020
43.0, -218.8234163573943, -155.54617905709893, -200.01358953025192, -158.40533257322386, -0.04800000227987766, 0.144000006839633, 1.0240000486373901, 0.0, 0.0, 0.0, 0.0, 0.0, 1.7632285670341992E9, 0.0, 2025-11-15 12:42:47.034
43.0, -172.77402820298448, -115.73494402877986, -167.44280081614852, -114.7756596901454, -0.04800000227987766, 0.144000006839633, 1.0240000486373901, 0.0, 0.0, 0.0, 0.0, 0.0, 1.7632285670341992E9, 0.0, 2025-11-15 12:42:47.034
44.0, -191.74654067819938, -139.59176584612578, -181.4898650497198, -145.42787972697988, -0.04800000227987766, 0.144000006839633, 1.0240000486373901, 0.0, 0.0, 0.0, 0.0, 0.0, 1.763228567049826E9, 0.0, 2025-11-15 12:42:47.049
44.0, -261.53307385137305, -180.31927636358887, -218.93374340608716, -181.68994969734922, -0.04800000227987766, 0.144000006839633, 1.0240000486373901, 0.0, 0.0, 0.0, 0.0, 0.0, 1.763228567049826E9, 0.0, 2025-11-15 12:42:47.049
45.0, -170.81058072624728, -114.61297404207289, -167.25580581836402, -116.99716026382521, -0.04800000227987766, 0.144000006839633, 1.0240000486373901, 0.0, 0.0, 0.0, 0.0, 0.0, 1.7632285670505283E9, 0.0, 2025-11-15 12:42:47.050
45.0, -205.65522861341015, -136.87285857833922, -178.26233138795942, -130.84600979974493, -0.04800000227987766, 0.144000006839633, 1.0240000486373901, 0.0, 0.0, 0.0, 0.0, 0.0, 1.7632285670505283E9, 0.0, 2025-11-15 12:42:47.050
46.0, -235.37995346123353, -170.77131177671254, -209.60643291659653, -175.42187737161294, -0.04800000227987766, 0.144000006839633, 1.0240000486373901, 0.0, 0.0, 0.0, 0.0, 0.0, 1.7632285670641751E9, 0.0, 2025-11-15 12:42:47.064
46.0, -184.67064996203408, -127.8036011857912, -170.24772578291595, -111.9258559239097, -0.04800000227987766, 0.144000006839633, 1.0240000486373901, 0.0, 0.0, 0.0, 0.0, 0.0, 1.7632285670641751E9, 0.0, 2025-11-15 12:42:47.064
47.0, -184.18820286775008, -117.7582299048081, -162.32287777680904, -103.33904562564567, -0.04800000227987766, 0.144000006839633, 1.0240000486373901, 0.0, 0.0, 0.0, 0.0, 0.0, 1.7632285670799077E9, 0.0, 2025-11-15 12:42:47.079
47.0, -242.00331628276035, -164.39478235226125, -205.52620206493884, -184.6631701621227, -0.04800000227987766, 0.144000006839633, 1.0240000486373901, 0.0, 0.0, 0.0, 0.0, 0.0, 1.7632285670799077E9, 0.0, 2025-11-15 12:42:47.079
48.0, -220.3044167398475, -154.68226216733456, -195.36489388532937, -153.82395512750372, -0.04800000227987766, 0.144000006839633, 1.0240000486373901, 0.0, 0.0, 0.0, 0.0, 0.0, 1.7632285670805306E9, 0.0, 2025-11-15 12:42:47.080
48.0, -152.3092956454493, -101.863655093126, -154.08761807437986, -95.25712182139978, -0.04800000227987766, 0.144000006839633, 1.0240000486373901, 0.0, 0.0, 0.0, 0.0, 0.0, 1.7632285670805306E9, 0.0, 2025-11-15 12:42:47.080
49.0, -214.72074610600248, -152.30368579551578, -194.67301239352673, -167.38109246687964, -0.04800000227987766, 0.144000006839633, 1.0240000486373901, 0.0, 0.0, 0.0, 0.0, 0.0, 1.7632285671102865E9, 0.0, 2025-11-15 12:42:47.110
49.0, -236.75249674497172, -169.05095779709518, -205.58978036418557, -168.73867615079507, -0.04800000227987766, 0.144000006839633, 1.0240000486373901, 0.0, 0.0, 0.0, 0.0, 0.0, 1.7632285671102865E9, 0.0, 2025-11-15 12:42:47.110
50.0, -160.51837604818866, -104.4591456623748, -150.01860692258924, -91.59575976477936, -0.04800000227987766, 0.144000006839633, 1.0400000493973494, 0.0, 0.0, 0.0, 0.0, 0.0, 1.7632285671109967E9, 0.0, 2025-11-15 12:42:47.110
50.0, -180.31366651365533, -129.3967985669151, -169.64934179000556, -127.98498633364215, -0.04800000227987766, 0.144000006839633, 1.0400000493973494, 0.0, 0.0, 0.0, 0.0, 0.0, 1.7632285671109967E9, 0.0, 2025-11-15 12:42:47.110
51.0, -199.67886848421767, -161.84043068252504, -208.25258913263679, -182.28459379030392, -0.04800000227987766, 0.1600000075995922, 1.0400000493973494, 0.0, 0.0, 0.0, 0.0, 0.0, 1.763228567124908E9, 0.0, 2025-11-15 12:42:47.124
51.0, -235.59686765866354, -147.24360115546733, -188.9434856614098, -135.7452787416987, -0.04800000227987766, 0.1600000075995922, 1.0400000493973494, 0.0, 0.0, 0.0, 0.0, 0.0, 1.763228567124908E9, 0.0, 2025-11-15 12:42:47.124
52.0, -169.17998434556648, -107.7165985237807, -154.27461307216436, -103.14457082794979, -0.04800000227987766, 0.1600000075995922, 1.0400000493973494, 0.0, 0.0, 0.0, 0.0, 0.0, 1.7632285671255827E9, 0.0, 2025-11-15 12:42:47.125
52.0, -243.97798345936462, -171.4557134686038, -206.6556518515572, -179.46470922371373, -0.04800000227987766, 0.1600000075995922, 1.0400000493973494, 0.0, 0.0, 0.0, 0.0, 0.0, 1.7632285671255827E9, 0.0, 2025-11-15 12:42:47.125
53.0, -231.8681874028407, -157.28897243645042, -195.34619438555092, -155.207718111109, -0.04800000227987766, 0.1600000075995922, 1.0400000493973494, 0.0, 0.0, 0.0, 0.0, 0.0, 1.7632285671398604E9, 0.0, 2025-11-15 12:42:47.139
53.0, -139.4216003981419, -87.42016146425158, -137.53856077045202, -87.30983441555873, -0.04800000227987766, 0.1600000075995922, 1.0400000493973494, 0.0, 0.0, 0.0, 0.0, 0.0, 1.7632285671398604E9, 0.0, 2025-11-15 12:42:47.139
54.0, -225.0092108841054, -151.7427008021623, -190.52172344271094, -159.37396666174755, -0.04800000227987766, 0.1600000075995922, 1.0400000493973494, 0.0, 0.0, 0.0, 0.0, 0.0, 1.7632285671405668E9, 0.0, 2025-11-15 12:42:47.140
54.0, -237.17510543996468, -161.6272563850507, -199.64333943463862, -164.8342205970548, -0.04800000227987766, 0.1600000075995922, 1.0400000493973494, 0.0, 0.0, 0.0, 0.0, 0.0, 1.7632285671405668E9, 0.0, 2025-11-15 12:42:47.140
55.0, -185.73278154945, -121.44951116107404, -168.3740359051153, -113.60507100401446, -0.04800000227987766, 0.1600000075995922, 1.0400000493973494, 0.0, 0.0, 0.0, 0.0, 0.0, 1.7632285671705315E9, 0.0, 2025-11-15 12:42:47.170
55.0, -187.2923198309727, -120.13680627662688, -161.36546338815242, -121.50747961038724, -0.04800000227987766, 0.1600000075995922, 1.0400000493973494, 0.0, 0.0, 0.0, 0.0, 0.0, 1.7632285671705315E9, 0.0, 2025-11-15 12:42:47.170
56.0, -255.34727932466194, -174.1596611365676, -212.1757441861555, -178.23054223833606, -0.04800000227987766, 0.1600000075995922, 1.0400000493973494, 0.0, 0.0, 0.0, 0.0, 0.0, 1.7632285671712267E9, 0.0, 2025-11-15 12:42:47.171
56.0, -178.31282003736123, -118.85402059182525, -167.8242706116289, -114.38297019479796, -0.04800000227987766, 0.1600000075995922, 1.0400000493973494, 0.0, 0.0, 0.0, 0.0, 0.0, 1.7632285671712267E9, 0.0, 2025-11-15 12:42:47.171
57.0, -176.4727892591618, -112.81408216338605, -155.2582067605108, -116.2977989721112, -0.04800000227987766, 0.1600000075995922, 1.0400000493973494, 0.0, 0.0, 0.0, 0.0, 0.0, 1.7632285671719675E9, 0.0, 2025-11-15 12:42:47.171
57.0, -233.3940665847622, -156.76164654269814, -192.34305472113192, -160.0247092540376, -0.04800000227987766, 0.1600000075995922, 1.0400000493973494, 0.0, 0.0, 0.0, 0.0, 0.0, 1.7632285671719675E9, 0.0, 2025-11-15 12:42:47.171
58.0, -230.80231591546908, -161.78807208314538, -198.71210434567183, -159.47868386050686, -0.04800000227987766, 0.1600000075995922, 1.0400000493973494, 0.0, 0.0, 0.0, 0.0, 0.0, 1.7632285671842117E9, 0.0, 2025-11-15 12:42:47.184
58.0, -158.51004977198318, -101.70283939503133, -149.659576526843, -83.8728663562797, -0.04800000227987766, 0.1600000075995922, 1.0400000493973494, 0.0, 0.0, 0.0, 0.0, 0.0, 1.7632285671842117E9, 0.0, 2025-11-15 12:42:47.184
59.0, -218.93187345610932, -153.33963808324188, -182.68663303554058, -147.63816060079262, -0.04800000227987766, 0.1600000075995922, 1.0400000493973494, 0.0, 0.0, 0.0, 0.0, 0.0, 1.763228567199838E9, 0.0, 2025-11-15 12:42:47.199
59.0, -236.36354714957997, -160.28837220091373, -198.1660789521411, -159.74421675736085, -0.04800000227987766, 0.1600000075995922, 1.0400000493973494, 0.0, 0.0, 0.0, 0.0, 0.0, 1.763228567199838E9, 0.0, 2025-11-15 12:42:47.199
60.0, -139.42908019805327, -99.58605602011085, -154.27087317220867, -92.25398215698078, -0.04800000227987766, 0.1600000075995922, 1.0240000486373901, 0.0, 0.0, 0.0, 0.0, 0.0, 1.7632285672005343E9, 0.0, 2025-11-15 12:42:47.200
60.0, -179.2552748261951, -103.86076166946441, -140.69129643309861, -98.12188518745825, -0.04800000227987766, 0.1600000075995922, 1.0240000486373901, 0.0, 0.0, 0.0, 0.0, 0.0, 1.7632285672005343E9, 0.0, 2025-11-15 12:42:47.200
61.0, -254.38986493600532, -164.34616365283728, -193.73803740460426, -168.992989347782, -0.04800000227987766, 0.17600000835955143, 1.0240000486373901, 0.0, 0.0, 0.0, 0.0, 0.0, 1.7632285672142968E9, 0.0, 2025-11-15 12:42:47.214
61.0, -192.8460712651722, -130.30185435619205, -174.54487083200365, -132.196113683749, -0.04800000227987766, 0.17600000835955143, 1.0240000486373901, 0.0, 0.0, 0.0, 0.0, 0.0, 1.7632285672142968E9, 0.0, 2025-11-15 12:42:47.214
62.0, -167.99443605961278, -97.80586364120245, -145.05201978143305, -92.65789135219529, -0.03200000151991844, 0.17600000835955143, 1.0240000486373901, 0.0, 0.0, 0.0, 0.0, 0.0, 1.7632285672462204E9, 0.0, 2025-11-15 12:42:47.246
62.0, -249.27742169657722, -167.46150031592697, -203.65999198704958, -172.2093033096753, -0.03200000151991844, 0.17600000835955143, 1.0240000486373901, 0.0, 0.0, 0.0, 0.0, 0.0, 1.7632285672462204E9, 0.0, 2025-11-15 12:42:47.246
63.0, -211.28751794667915, -145.51950727589428, -188.012250572443, -154.47095781983808, -0.03200000151991844, 0.17600000835955143, 1.0240000486373901, 0.0, 0.0, 0.0, 0.0, 0.0, 1.763228567246928E9, 0.0, 2025-11-15 12:42:47.246
