%OpenBCI Raw EXG Data
%Number of channels = 4
%Sample Rate = 200 Hz
%Board = OpenBCI_GUI$BoardGanglionBLE
Sample Index, EXG Channel 0, EXG Channel 1, EXG Channel 2, EXG Channel 3, Accel Channel 0, Accel Channel 1, Accel Channel 2, Other, Other, Other, Other, Other, Timestamp, Marker Channel, Timestamp (Formatted)
31.0, -65.79605992045254, -50.99353589583188, -48.98146971967071, -40.62279331870377, 0.0, 0.27200001291930676, 0.0, 0.0, 0.0, 0.0, 0.0, 0.0, 1.7632278970365713E9, 0.0, 2025-11-15 12:31:37.036
31.0, -284.3090645815246, 118.89889939129353, 155.94260845240206, 137.74051536805928, 0.0, 0.27200001291930676, 0.0, 0.0, 0.0, 0.0, 0.0, 0.0, 1.7632278970365713E9, 0.0, 2025-11-15 12:31:37.036
0.0, -265.6170446029864, -181.57962264865637, -230.091734923888, -211.87094233976677, 0.0, 0.27200001291930676, 0.0, 0.0, 0.0, 0.0, 0.0, 0.0, 1.763227897065698E9, 0.0, 2025-11-15 12:31:37.065
1.0, -133.35922256996855, -59.48684869520366, -128.01864543324336, -88.30838770372793, 0.0, 0.27200001291930676, 0.0, 0.0, 0.0, 0.0, 0.0, 0.0, 1.763227897079173E9, 0.0, 2025-11-15 12:31:37.079
1.0, -136.28756423527375, -60.519061082974076, -111.7014619265683, -93.14033844647929, 0.0, 0.27200001291930676, 0.0, 0.0, 0.0, 0.0, 0.0, 0.0, 1.763227897079173E9, 0.0, 2025-11-15 12:31:37.079
2.0, -309.1233007875271, -213.89983806572855, -250.75468217907473, -239.11237361701205, -0.03200000151991844, 0.27200001291930676, 0.0, 0.0, 0.0, 0.0, 0.0, 0.0, 1.7632278970958676E9, 0.0, 2025-11-15 12:31:37.095
2.0, -216.3438626867719, -143.04743340518326, -197.79769880650565, -170.0289416355081, -0.03200000151991844, 0.27200001291930676, 0.0, 0.0, 0.0, 0.0, 0.0, 0.0, 1.7632278970958676E9, 0.0, 2025-11-15 12:31:37.095
3.0, -89.59865318844095, -28.748610959388316, -86.41973822610453, -61.46712572174147, -0.03200000151991844, 0.27200001291930676, 0.0, 0.0, 0.0, 0.0, 0.0, 0.0, 1.7632278970966222E9, 0.0, 2025-11-15 12:31:37.096
3.0, -273.377337011043, -186.76312398724258, -221.4600458261557, -210.56945715518668, -0.03200000151991844, 0.27200001291930676, 0.0, 0.0, 0.0, 0.0, 0.0, 0.0, 1.7632278970966222E9, 0.0, 2025-11-15 12:31:37.096
4.0, -283.4900264912285, -195.21903778705746, -242.803654873278, -223.1654402059503, -0.03200000151991844, 0.27200001291930676, 0.0, 0.0, 0.0, 0.0, 0.0, 0.0, 1.763227897108997E9, 0.0, 2025-11-15 12:31:37.108
4.0, -68.65895333653316, -19.047310474328697, -91.70047696353868, -52.308110730256885, -0.03200000151991844, 0.27200001291930676, 0.0, 0.0, 0.0, 0.0, 0.0, 0.0, 1.763227897108997E9, 0.0, 2025-11-15 12:31:37.108
5.0, -197.83135790610686, -118.33417449798435, -160.1294264527969, -151.22846455825493, -0.03200000151991844, 0.27200001291930676, 0.0, 0.0, 0.0, 0.0, 0.0, 0.0, 1.7632278971246777E9, 0.0, 2025-11-15 12:31:37.124
5.0, -292.88091527996585, -196.3185683740303, -225.92922627320513, -188.86681771231815, -0.03200000151991844, 0.27200001291930676, 0.0, 0.0, 0.0, 0.0, 0.0, 0.0, 1.7632278971246777E9, 0.0, 2025-11-15 12:31:37.124
6.0, -128.37019602907822, -74.26693332009017, -142.17042686557397, -118.64645614428446, -0.03200000151991844, 0.27200001291930676, 0.0, 0.0, 0.0, 0.0, 0.0, 0.0, 1.7632278971253612E9, 0.0, 2025-11-15 12:31:37.125
6.0, -153.012396837119, -69.3639244781807, -122.3003384009935, -108.23831456759945, -0.03200000151991844, 0.27200001291930676, 0.0, 0.0, 0.0, 0.0, 0.0, 0.0, 1.7632278971253612E9, 0.0, 2025-11-15 12:31:37.125
7.0, -287.970426638145, -185.28960340470076, -219.74717164644971, -197.3376911119558, -0.03200000151991844, 0.27200001291930676, 0.0, 0.0, 0.0, 0.0, 0.0, 0.0, 1.7632278971390057E9, 0.0, 2025-11-15 12:31:37.139
7.0, -188.86307781236246, -104.29085016436875, -151.63237375346944, -121.95252770511433, -0.03200000151991844, 0.27200001291930676, 0.0, 0.0, 0.0, 0.0, 0.0, 0.0, 1.7632278971390057E9, 0.0, 2025-11-15 12:31:37.139
8.0, -70.3867871160619, -8.156721803359687, -71.62469400139526, -43.523085734341294, -0.03200000151991844, 0.27200001291930676, 0.0, 0.0, 0.0, 0.0, 0.0, 0.0, 1.7632278971546566E9, 0.0, 2025-11-15 12:31:37.154
8.0, -281.50039971480146, -190.41700624395162, -227.69445905229077, -223.7189453993924, -0.03200000151991844, 0.27200001291930676, 0.0, 0.0, 0.0, 0.0, 0.0, 0.0, 1.7632278971546566E9, 0.0, 2025-11-15 12:31:37.154
9.0, -246.90258522471413, -158.12671002652496, -196.19328172551468, -170.31317403214052, -0.03200000151991844, 0.27200001291930676, 0.0, 0.0, 0.0, 0.0, 0.0, 0.0, 1.7632278971553607E9, 0.0, 2025-11-15 12:31:37.155
9.0, -100.9193303543143, -21.231412048451602, -83.9102653558366, -35.14196993364021, -0.03200000151991844, 0.27200001291930676, 0.0, 0.0, 0.0, 0.0, 0.0, 0.0, 1.7632278971553607E9, 0.0, 2025-11-15 12:31:37.155
10.0, -203.57210433809087, -115.99673702567816, -156.96173119032755, -133.57613676739857, -0.03200000151991844, 0.27200001291930676, 1.008000047877431, 0.0, 0.0, 0.0, 0.0, 0.0, 1.763227897169011E9, 0.0, 2025-11-15 12:31:37.169
10.0, -266.27152709523216, -164.8547900468111, -200.5577449738048, -177.01881465269253, -0.03200000151991844, 0.27200001291930676, 1.008000047877431, 0.0, 0.0, 0.0, 0.0, 0.0, 1.763227897169011E9, 0.0, 2025-11-15 12:31:37.169
11.0, -134.17078086035326, -49.748149210587144, -114.23337419657037, -98.38367818435654, -0.03200000151991844, 0.12800000607967377, 1.008000047877431, 0.0, 0.0, 0.0, 0.0, 0.0, 1.763227897184651E9, 0.0, 2025-11-15 12:31:37.184
11.0, -152.21205824660137, -69.94360897131264, -115.38152348296717, -85.09955354174599, -0.03200000151991844, 0.12800000607967377, 1.008000047877431, 0.0, 0.0, 0.0, 0.0, 0.0, 1.763227897184651E9, 0.0, 2025-11-15 12:31:37.184
12.0, -266.8586913882755, -178.05663689039648, -215.1545745008625, -183.17095007980242, -0.01600000075995922, 0.12800000607967377, 1.008000047877431, 0.0, 0.0, 0.0, 0.0, 0.0, 1.7632278971853547E9, 0.0, 2025-11-15 12:31:37.185
12.0, -192.37858377071097, -95.84989596437663, -152.76930333999917, -126.79195824777707, -0.01600000075995922, 0.12800000607967377, 1.008000047877431, 0.0, 0.0, 0.0, 0.0, 0.0, 1.7632278971853547E9, 0.0, 2025-11-15 12:31:37.185
13.0, -84.63580594724044, -13.063470545224845, -73.82375517534092, -42.311358148697764, -0.01600000075995922, 0.12800000607967377, 1.008000047877431, 0.0, 0.0, 0.0, 0.0, 0.0, 1.7632278971990051E9, 0.0, 2025-11-15 12:31:37.199
13.0, -271.8140588295646, -166.36944952886552, -181.31595970178023, -95.54883401794359, -0.01600000075995922, 0.12800000607967377, 1.008000047877431, 0.0, 0.0, 0.0, 0.0, 0.0, 1.7632278971990051E9, 0.0, 2025-11-15 12:31:37.199
14.0, -250.48540938226506, -157.27775273658335, -200.2286337777041, -178.78030753182247, -0.01600000075995922, 0.12800000607967377, 1.008000047877431, 0.0, 0.0, 0.0, 0.0, 0.0, 1.763227897214674E9, 0.0, 2025-11-15 12:31:37.214
14.0, -62.0468102148734, 6.814097719267011, -67.1966524538584, -61.69899951899424, -0.01600000075995922, 0.12800000607967377, 1.008000047877431, 0.0, 0.0, 0.0, 0.0, 0.0, 1.763227897214674E9, 0.0, 2025-11-15 12:31:37.214
15.0, -224.28741019265726, -127.16781819332391, -180.54180041095242, -192.64785656752065, -0.01600000075995922, 0.12800000607967377, 1.008000047877431, 0.0, 0.0, 0.0, 0.0, 0.0, 1.7632278972153645E9, 0.0, 2025-11-15 12:31:37.215
15.0, -266.623077691067, -166.68734102509916, -209.46992656821385, -208.16096158372238, -0.01600000075995922, 0.12800000607967377, 1.008000047877431, 0.0, 0.0, 0.0, 0.0, 0.0, 1.7632278972153645E9, 0.0, 2025-11-15 12:31:37.215
16.0, -113.02164661092684, -37.51493645552546, -106.7348747854121, -92.55691405339167, -0.01600000075995922, 0.12800000607967377, 1.008000047877431, 0.0, 0.0, 0.0, 0.0, 0.0, 1.763227897229E9, 0.0, 2025-11-15 12:31:37.229
16.0, -125.22120026638731, -35.671165777370334, -90.10353968245909, -75.91435925057158, -0.01600000075995922, 0.12800000607967377, 1.008000047877431, 0.0, 0.0, 0.0, 0.0, 0.0, 1.763227897229E9, 0.0, 2025-11-15 12:31:37.229
17.0, -243.55537476437166, -141.75342802051455, -177.2132894503884, -145.8654480217956, -0.01600000075995922, 0.12800000607967377, 1.008000047877431, 0.0, 0.0, 0.0, 0.0, 0.0, 1.7632278972447433E9, 0.0, 2025-11-15 12:31:37.244
17.0, -212.23745253542438, -102.81358968187124, -140.61836838396266, -66.8301422582008, -0.01600000075995922, 0.12800000607967377, 1.008000047877431, 0.0, 0.0, 0.0, 0.0, 0.0, 1.7632278972447433E9, 0.0, 2025-11-15 12:31:37.244
18.0, -93.14033844647929, -10.202447079122066, -88.55148120084777, -109.98858774686232, -0.01600000075995922, 0.12800000607967377, 1.008000047877431, 0.0, 0.0, 0.0, 0.0, 0.0, 1.7632278972453644E9, 0.0, 2025-11-15 12:31:37.245
18.0, -202.82412434695289, -117.66473240591586, -170.79188122646883, -159.07477466529235, -0.01600000075995922, 0.12800000607967377, 1.008000047877431, 0.0, 0.0, 0.0, 0.0, 0.0, 1.7632278972453644E9, 0.0, 2025-11-15 12:31:37.245
19.0, -251.7345359674655, -139.41225064825267, -196.4849939220585, -173.78380119102076, -0.01600000075995922, 0.12800000607967377, 1.008000047877431, 0.0, 0.0, 0.0, 0.0, 0.0, 1.7632278972590058E9, 0.0, 2025-11-15 12:31:37.259
19.0, -82.096413877327, 12.322970353998244, -56.07045008568093, -42.86486334213987, -0.01600000075995922, 0.12800000607967377, 1.008000047877431, 0.0, 0.0, 0.0, 0.0, 0.0, 1.7632278972590058E9, 0.0, 2025-11-15 12:31:37.259
20.0, -179.27397432597354, -78.90814916510135, -138.37068851059303, -157.33572118589655, -0.01600000075995922, 0.12800000607967377, 0.5120000243186951, 0.0, 0.0, 0.0, 0.0, 0.0, 1.7632278972746434E9, 0.0, 2025-11-15 12:31:37.274
20.0, -250.42557098297402, -151.6679028030485, -202.40151565195993, -191.8549977769144, -0.01600000075995922, 0.12800000607967377, 0.5120000243186951, 0.0, 0.0, 0.0, 0.0, 0.0, 1.7632278972746434E9, 0.0, 2025-11-15 12:31:37.274
21.0, -107.00788748217747, -5.033905340358615, -76.09761434840038, -31.746140773873776, -0.01600000075995922, 0.19200000911951065, 0.5120000243186951, 0.0, 0.0, 0.0, 0.0, 0.0, 1.76322789727536E9, 0.0, 2025-11-15 12:31:37.275
21.0, -118.65019604424015, -13.998445534147322, -78.93993831472471, -74.1304269717075, -0.01600000075995922, 0.19200000911951065, 0.5120000243186951, 0.0, 0.0, 0.0, 0.0, 0.0, 1.76322789727536E9, 0.0, 2025-11-15 12:31:37.275
22.0, -255.1378449271433, -150.60577121563256, -207.12874919595197, -217.30127707542852, -0.03200000151991844, 0.19200000911951065, 0.5120000243186951, 0.0, 0.0, 0.0, 0.0, 0.0, 1.763227897289048E9, 0.0, 2025-11-15 12:31:37.289
22.0, -188.01786042237654, -92.47650620434433, -155.12170041212812, -136.7176527301781, -0.03200000151991844, 0.19200000911951065, 0.5120000243186951, 0.0, 0.0, 0.0, 0.0, 0.0, 1.763227897289048E9, 0.0, 2025-11-15 12:31:37.289
23.0, -48.49715267540887, 38.67804534174502, -32.07899186993018, -8.64103884762153, -0.03200000151991844, 0.19200000911951065, 0.5120000243186951, 0.0, 0.0, 0.0, 0.0, 0.0, 1.7632278973046799E9, 0.0, 2025-11-15 12:31:37.304
23.0, -224.14155409438536, -113.24791055824608, -164.88283929647878, -136.9009078280069, -0.03200000151991844, 0.19200000911951065, 0.5120000243186951, 0.0, 0.0, 0.0, 0.0, 0.0, 1.7632278973046799E9, 0.0, 2025-11-15 12:31:37.304
24.0, -241.75274298572913, -142.41165041271597, -198.0407923036255, -182.22475539101288, -0.03200000151991844, 0.19200000911951065, 0.5120000243186951, 0.0, 0.0, 0.0, 0.0, 0.0, 1.7632278973053799E9, 0.0, 2025-11-15 12:31:37.305
24.0, -70.26337041752413, 25.629534396342933, -51.64240853814408, -20.892951102461666, -0.03200000151991844, 0.19200000911951065, 0.5120000243186951, 0.0, 0.0, 0.0, 0.0, 0.0, 1.7632278973053799E9, 0.0, 2025-11-15 12:31:37.305
25.0, -181.16636370355263, -76.51087329350412, -123.80377818318084, -100.38452466065064, -0.03200000151991844, 0.19200000911951065, 0.5120000243186951, 0.0, 0.0, 0.0, 0.0, 0.0, 1.7632278973189826E9, 0.0, 2025-11-15 12:31:37.318
25.0, -271.31665213545784, -158.72135411947966, -206.90809509856626, -181.330919301603, -0.03200000151991844, 0.19200000911951065, 0.5120000243186951, 0.0, 0.0, 0.0, 0.0, 0.0, 1.7632278973189826E9, 0.0, 2025-11-15 12:31:37.318
26.0, -84.96117724338546, -14.555690627545118, -105.72884169733152, -119.70858773170039, -0.03200000151991844, 0.19200000911951065, 0.5120000243186951, 0.0, 0.0, 0.0, 0.0, 0.0, 1.7632278973346462E9, 0.0, 2025-11-15 12:31:37.334
26.0, -118.71003444353119, -8.03330510482192, -76.87551353918388, -80.23020379943773, -0.03200000151991844, 0.19200000911951065, 0.5120000243186951, 0.0, 0.0, 0.0, 0.0, 0.0, 1.7632278973346462E9, 0.0, 2025-11-15 12:31:37.334
27.0, -282.13244280731305, -150.96854151133448, -185.6991224498488, -165.74675618624315, -0.03200000151991844, 0.19200000911951065, 0.5120000243186951, 0.0, 0.0, 0.0, 0.0, 0.0, 1.7632278973353524E9, 0.0, 2025-11-15 12:31:37.335
27.0, -169.42307784268633, -82.01226612832397, -149.06680238386616, -131.06292399717495, -0.03200000151991844, 0.19200000911951065, 0.5120000243186951, 0.0, 0.0, 0.0, 0.0, 0.0, 1.7632278973353524E9, 0.0, 2025-11-15 12:31:37.335
28.0, -61.964532415848225, 37.45135815627873, -44.97416691714898, -38.73601379105821, -0.03200000151991844, 0.19200000911951065, 0.5120000243186951, 0.0, 0.0, 0.0, 0.0, 0.0, 1.7632278973490548E9, 0.0, 2025-11-15 12:31:37.349
28.0, -289.51500531984493, -165.21382044255733, -214.7843244052492, -215.24807199975476, -0.03200000151991844, 0.19200000911951065, 0.5120000243186951, 0.0, 0.0, 0.0, 0.0, 0.0, 1.7632278973490548E9, 0.0, 2025-11-15 12:31:37.349
29.0, -244.74092305032536, -136.16227758675814, -189.53625980438665, -152.6795457410626, -0.03200000151991844, 0.19200000911951065, 0.5120000243186951, 0.0, 0.0, 0.0, 0.0, 0.0, 1.763227897364653E9, 0.0, 2025-11-15 12:31:37.364
29.0, -54.92604069923982, 40.56669481936842, -33.94520194781944, -0.3048018463887274, -0.03200000151991844, 0.19200000911951065, 0.5120000243186951, 0.0, 0.0, 0.0, 0.0, 0.0, 1.763227897364653E9, 0.0, 2025-11-15 12:31:37.364
30.0, -199.21138098975644, -99.94508641585708, -153.22183123463765, -152.01010364899412, -0.03200000151991844, 0.19200000911951065, 0.7680000364780426, 0.0, 0.0, 0.0, 0.0, 0.0, 1.7632278973653543E9, 0.0, 2025-11-15 12:31:37.365
30.0, -273.2576602124609, -173.1985068479553, -217.17412047693506, -209.21187347127125, -0.03200000151991844, 0.19200000911951065, 0.7680000364780426, 0.0, 0.0, 0.0, 0.0, 0.0, 1.7632278973653543E9, 0.0, 2025-11-15 12:31:37.365
31.0, -114.88037688890472, -27.275090376846492, -100.14891096344218, -81.2811156869866, -0.03200000151991844, 0.2400000113993883, 0.7680000364780426, 0.0, 0.0, 0.0, 0.0, 0.0, 1.763227897379E9, 0.0, 2025-11-15 12:31:37.379
31.0, -154.95714481407776, -32.52217001467943, -88.05407450674102, -68.53553663799539, -0.03200000151991844, 0.2400000113993883, 0.7680000364780426, 0.0, 0.0, 0.0, 0.0, 0.0, 1.763227897379E9, 0.0, 2025-11-15 12:31:37.379
32.0, -278.5608383496292, -175.95855301525444, -223.2327584051527, -215.42384729767218, -0.03200000151991844, 0.2400000113993883, 0.7680000364780426, 0.0, 0.0, 0.0, 0.0, 0.0, 1.763227897394448E9, 0.0, 2025-11-15 12:31:37.394
32.0, -184.76040756097063, -98.00033843889832, -172.0971063110046, -162.3920659259893, -0.03200000151991844, 0.2400000113993883, 0.7680000364780426, 0.0, 0.0, 0.0, 0.0, 0.0, 1.763227897394448E9, 0.0, 2025-11-15 12:31:37.394
33.0, -64.75823768274859, 26.407433587126434, -41.38760285964236, -0.3384609459899366, -0.03200000151991844, 0.2400000113993883, 0.7680000364780426, 0.0, 0.0, 0.0, 0.0, 0.0, 1.763227897409665E9, 0.0, 2025-11-15 12:31:37.409
33.0, -266.8025928889401, -146.1478104684502, -192.65159646747634, -171.44636371871457, -0.03200000151991844, 0.2400000113993883, 0.7680000364780426, 0.0, 0.0, 0.0, 0.0, 0.0, 1.763227897409665E9, 0.0, 2025-11-15 12:31:37.409
34.0, -267.9881411748938, -164.69397434871644, -221.36280842730775, -219.73969184653834, -0.03200000151991844, 0.2400000113993883, 0.7680000364780426, 0.0, 0.0, 0.0, 0.0, 0.0, 1.7632278974103637E9, 0.0, 2025-11-15 12:31:37.410
34.0, -43.743739831727, 32.802662511356175, -41.68679485609755, -9.576013836544007, -0.03200000151991844, 0.2400000113993883, 0.7680000364780426, 0.0, 0.0, 0.0, 0.0, 0.0, 1.7632278974103637E9, 0.0, 2025-11-15 12:31:37.410
35.0, -220.13612124184147, -115.15899943560362, -169.6886107395403, -162.95679081929848, -0.03200000151991844, 0.2400000113993883, 0.7680000364780426, 0.0, 0.0, 0.0, 0.0, 0.0, 1.763227897424706E9, 0.0, 2025-11-15 12:31:37.424
35.0, -284.8289106753655, -166.64620212558657, -220.03514394303784, -193.65762955555692, -0.03200000151991844, 0.2400000113993883, 0.7680000364780426, 0.0, 0.0, 0.0, 0.0, 0.0, 1.763227897424706E9, 0.0, 2025-11-15 12:31:37.424
36.0, -106.5142206880264, -26.714105383493006, -103.54100022325292, -63.83074249373749, -0.03200000151991844, 0.2400000113993883, 0.7680000364780426, 0.0, 0.0, 0.0, 0.0, 0.0, 1.7632278974254131E9, 0.0, 2025-11-15 12:31:37.425
36.0, -119.08776433905587, -16.03669100999832, -66.85258165793493, -45.56881101010367, -0.03200000151991844, 0.2400000113993883, 0.7680000364780426, 0.0, 0.0, 0.0, 0.0, 0.0, 1.7632278974254131E9, 0.0, 2025-11-15 12:31:37.425
37.0, -316.0608152053319, -195.66034598182887, -248.03951481124386, -242.69519777456298, -0.03200000151991844, 0.2400000113993883, 0.7680000364780426, 0.0, 0.0, 0.0, 0.0, 0.0, 1.7632278974389915E9, 0.0, 2025-11-15 12:31:37.438
37.0, -210.32262375811115, -97.51415144465864, -159.88259305572137, -133.3741821697913, -0.03200000151991844, 0.2400000113993883, 0.7680000364780426, 0.0, 0.0, 0.0, 0.0, 0.0, 1.7632278974389915E9, 0.0, 2025-11-15 12:31:37.438
38.0, -41.488580158445984, 42.69843779411167, -39.64854938024655, -1.4379915329627693, -0.03200000151991844, 0.2400000113993883, 0.7680000364780426, 0.0, 0.0, 0.0, 0.0, 0.0, 1.7632278974547336E9, 0.0, 2025-11-15 12:31:37.454
38.0, -269.67483605491, -151.05455921031535, -200.8905960698612, -201.4889800627716, -0.03200000151991844, 0.2400000113993883, 0.7680000364780426, 0.0, 0.0, 0.0, 0.0, 0.0, 1.7632278974547336E9, 0.0, 2025-11-15 12:31:37.454
39.0, -310.18917227489874, -205.11481306981295, -264.3940973174758, -250.85565947787836, -0.03200000151991844, 0.2400000113993883, 0.7680000364780426, 0.0, 0.0, 0.0, 0.0, 0.0, 1.7632278974554117E9, 0.0, 2025-11-15 12:31:37.455
39.0, -553.1798221459612, 25.453759098425508, -50.1913273553364, -21.042547100689262, -0.03200000151991844, 0.2400000113993883, 0.7680000364780426, 0.0, 0.0, 0.0, 0.0, 0.0, 1.7632278974554117E9, 0.0, 2025-11-15 12:31:37.455
40.0, -699.2303952155635, -99.36540192272514, -142.4583991621621, -112.3671641186811, -0.03200000151991844, 0.2400000113993883, 0.8800000417977571, 0.0, 0.0, 0.0, 0.0, 0.0, 1.7632278974690106E9, 0.0, 2025-11-15 12:31:37.469
40.0, -817.1120418189093, -219.79766029585153, -269.0016540628858, -259.37515157693997, -0.03200000151991844, 0.2400000113993883, 0.8800000417977571, 0.0, 0.0, 0.0, 0.0, 0.0, 1.7632278974690106E9, 0.0, 2025-11-15 12:31:37.469
41.0, -643.4497873764485, -61.5101345712319, -129.75395901268348, -94.28100793296471, -0.03200000151991844, 0.27200001291930676, 0.8800000417977571, 0.0, 0.0, 0.0, 0.0, 0.0, 1.763227897484701E9, 0.0, 2025-11-15 12:31:37.484
41.0, -618.4223768729717, -35.596367778256536, -102.17219683947042, -88.44676400208846, -0.03200000151991844, 0.27200001291930676, 0.8800000417977571, 0.0, 0.0, 0.0, 0.0, 0.0, 1.763227897484701E9, 0.0, 2025-11-15 12:31:37.484
42.0, -779.6307644629851, -198.22217745147645, -251.24086917331442, -229.2053786343895, -0.03200000151991844, 0.27200001291930676, 0.8800000417977571, 0.0, 0.0, 0.0, 0.0, 0.0, 1.76322789748541E9, 0.0, 2025-11-15 12:31:37.485
42.0, -722.6907876376063, -134.22500940971076, -192.39354337053373, -154.3101421217434, -0.03200000151991844, 0.27200001291930676, 0.8800000417977571, 0.0, 0.0, 0.0, 0.0, 0.0, 1.76322789748541E9, 0.0, 2025-11-15 12:31:37.485
43.0, -599.0197759028524, -15.763678313232958, -86.80494792154059, -57.73470556596294, -0.03200000151991844, 0.27200001291930676, 0.8800000417977571, 0.0, 0.0, 0.0, 0.0, 0.0, 1.7632278974989848E9, 0.0, 2025-11-15 12:31:37.498
43.0, -766.1409453228116, -171.08920327294618, -219.72099234675989, -214.12610201304778, -0.03200000151991844, 0.27200001291930676, 0.8800000417977571, 0.0, 0.0, 0.0, 0.0, 0.0, 1.7632278974989848E9, 0.0, 2025-11-15 12:31:37.498
44.0, -757.2175440285355, -173.35558264609426, -233.4651246839203, -196.9225622168742, -0.03200000151991844, 0.27200001291930676, 0.8800000417977571, 0.0, 0.0, 0.0, 0.0, 0.0, 1.763227897514734E9, 0.0, 2025-11-15 12:31:37.514
44.0, -574.4710725937039, -5.000246240757406, -85.63061933545396, -33.451535153668374, -0.03200000151991844, 0.27200001291930676, 0.8800000417977571, 0.0, 0.0, 0.0, 0.0, 0.0, 1.763227897514734E9, 0.0, 2025-11-15 12:31:37.514
45.0, -753.3093485748395, -143.9562290944159, -198.90470919338986, -187.00434753438458, -0.03200000151991844, 0.27200001291930676, 0.8800000417977571, 0.0, 0.0, 0.0, 0.0, 0.0, 1.7632278975154097E9, 0.0, 2025-11-15 12:31:37.515
45.0, -796.987640157342, -187.80281617492437, -238.96651751874015, -215.4911654968746, -0.03200000151991844, 0.27200001291930676, 0.8800000417977571, 0.0, 0.0, 0.0, 0.0, 0.0, 1.7632278975154097E9, 0.0, 2025-11-15 12:31:37.515
46.0, -612.1842237468809, -42.28330889903009, -114.46524799382314, -58.60610225563869, -0.03200000151991844, 0.27200001291930676, 0.8800000417977571, 0.0, 0.0, 0.0, 0.0, 0.0, 1.7632278975289917E9, 0.0, 2025-11-15 12:31:37.528
46.0, -619.4807685604319, -42.11875330097973, -101.4354365481995, -70.50272401468828, -0.03200000151991844, 0.27200001291930676, 0.8800000417977571, 0.0, 0.0, 0.0, 0.0, 0.0, 1.7632278975289917E9, 0.0, 2025-11-15 12:31:37.528
47.0, -816.7043927237391, -203.43559798970819, -249.93190418882295, -240.32410120265558, -0.03200000151991844, 0.27200001291930676, 0.8800000417977571, 0.0, 0.0, 0.0, 0.0, 0.0, 1.7632278975447512E9, 0.0, 2025-11-15 12:31:37.544
47.0, -697.1846699398011, -120.60803367104381, -186.4059635414742, -159.4599843607284, -0.03200000151991844, 0.27200001291930676, 0.8800000417977571, 0.0, 0.0, 0.0, 0.0, 0.0, 1.7632278975447512E9, 0.0, 2025-11-15 12:31:37.544
48.0, -521.9965363154188, 42.72087719384581, -40.02627927577123, -17.721515940036625, -0.03200000151991844, 0.27200001291930676, 0.8800000417977571, 0.0, 0.0, 0.0, 0.0, 0.0, 1.7632278975454147E9, 0.0, 2025-11-15 12:31:37.545
48.0, -316.1393531044014, -185.70099239982665, -228.91740633780137, -204.8922890224494, -0.03200000151991844, 0.27200001291930676, 0.8800000417977571, 0.0, 0.0, 0.0, 0.0, 0.0, 1.7632278975454147E9, 0.0, 2025-11-15 12:31:37.545
49.0, -264.958822210785, -168.87144259922206, -219.58261604839936, -169.0640474469401, -0.03200000151991844, 0.27200001291930676, 0.8800000417977571, 0.0, 0.0, 0.0, 0.0, 0.0, 1.7632278975589805E9, 0.0, 2025-11-15 12:31:37.558
49.0, -55.85353588825092, 8.957060393877327, -73.02715648477897, -42.225340449716896, -0.03200000151991844, 0.27200001291930676, 0.8800000417977571, 0.0, 0.0, 0.0, 0.0, 0.0, 1.7632278975589805E9, 0.0, 2025-11-15 12:31:37.558
50.0, -203.80023823538795, -102.28252388816327, -153.27044993406162, -131.3733356934972, -0.03200000151991844, 0.27200001291930676, 0.944000044837594, 0.0, 0.0, 0.0, 0.0, 0.0, 1.7632278975747523E9, 0.0, 2025-11-15 12:31:37.574
50.0, -258.56733318651095, -162.65198897290975, -204.2228469303809, -157.4666176843457, -0.03200000151991844, 0.27200001291930676, 0.944000044837594, 0.0, 0.0, 0.0, 0.0, 0.0, 1.7632278975747523E9, 0.0, 2025-11-15 12:31:37.574
51.0, -166.7602690742351, -62.134697863832116, -130.43462080461904, -109.27800675528124, -0.03200000151991844, 0.27200001291930676, 0.944000044837594, 0.0, 0.0, 0.0, 0.0, 0.0, 1.7632278975754397E9, 0.0, 2025-11-15 12:31:37.575
51.0, -158.07996127707884, -67.14990370441228, -127.80173123581335, -122.98474009288475, -0.03200000151991844, 0.27200001291930676, 0.944000044837594, 0.0, 0.0, 0.0, 0.0, 0.0, 1.7632278975754397E9, 0.0, 2025-11-15 12:31:37.575
52.0, -301.66220037592575, -194.0933279003948, -243.00186957092956, -239.66213891049847, -0.03200000151991844, 0.27200001291930676, 0.944000044837594, 0.0, 0.0, 0.0, 0.0, 0.0, 1.7632278975889618E9, 0.0, 2025-11-15 12:31:37.588
52.0, -217.66404737113044, -120.14802597649395, -187.26988043123856, -148.47589819086716, -0.03200000151991844, 0.27200001291930676, 0.944000044837594, 0.0, 0.0, 0.0, 0.0, 0.0, 1.7632278975889618E9, 0.0, 2025-11-15 12:31:37.588
53.0, -68.37472093990073, 17.24093879573047, -49.02447856916115, -6.64767217123881, -0.03200000151991844, 0.27200001291930676, 0.944000044837594, 0.0, 0.0, 0.0, 0.0, 0.0, 1.763227897604696E9, 0.0, 2025-11-15 12:31:37.604
53.0, -282.69716770062223, -171.21261997148395, -216.57199658406898, -196.03246602742, -0.03200000151991844, 0.27200001291930676, 0.944000044837594, 0.0, 0.0, 0.0, 0.0, 0.0, 1.763227897604696E9, 0.0, 2025-11-15 12:31:37.604
54.0, -247.41495151864365, -152.89458998851478, -215.76417819363996, -201.2945052650757, -0.03200000151991844, 0.27200001291930676, 0.944000044837594, 0.0, 0.0, 0.0, 0.0, 0.0, 1.76322789760542E9, 0.0, 2025-11-15 12:31:37.605
54.0, -62.25250471243635, 25.0124509036541, -49.20025386707857, -13.9142977851443, -0.03200000151991844, 0.27200001291930676, 0.944000044837594, 0.0, 0.0, 0.0, 0.0, 0.0, 1.76322789760542E9, 0.0, 2025-11-15 12:31:37.605
55.0, -218.99545175535604, -106.54600983764976, -158.3155749742873, -140.36779508693144, -0.03200000151991844, 0.27200001291930676, 0.944000044837594, 0.0, 0.0, 0.0, 0.0, 0.0, 1.763227897618991E9, 0.0, 2025-11-15 12:31:37.618
55.0, -291.61308919498697, -188.87616746220738, -234.51229667151347, -219.0515502546914, -0.03200000151991844, 0.27200001291930676, 0.944000044837594, 0.0, 0.0, 0.0, 0.0, 0.0, 1.763227897618991E9, 0.0, 2025-11-15 12:31:37.618
56.0, -139.4515195977874, -54.63245855271816, -123.33255078876391, -93.2861945447512, -0.03200000151991844, 0.27200001291930676, 0.944000044837594, 0.0, 0.0, 0.0, 0.0, 0.0, 1.7632278976346812E9, 0.0, 2025-11-15 12:31:37.634
56.0, -137.2000998244621, -44.20935737621039, -103.38766432506964, -81.54290868388489, -0.03200000151991844, 0.27200001291930676, 0.944000044837594, 0.0, 0.0, 0.0, 0.0, 0.0, 1.7632278976346812E9, 0.0, 2025-11-15 12:31:37.634
57.0, -285.57689066650346, -172.38694855757058, -217.57428977219388, -197.5546053093858, -0.03200000151991844, 0.27200001291930676, 0.944000044837594, 0.0, 0.0, 0.0, 0.0, 0.0, 1.7632278976353955E9, 0.0, 2025-11-15 12:31:37.635
57.0, -211.50817204406485, -116.5016235196963, -178.30534023744985, -150.58146186592057, -0.03200000151991844, 0.27200001291930676, 0.944000044837594, 0.0, 0.0, 0.0, 0.0, 0.0, 1.7632278976353955E9, 0.0, 2025-11-15 12:31:37.635
58.0, -15.335459768306464, 49.54993451293558, -23.305186573881656, -6.64393227128312, -0.03200000151991844, 0.27200001291930676, 0.944000044837594, 0.0, 0.0, 0.0, 0.0, 0.0, 1.7632278976651223E9, 0.0, 2025-11-15 12:31:37.665
58.0, -234.43375877244398, -140.4033241365105, -191.80637907749042, -167.81492086173967, -0.03200000151991844, 0.27200001291930676, 0.944000044837594, 0.0, 0.0, 0.0, 0.0, 0.0, 1.7632278976651223E9, 0.0, 2025-11-15 12:31:37.665
59.0, -275.50907998578623, -164.23396665416658, -215.87263529235497, -192.5580989685841, -0.03200000151991844, 0.27200001291930676, 0.944000044837594, 0.0, 0.0, 0.0, 0.0, 0.0, 1.763227897665822E9, 0.0, 2025-11-15 12:31:37.665
59.0, -50.24742585467175, 17.558830291964114, -57.21111957216635, -22.74420158052817, -0.03200000151991844, 0.27200001291930676, 0.944000044837594, 0.0, 0.0, 0.0, 0.0, 0.0, 1.763227897665822E9, 0.0, 2025-11-15 12:31:37.665
60.0, -200.02667918009683, -93.1908270958811, -147.2417312054895, -141.22049227682874, -0.03200000151991844, 0.27200001291930676, 0.9760000463575125, 0.0, 0.0, 0.0, 0.0, 0.0, 1.763227897679715E9, 0.0, 2025-11-15 12:31:37.679
60.0, -260.45972256409004, -160.83065769448876, -206.53410510299727, -176.51766805863008, -0.03200000151991844, 0.27200001291930676, 0.9760000463575125, 0.0, 0.0, 0.0, 0.0, 0.0, 1.763227897679715E9, 0.0, 2025-11-15 12:31:37.679
61.0, -155.87716020317748, -55.369218843989074, -119.38695633551106, -78.5360291195102, -0.03200000151991844, 0.27200001291930676, 0.9760000463575125, 0.0, 0.0, 0.0, 0.0, 0.0, 1.763227897680402E9, 0.0, 2025-11-15 12:31:37.680
61.0, -126.56382435047999, -20.48343205731362, -69.14140043081716, -35.9984070234932, -0.03200000151991844, 0.27200001291930676, 0.9760000463575125, 0.0, 0.0, 0.0, 0.0, 0.0, 1.763227897680402E9, 0.0, 2025-11-15 12:31:37.680
62.0, -261.53681375132874, -176.31384351104498, -224.17147329403087, -213.47535942075774, -0.03200000151991844, 0.27200001291930676, 0.9760000463575125, 0.0, 0.0, 0.0, 0.0, 0.0, 1.7632278976947165E9, 0.0, 2025-11-15 12:31:37.694
62.0, -180.5492802108638, -95.03833767399192, -158.26695627486333, -130.5580375031568, -0.03200000151991844, 0.27200001291930676, 0.9760000463575125, 0.0, 0.0, 0.0, 0.0, 0.0, 1.7632278976947165E9, 0.0, 2025-11-15 12:31:37.694
63.0, -52.20339353149757, 25.82400919403881, -42.16924195038155, -6.24002307606861, -0.03200000151991844, 0.27200001291930676, 0.9760000463575125, 0.0, 0.0, 0.0, 0.0, 0.0, 1.7632278976953888E9, 0.0, 2025-11-15 12:31:37.695
63.0, -252.98366255266592, -143.75427449680865, -188.01412052242085, -174.78235447918996, -0.03200000151991844, 0.27200001291930676, 0.9760000463575125, 0.0, 0.0, 0.0, 0.0, 0.0, 1.7632278976953888E9, 0.0, 2025-11-15 12:31:37.695
64.0, -273.1940819132142, -161.1485491907224, -211.98687923839316, -185.6579835503362, -0.03200000151991844, 0.27200001291930676, 0.9760000463575125, 0.0, 0.0, 0.0, 0.0, 0.0, 1.7632278977090487E9, 0.0, 2025-11-15 12:31:37.709
64.0, -39.28577908454463, 40.7237706175074, -28.41762981330976, 22.250534786377102, -0.03200000151991844, 0.27200001291930676, 0.9760000463575125, 0.0, 0.0, 0.0, 0.0, 0.0, 1.7632278977090487E9, 0.0, 2025-11-15 12:31:37.709
65.0, -187.34467843035236, -85.47541348729283, -138.85313560487702, -120.45656772283837, -0.03200000151991844, 0.27200001291930676, 0.9760000463575125, 0.0, 0.0, 0.0, 0.0, 0.0, 1.7632278977247117E9, 0.0, 2025-11-15 12:31:37.724
65.0, -277.6296032606624, -195.65660608187318, -242.53064217651263, -227.28680995712057, -0.03200000151991844, 0.27200001291930676, 0.9760000463575125, 0.0, 0.0, 0.0, 0.0, 0.0, 1.7632278977247117E9, 0.0, 2025-11-15 12:31:37.724
66.0, -75.12150045996532, -17.543870692141354, -91.96600986039266, -52.08745663287118, -0.03200000151991844, 0.27200001291930676, 0.9760000463575125, 0.0, 0.0, 0.0, 0.0, 0.0, 1.763227897725391E9, 0.0, 2025-11-15 12:31:37.725
66.0, -127.43148114020005, -17.121261997148395, -69.61262782523409, -53.175767519976944, -0.03200000151991844, 0.27200001291930676, 0.9760000463575125, 0.0, 0.0, 0.0, 0.0, 0.0, 1.763227897725391E9, 0.0, 2025-11-15 12:31:37.725
67.0, -332.8155670068227, -195.41725248470902, -229.57936862995848, -225.54027667781338, -0.03200000151991844, 0.27200001291930676, 0.9760000463575125, 0.0, 0.0, 0.0, 0.0, 0.0, 1.7632278977390387E9, 0.0, 2025-11-15 12:31:37.739
67.0, -183.41778347687796, -97.18504024855793, -151.81188895134255, -118.74743344308808, -0.03200000151991844, 0.27200001291930676, 0.9760000463575125, 0.0, 0.0, 0.0, 0.0, 0.0, 1.7632278977390387E9, 0.0, 2025-11-15 12:31:37.739
68.0, -87.22755661653355, -5.1311427392065525, -66.3102961643599, -30.171642892528325, -0.03200000151991844, 0.27200001291930676, 0.9760000463575125, 0.0, 0.0, 0.0, 0.0, 0.0, 1.7632278977546785E9, 0.0, 2025-11-15 12:31:37.754
68.0, -270.01516695087776, -154.35315097123384, -195.7444937308319, -187.15768343256786, -0.03200000151991844, 0.27200001291930676, 0.9760000463575125, 0.0, 0.0, 0.0, 0.0, 0.0, 1.7632278977546785E9, 0.0, 2025-11-15 12:31:37.754
69.0, -253.0622004517354, -153.42191588226706, -206.1862944071181, -191.8886568765156, -0.03200000151991844, 0.27200001291930676, 0.9760000463575125, 0.0, 0.0, 0.0, 0.0, 0.0, 1.763227897755403E9, 0.0, 2025-11-15 12:31:37.755
69.0, -87.62024611188099, -5.5724509339779615, -73.80505567556247, -37.460707906167954, -0.03200000151991844, 0.27200001291930676, 0.9760000463575125, 0.0, 0.0, 0.0, 0.0, 0.0, 1.763227897755403E9, 0.0, 2025-11-15 12:31:37.755
70.0, -188.83315861271694, -102.83228918164968, -155.3872333089821, -134.14086166070774, -0.03200000151991844, 0.27200001291930676, 0.9920000471174717, 0.0, 0.0, 0.0, 0.0, 0.0, 1.763227897769006E9, 0.0, 2025-11-15 12:31:37.769
70.0, -299.9119271966629, -193.79039600398391, -233.36788728507236, -202.76802584761754, -0.03200000151991844, 0.27200001291930676, 0.9920000471174717, 0.0, 0.0, 0.0, 0.0, 0.0, 1.763227897769006E9, 0.0, 2025-11-15 12:31:37.769
71.0, -99.8796381666325, -23.991458215750754, -95.42541731940582, -69.15636003063992, -0.03200000151991844, 0.25600001215934753, 0.9920000471174717, 0.0, 0.0, 0.0, 0.0, 0.0, 1.76322789778468E9, 0.0, 2025-11-15 12:31:37.784
71.0, -137.69002671865746, -33.591781402006745, -83.60733345942572, -70.36808761628345, -0.03200000151991844, 0.25600001215934753, 0.9920000471174717, 0.0, 0.0, 0.0, 0.0, 0.0, 1.76322789778468E9, 0.0, 2025-11-15 12:31:37.784
72.0, -311.11666746390983, -202.01443600654602, -243.0953670698218, -229.74392422800884, -0.03200000151991844, 0.25600001215934753, 0.9920000471174717, 0.0, 0.0, 0.0, 0.0, 0.0, 1.7632278977853837E9, 0.0, 2025-11-15 12:31:37.785
72.0, -204.98952642129734, -131.6182991405949, -186.69019593810663, -149.99429757287726, -0.03200000151991844, 0.25600001215934753, 0.9920000471174717, 0.0, 0.0, 0.0, 0.0, 0.0, 1.7632278977853837E9, 0.0, 2025-11-15 12:31:37.785
73.0, -67.87357434583828, 15.045617521740496, -49.63782216189429, -10.200577129144222, -0.03200000151991844, 0.25600001215934753, 0.9920000471174717, 0.0, 0.0, 0.0, 0.0, 0.0, 1.763227897799057E9, 0.0, 2025-11-15 12:31:37.799
73.0, -245.10743324598297, -151.372450706549, -197.8500574058853, -192.221507972572, -0.03200000151991844, 0.25600001215934753, 0.9920000471174717, 0.0, 0.0, 0.0, 0.0, 0.0, 1.763227897799057E9, 0.0, 2025-11-15 12:31:37.799
74.0, -258.8740049828775, -157.004740039818, -208.34795658150688, -176.00156186474487, -0.03200000151991844, 0.25600001215934753, 0.9920000471174717, 0.0, 0.0, 0.0, 0.0, 0.0, 1.7632278978146708E9, 0.0, 2025-11-15 12:31:37.814
74.0, -82.66113877063617, 7.068410916253924, -70.0539360200055, -31.428249277640134, -0.03200000151991844, 0.25600001215934753, 0.9920000471174717, 0.0, 0.0, 0.0, 0.0, 0.0, 1.7632278978146708E9, 0.0, 2025-11-15 12:31:37.814
75.0, -188.26843371940777, -112.05862237233669, -168.01313555939123, -155.99309710180387, -0.03200000151991844, 0.25600001215934753, 0.9920000471174717, 0.0, 0.0, 0.0, 0.0, 0.0, 1.7632278978153715E9, 0.0, 2025-11-15 12:31:37.815
75.0, -221.10475533036515, -161.69457458425313, -220.24831824051216, -192.42346257017925, -0.03200000151991844, 0.25600001215934753, 0.9920000471174717, 0.0, 0.0, 0.0, 0.0, 0.0, 1.7632278978153715E9, 0.0, 2025-11-15 12:31:37.815
76.0, -159.91625215532258, -63.398784048855305, -127.18464774312451, -98.49213528307155, -0.03200000151991844, 0.25600001215934753, 0.9920000471174717, 0.0, 0.0, 0.0, 0.0, 0.0, 1.7632278978290508E9, 0.0, 2025-11-15 12:31:37.829
76.0, -146.4937512143515, -54.06773365940899, -117.24025376094505, -105.34363200189546, -0.03200000151991844, 0.25600001215934753, 0.9920000471174717, 0.0, 0.0, 0.0, 0.0, 0.0, 1.7632278978290508E9, 0.0, 2025-11-15 12:31:37.829
77.0, -302.2418848690577, -197.130126664415, -236.1279334523715, -211.61662914277986, -0.03200000151991844, 0.25600001215934753, 0.9920000471174717, 0.0, 0.0, 0.0, 0.0, 0.0, 1.763227897844667E9, 0.0, 2025-11-15 12:31:37.844
77.0, -184.44999586464837, -109.88574049808085, -172.26914170896634, -152.7206846405752, -0.03200000151991844, 0.25600001215934753, 0.9920000471174717, 0.0, 0.0, 0.0, 0.0, 0.0, 1.763227897844667E9, 0.0, 2025-11-15 12:31:37.844
78.0, -45.097583615686744, 16.650034602731466, -58.19845316046849, -27.57241242332384, -0.03200000151991844, 0.25600001215934753, 0.9920000471174717, 0.0, 0.0, 0.0, 0.0, 0.0, 1.763227897845382E9, 0.0, 2025-11-15 12:31:37.845
78.0, -286.8521965513937, -175.06845682580024, -213.32202352257445, -189.6634164028801, -0.03200000151991844, 0.25600001215934753, 0.9920000471174717, 0.0, 0.0, 0.0, 0.0, 0.0, 1.763227897845382E9, 0.0, 2025-11-15 12:31:37.845
79.0, -239.7668561092578, -150.90870311204344, -201.80687155900523, -175.8781451662071, -0.03200000151991844, 0.25600001215934753, 0.9920000471174717, 0.0, 0.0, 0.0, 0.0, 0.0, 1.763227897859004E9, 0.0, 2025-11-15 12:31:37.859
79.0, -29.24414770351723, 30.756937235593796, -51.29833774222061, -24.629111158195883, -0.03200000151991844, 0.25600001215934753, 0.9920000471174717, 0.0, 0.0, 0.0, 0.0, 0.0, 1.763227897859004E9, 0.0, 2025-11-15 12:31:37.859
80.0, -207.99640598567203, -116.62878011818975, -164.44153110170737, -148.13556729489937, -0.03200000151991844, 0.25600001215934753, 1.008000047877431, 0.0, 0.0, 0.0, 0.0, 0.0, 1.7632278978746817E9, 0.0, 2025-11-15 12:31:37.874
80.0, -256.372011912521, -166.69482082501054, -216.57947638398036, -197.82387810619548, -0.03200000151991844, 0.25600001215934753, 1.008000047877431, 0.0, 0.0, 0.0, 0.0, 0.0, 1.7632278978746817E9, 0.0, 2025-11-15 12:31:37.874
81.0, -106.07665239321068, -28.15770676638931, -86.73014992242679, -52.319330430123955, -0.03200000151991844, 0.25600001215934753, 1.008000047877431, 0.0, 0.0, 0.0, 0.0, 0.0, 1.7632278978753843E9, 0.0, 2025-11-15 12:31:37.875
81.0, -138.55394360842183, -40.69385141786188, -96.14721801085398, -81.6513657825999, -0.03200000151991844, 0.25600001215934753, 1.008000047877431, 0.0, 0.0, 0.0, 0.0, 0.0, 1.7632278978753843E9, 0.0, 2025-11-15 12:31:37.875
82.0, -288.5276717315428, -198.01274305395782, -248.5780604048632, -242.30250827921554, -0.03200000151991844, 0.25600001215934753, 1.008000047877431, 0.0, 0.0, 0.0, 0.0, 0.0, 1.76322789788902E9, 0.0, 2025-11-15 12:31:37.889
82.0, -216.28402428748086, -125.36144651472569, -174.9581297771074, -129.49964581569657, -0.03200000151991844, 0.25600001215934753, 1.008000047877431, 0.0, 0.0, 0.0, 0.0, 0.0, 1.76322789788902E9, 0.0, 2025-11-15 12:31:37.889
83.0, -57.944139963481575, 21.055636750534177, -49.62286256207153, -27.22086182748899, -0.03200000151991844, 0.25600001215934753, 1.008000047877431, 0.0, 0.0, 0.0, 0.0, 0.0, 1.7632278979046595E9, 0.0, 2025-11-15 12:31:37.904
83.0, -244.4267714540474, -165.29235834162682, -205.09798352001235, -191.2154748844914, -0.03200000151991844, 0.25600001215934753, 1.008000047877431, 0.0, 0.0, 0.0, 0.0, 0.0, 1.7632278979046595E9, 0.0, 2025-11-15 12:31:37.904
84.0, -290.0498110135086, -189.47829135507345, -232.1262404997833, -196.52987272152677, -0.03200000151991844, 0.25600001215934753, 1.008000047877431, 0.0, 0.0, 0.0, 0.0, 0.0, 1.7632278979053814E9, 0.0, 2025-11-15 12:31:37.905
84.0, -523.1072866022587, 16.365802206099033, -60.96597912767902, -30.908403183799237, -0.03200000151991844, 0.25600001215934753, 1.008000047877431, 0.0, 0.0, 0.0, 0.0, 0.0, 1.7632278979053814E9, 0.0, 2025-11-15 12:31:37.905
85.0, -745.8632077630609, -140.39210443664342, -177.23946875007823, -159.93869155505672, -0.03200000151991844, 0.25600001215934753, 1.008000047877431, 0.0, 0.0, 0.0, 0.0, 0.0, 1.7632278979190292E9, 0.0, 2025-11-15 12:31:37.919
85.0, -784.1373439095914, -178.98039217945188, -220.53629053710029, -204.85115012293682, -0.03200000151991844, 0.25600001215934753, 1.008000047877431, 0.0, 0.0, 0.0, 0.0, 0.0, 1.7632278979190292E9, 0.0, 2025-11-15 12:31:37.919
86.0, -643.9995526699349, -68.73188138566911, -134.90754115162417, -99.10921877576038, -0.03200000151991844, 0.25600001215934753, 1.008000047877431, 0.0, 0.0, 0.0, 0.0, 0.0, 1.763227897934738E9, 0.0, 2025-11-15 12:31:37.934
86.0, -596.9104723278433, -41.88313960377127, -99.39345117239282, -70.45036541530862, -0.03200000151991844, 0.25600001215934753, 1.008000047877431, 0.0, 0.0, 0.0, 0.0, 0.0, 1.763227897934738E9, 0.0, 2025-11-15 12:31:37.934
87.0, -795.4019225761294, -210.9116580011323, -250.30589418439195, -207.99266608571634, -0.03200000151991844, 0.25600001215934753, 1.008000047877431, 0.0, 0.0, 0.0, 0.0, 0.0, 1.7632278979354336E9, 0.0, 2025-11-15 12:31:37.935
87.0, -682.0530347190797, -117.29448231030256, -173.6940435920842, -142.4546592622064, -0.03200000151991844, 0.25600001215934753, 1.008000047877431, 0.0, 0.0, 0.0, 0.0, 0.0, 1.7632278979354336E9, 0.0, 2025-11-15 12:31:37.935
88.0, -598.5223692087457, -14.701546725817025, -73.80879557551816, -33.30941895535216, -0.03200000151991844, 0.25600001215934753, 1.008000047877431, 0.0, 0.0, 0.0, 0.0, 0.0, 1.7632278979490206E9, 0.0, 2025-11-15 12:31:37.949
88.0, -760.8041080860421, -178.89437448047101, -221.06735633080825, -195.80807203007862, -0.03200000151991844, 0.25600001215934753, 1.008000047877431, 0.0, 0.0, 0.0, 0.0, 0.0, 1.7632278979490206E9, 0.0, 2025-11-15 12:31:37.949
89.0, -748.1408068360761, -173.25086544733495, -223.39731400320306, -207.06143099674955, -0.03200000151991844, 0.25600001215934753, 1.008000047877431, 0.0, 0.0, 0.0, 0.0, 0.0, 1.7632278979647346E9, 0.0, 2025-11-15 12:31:37.964
89.0, -552.9816074483097, 11.014005369506776, -61.149234225507826, -29.726594797801226, -0.03200000151991844, 0.25600001215934753, 1.008000047877431, 0.0, 0.0, 0.0, 0.0, 0.0, 1.7632278979647346E9, 0.0, 2025-11-15 12:31:37.964
90.0, -714.167555638589, -117.26830301061273, -164.10868000565097, -145.6111348248087, -0.03200000151991844, 0.25600001215934753, 1.008000047877431, 0.0, 0.0, 0.0, 0.0, 0.0, 1.7632278979654355E9, 0.0, 2025-11-15 12:31:37.965
90.0, -781.0407067462802, -197.0179296657443, -247.20177722116932, -241.3525736904703, -0.03200000151991844, 0.25600001215934753, 1.008000047877431, 0.0, 0.0, 0.0, 0.0, 0.0, 1.7632278979654355E9, 0.0, 2025-11-15 12:31:37.965
91.0, -641.804231395945, -65.78110032062978, -129.03215832123533, -88.59636000031605, -0.03200000151991844, 0.25600001215934753, 1.008000047877431, 0.0, 0.0, 0.0, 0.0, 0.0, 1.7632278979790285E9, 0.0, 2025-11-15 12:31:37.979
91.0, -584.4453857755288, -13.594536338932812, -62.21510571287945, -30.137983792927116, -0.03200000151991844, 0.25600001215934753, 1.008000047877431, 0.0, 0.0, 0.0, 0.0, 0.0, 1.7632278979790285E9, 0.0, 2025-11-15 12:31:37.979
92.0, -797.1334962556139, -211.04629439953715, -257.2060096026398, -250.05158098740503, -0.03200000151991844, 0.25600001215934753, 1.008000047877431, 0.0, 0.0, 0.0, 0.0, 0.0, 1.7632278979948108E9, 0.0, 2025-11-15 12:31:37.994
92.0, -676.5404221843928, -109.44443230330944, -164.4303114018403, -122.89872239390388, -0.03200000151991844, 0.25600001215934753, 1.008000047877431, 0.0, 0.0, 0.0, 0.0, 0.0, 1.7632278979948108E9, 0.0, 2025-11-15 12:31:37.994
93.0, -579.9911649283022, 12.05369755718857, -46.87029619468376, -20.36562520870939, -0.03200000151991844, 0.25600001215934753, 1.008000047877431, 0.0, 0.0, 0.0, 0.0, 0.0, 1.7632278979954407E9, 0.0, 2025-11-15 12:31:37.995
93.0, -742.5010377028957, -151.8100190013647, -198.64291619649157, -180.82229290762916, -0.03200000151991844, 0.25600001215934753, 1.008000047877431, 0.0, 0.0, 0.0, 0.0, 0.0, 1.7632278979954407E9, 0.0, 2025-11-15 12:31:37.995
94.0, -755.2802758514881, -174.600969331339, -219.87058834498748, -193.8184452536516, -0.03200000151991844, 0.25600001215934753, 1.008000047877431, 0.0, 0.0, 0.0, 0.0, 0.0, 1.763227898009018E9, 0.0, 2025-11-15 12:31:38.009
94.0, -560.8727963548154, -11.051404369063675, -90.42517107864842, -62.334782511461526, -0.03200000151991844, 0.25600001215934753, 1.008000047877431, 0.0, 0.0, 0.0, 0.0, 0.0, 1.763227898009018E9, 0.0, 2025-11-15 12:31:38.009
95.0, -688.754935439676, -102.18902638927102, -153.4649247317575, -132.43920718086883, -0.03200000151991844, 0.25600001215934753, 1.008000047877431, 0.0, 0.0, 0.0, 0.0, 0.0, 1.7632278980247247E9, 0.0, 2025-11-15 12:31:38.024
95.0, -759.1061935061589, -177.7537049939856, -213.31828362261876, -171.88393201353028, -0.03200000151991844, 0.25600001215934753, 1.008000047877431, 0.0, 0.0, 0.0, 0.0, 0.0, 1.7632278980247247E9, 0.0, 2025-11-15 12:31:38.024
96.0, -629.2905261442065, -58.207802910357714, -126.45536725176498, -97.15325109893456, -0.03200000151991844, 0.25600001215934753, 1.008000047877431, 0.0, 0.0, 0.0, 0.0, 0.0, 1.763227898025434E9, 0.0, 2025-11-15 12:31:38.025
96.0, -610.867778962478, -33.46462480351329, -86.89096562052146, -54.286517806816846, -0.03200000151991844, 0.25600001215934753, 1.008000047877431, 0.0, 0.0, 0.0, 0.0, 0.0, 1.763227898025434E9, 0.0, 2025-11-15 12:31:38.025
97.0, -762.240229669027, -195.10684078838676, -239.318068114575, -221.4899650258012, -0.03200000151991844, 0.25600001215934753, 1.008000047877431, 0.0, 0.0, 0.0, 0.0, 0.0, 1.763227898039012E9, 0.0, 2025-11-15 12:31:38.039
97.0, -674.9472248032689, -105.25948425289243, -165.00251609506086, -141.10455537820235, -0.03200000151991844, 0.25600001215934753, 1.008000047877431, 0.0, 0.0, 0.0, 0.0, 0.0, 1.763227898039012E9, 0.0, 2025-11-15 12:31:38.039
98.0, -542.8576982682571, 41.98785680253059, -12.64273180020973, 30.691488986369222, -0.03200000151991844, 0.25600001215934753, 1.008000047877431, 0.0, 0.0, 0.0, 0.0, 0.0, 1.7632278980547845E9, 0.0, 2025-11-15 12:31:38.054
98.0, -764.9479172369465, -161.7431932836771, -200.68864147225395, -191.69418207881972, -0.03200000151991844, 0.25600001215934753, 1.008000047877431, 0.0, 0.0, 0.0, 0.0, 0.0, 1.7632278980547845E9, 0.0, 2025-11-15 12:31:38.054
99.0, -782.1439772332087, -195.5369292832911, -241.2777756913565, -232.63860679371282, -0.03200000151991844, 0.25600001215934753, 1.008000047877431, 0.0, 0.0, 0.0, 0.0, 0.0, 1.7632278980554528E9, 0.0, 2025-11-15 12:31:38.055
99.0, -999.4751735082828, 38.057221949100494, -27.55371292354539, -467.53237326070666, -0.03200000151991844, 0.25600001215934753, 1.008000047877431, 0.0, 0.0, 0.0, 0.0, 0.0, 1.7632278980554528E9, 0.0, 2025-11-15 12:31:38.055
100.0, -1219.1419373056851, -123.24092323984951, -153.65939952945337, -614.5628001186997, -0.03200000151991844, 0.25600001215934753, 1.008000047877431, 0.0, 0.0, 0.0, 0.0, 0.0, 1.7632278980697377E9, 0.0, 2025-11-15 12:31:38.069
100.0, -1274.331640951801, -197.1712655639276, -241.70038438634947, -705.3488715430722, -0.03200000151991844, 0.25600001215934753, 1.008000047877431, 0.0, 0.0, 0.0, 0.0, 0.0, 1.7632278980697377E9, 0.0, 2025-11-15 12:31:38.069
0.0, -120.83990746829659, -51.88737198524177, -121.23259696364403, -77.41218918282539, -0.03200000151991844, 0.25600001215934753, 1.008000047877431, 0.0, 0.0, 0.0, 0.0, 0.0, 1.7632278980704355E9, 0.0, 2025-11-15 12:31:38.070
1.0, -83.25391291361302, -7.131989215500653, -56.2106963340193, -23.38933432288468, -0.03200000151991844, 0.25600001215934753, 1.008000047877431, 0.0, 0.0, 0.0, 0.0, 0.0, 1.7632278980840013E9, 0.0, 2025-11-15 12:31:38.084
1.0, -325.7789452401921, -201.84988040849566, -233.4482951341197, -208.18153103347868, -0.03200000151991844, 0.25600001215934753, 1.008000047877431, 0.0, 0.0, 0.0, 0.0, 0.0, 1.7632278980840013E9, 0.0, 2025-11-15 12:31:38.084
2.0, -254.8293031807989, -152.4794610934332, -203.71983038634062, -178.36704858671874, -0.03200000151991844, 0.25600001215934753, 1.008000047877431, 0.0, 0.0, 0.0, 0.0, 0.0, 1.7632278980997865E9, 0.0, 2025-11-15 12:31:38.099
2.0, -61.783147267997265, 21.145394349470735, -40.74994991719723, -12.184594055637717, -0.03200000151991844, 0.25600001215934753, 1.008000047877431, 0.0, 0.0, 0.0, 0.0, 0.0, 1.7632278980997865E9, 0.0, 2025-11-15 12:31:38.099
3.0, -274.52735624741763, -158.2239474253729, -195.2414771867916, -183.3485953276977, -0.03200000151991844, 0.25600001215934753, 1.008000047877431, 0.0, 0.0, 0.0, 0.0, 0.0, 1.763227898100434E9, 0.0, 2025-11-15 12:31:38.100
3.0, -230.82662526518106, -153.47427448164672, -193.40518630854785, -149.24070773180574, -0.03200000151991844, 0.25600001215934753, 1.008000047877431, 0.0, 0.0, 0.0, 0.0, 0.0, 1.763227898100434E9, 0.0, 2025-11-15 12:31:38.100
4.0, -58.45837620738894, 13.579576739110053, -55.713289639912546, -13.946086934767663, -0.03200000151991844, 0.25600001215934753, 1.008000047877431, 0.0, 0.0, 0.0, 0.0, 0.0, 1.7632278981140747E9, 0.0, 2025-11-15 12:31:38.114
4.0, -209.92058451287448, -98.73709873016924, -142.56498631089926, -128.33466697949916, -0.03200000151991844, 0.25600001215934753, 1.008000047877431, 0.0, 0.0, 0.0, 0.0, 0.0, 1.7632278981140747E9, 0.0, 2025-11-15 12:31:38.114
5.0, -293.6494647208601, -188.43859916739166, -232.71527474280447, -203.73852988611907, -0.03200000151991844, 0.25600001215934753, 1.008000047877431, 0.0, 0.0, 0.0, 0.0, 0.0, 1.763227898129711E9, 0.0, 2025-11-15 12:31:38.129
5.0, -86.02891868073493, -18.217052684165537, -71.70884175039828, -37.02874946128577, -0.03200000151991844, 0.25600001215934753, 1.008000047877431, 0.0, 0.0, 0.0, 0.0, 0.0, 1.763227898129711E9, 0.0, 2025-11-15 12:31:38.129
6.0, -101.66918029543012, 0.7891188906505704, -37.36160055734217, -16.014251610264182, -0.03200000151991844, 0.25600001215934753, 1.008000047877431, 0.0, 0.0, 0.0, 0.0, 0.0, 1.763227898130427E9, 0.0, 2025-11-15 12:31:38.130
6.0, -290.3172138603404, -165.16894164308906, -193.35656760912389, -174.45885313302279, -0.03200000151991844, 0.25600001215934753, 1.008000047877431, 0.0, 0.0, 0.0, 0.0, 0.0, 1.763227898130427E9, 0.0, 2025-11-15 12:31:38.130
7.0, -187.9374525733292, -92.04641770944, -147.6587300505489, -119.36264698579907, -0.03200000151991844, 0.25600001215934753, 1.008000047877431, 0.0, 0.0, 0.0, 0.0, 0.0, 1.7632278981440227E9, 0.0, 2025-11-15 12:31:38.144
7.0, -22.697452831082046, 67.479014900513, 1.6979145798832178, 28.63641396071762, -0.03200000151991844, 0.25600001215934753, 1.008000047877431, 0.0, 0.0, 0.0, 0.0, 0.0, 1.7632278981440227E9, 0.0, 2025-11-15 12:31:38.144
8.0, -219.8126198956743, -122.51912254840136, -158.28752572461963, -151.0321198105812, -0.03200000151991844, 0.25600001215934753, 1.008000047877431, 0.0, 0.0, 0.0, 0.0, 0.0, 1.7632278981597419E9, 0.0, 2025-11-15 12:31:38.159
8.0, -257.92220044415444, -146.59659846313298, -193.91381270252168, -171.2986376704648, -0.03200000151991844, 0.25600001215934753, 1.008000047877431, 0.0, 0.0, 0.0, 0.0, 0.0, 1.7632278981597419E9, 0.0, 2025-11-15 12:31:38.159
9.0, -19.144547873176634, 65.0331203294918, -13.560877239331603, 6.170834926888347, -0.03200000151991844, 0.25600001215934753, 1.008000047877431, 0.0, 0.0, 0.0, 0.0, 0.0, 1.763227898160419E9, 0.0, 2025-11-15 12:31:38.160
9.0, -165.04926484450698, -52.3585993796587, -98.75953812990338, -88.59075015038252, -0.03200000151991844, 0.25600001215934753, 1.008000047877431, 0.0, 0.0, 0.0, 0.0, 0.0, 1.763227898160419E9, 0.0, 2025-11-15 12:31:38.160
10.0, -269.66174640506506, -169.28657149430364, -199.97245063073933, -179.8667484689504, -0.03200000151991844, 0.25600001215934753, 1.008000047877431, 0.0, 0.0, 0.0, 0.0, 0.0, 1.7632278981740606E9, 0.0, 2025-11-15 12:31:38.174
10.0, -84.77605219557881, -8.351196601055562, -70.5494727641344, -49.13854551780969, -0.03200000151991844, 0.25600001215934753, 1.008000047877431, 0.0, 0.0, 0.0, 0.0, 0.0, 1.7632278981740606E9, 0.0, 2025-11-15 12:31:38.174
11.0, -111.53877627849579, -0.564724893309176, -46.73752974625677, -30.016437044367194, -0.03200000151991844, 0.25600001215934753, 1.008000047877431, 0.0, 0.0, 0.0, 0.0, 0.0, 1.7632278981897027E9, 0.0, 2025-11-15 12:31:38.189
11.0, -249.54482454340905, -131.05357424728572, -156.17822214961052, -143.78045379649848, -0.03200000151991844, 0.25600001215934753, 1.008000047877431, 0.0, 0.0, 0.0, 0.0, 0.0, 1.7632278981897027E9, 0.0, 2025-11-15 12:31:38.189
12.0, -163.2952517652884, -83.62416300922632, -148.24215444363654, -131.97358963638544, -0.03200000151991844, 0.25600001215934753, 1.008000047877431, 0.0, 0.0, 0.0, 0.0, 0.0, 1.7632278981904163E9, 0.0, 2025-11-15 12:31:38.190
12.0, -61.67095026932657, 51.266548592597246, -12.50248555187136, 5.314397837035358, -0.03200000151991844, 0.25600001215934753, 1.008000047877431, 0.0, 0.0, 0.0, 0.0, 0.0, 1.7632278981904163E9, 0.0, 2025-11-15 12:31:38.190
13.0, -233.59789113234729, -129.37809906713665, -176.88978810422122, -165.14650224335492, -0.03200000151991844, 0.25600001215934753, 1.008000047877431, 0.0, 0.0, 0.0, 0.0, 0.0, 1.763227898204046E9, 0.0, 2025-11-15 12:31:38.204
13.0, -231.6681027552113, -124.94257771968842, -166.5938435262069, -136.33431298471987, -0.03200000151991844, 0.25600001215934753, 1.008000047877431, 0.0, 0.0, 0.0, 0.0, 0.0, 1.763227898204046E9, 0.0, 2025-11-15 12:31:38.204
14.0, -22.211265836842358, 55.59735274128616, -12.573543651029468, 21.575482844375074, -0.03200000151991844, 0.25600001215934753, 1.008000047877431, 0.0, 0.0, 0.0, 0.0, 0.0, 1.763227898219713E9, 0.0, 2025-11-15 12:31:38.219
14.0, -184.418206715025, -80.35549044795334, -124.0599613301456, -114.6466331416741, -0.03200000151991844, 0.25600001215934753, 1.008000047877431, 0.0, 0.0, 0.0, 0.0, 0.0, 1.763227898219713E9, 0.0, 2025-11-15 12:31:38.219
15.0, -270.0506960004568, -156.67936874367297, -197.04410896543413, -180.28935716394335, -0.03200000151991844, 0.25600001215934753, 1.008000047877431, 0.0, 0.0, 0.0, 0.0, 0.0, 1.7632278982204127E9, 0.0, 2025-11-15 12:31:38.220
15.0, -87.16958816722035, -21.36604844685644, -89.01335884537548, -67.02274710591882, -0.03200000151991844, 0.25600001215934753, 1.008000047877431, 0.0, 0.0, 0.0, 0.0, 0.0, 1.7632278982204127E9, 0.0, 2025-11-15 12:31:38.220
16.0, -92.14365510828793, -10.153828379698098, -59.812219991348684, -34.392119992524385, -0.03200000151991844, 0.25600001215934753, 1.008000047877431, 0.0, 0.0, 0.0, 0.0, 0.0, 1.7632278982340765E9, 0.0, 2025-11-15 12:31:38.234
16.0, -293.34279292449355, -165.28487854171544, -185.18862610589713, -156.27919944841415, -0.03200000151991844, 0.25600001215934753, 1.008000047877431, 0.0, 0.0, 0.0, 0.0, 0.0, 1.7632278982340765E9, 0.0, 2025-11-15 12:31:38.234
17.0, -225.71044212579727, -120.02460927795619, -174.492512232624, -149.8465715246275, -0.03200000151991844, 0.25600001215934753, 1.008000047877431, 0.0, 0.0, 0.0, 0.0, 0.0, 1.7632278982497015E9, 0.0, 2025-11-15 12:31:38.249
17.0, 1.323924584314227, 74.67458241526037, 8.968280093744397, 55.0999460471794, -0.03200000151991844, 0.25600001215934753, 1.008000047877431, 0.0, 0.0, 0.0, 0.0, 0.0, 1.7632278982497015E9, 0.0, 2025-11-15 12:31:38.249
18.0, -242.52877222653478, -137.03367427643389, -174.46259303297848, -152.75621369015425, -0.03200000151991844, 0.25600001215934753, 1.008000047877431, 0.0, 0.0, 0.0, 0.0, 0.0, 1.763227898250425E9, 0.0, 2025-11-15 12:31:38.250
18.0, -231.57460525631905, -144.15070389211178, -192.40289312042296, -166.2235934305936, -0.03200000151991844, 0.25600001215934753, 1.008000047877431, 0.0, 0.0, 0.0, 0.0, 0.0, 1.763227898250425E9, 0.0, 2025-11-15 12:31:38.250
19.0, -67.65105029847473, 21.253851448185742, -40.862146915867925, -7.23296651430428, -0.03200000151991844, 0.25600001215934753, 1.008000047877431, 0.0, 0.0, 0.0, 0.0, 0.0, 1.7632278982640855E9, 0.0, 2025-11-15 12:31:38.264
19.0, -195.4247322846204, -93.57229689136147, -136.00520178861916, -121.38219296187162, -0.03200000151991844, 0.25600001215934753, 1.008000047877431, 0.0, 0.0, 0.0, 0.0, 0.0, 1.7632278982640855E9, 0.0, 2025-11-15 12:31:38.264
20.0, -258.3448091391474, -161.5599381858483, -207.63924553990364, -195.26765648648143, -0.03200000151991844, 0.25600001215934753, 1.008000047877431, 0.0, 0.0, 0.0, 0.0, 0.0, 1.7632278982796907E9, 0.0, 2025-11-15 12:31:38.279
20.0, -70.38491716608405, 5.340577136725187, -53.14771827030927, -13.605756038799882, -0.03200000151991844, 0.25600001215934753, 1.008000047877431, 0.0, 0.0, 0.0, 0.0, 0.0, 1.7632278982796907E9, 0.0, 2025-11-15 12:31:38.279
21.0, -66.88063090760261, 10.43432087637484, -38.13201994821429, -18.8603154765442, -0.03200000151991844, 0.25600001215934753, 1.008000047877431, 0.0, 0.0, 0.0, 0.0, 0.0, 1.7632278982804036E9, 0.0, 2025-11-15 12:31:38.280
21.0, -309.68989563081414, -193.86145410314202, -229.17358948476613, -202.90079229604453, -0.03200000151991844, 0.25600001215934753, 1.008000047877431, 0.0, 0.0, 0.0, 0.0, 0.0, 1.7632278982804036E9, 0.0, 2025-11-15 12:31:38.280
22.0, -175.12829522509128, -90.26248543057591, -144.08338569290936, -128.15515178162605, -0.03200000151991844, 0.25600001215934753, 1.008000047877431, 0.0, 0.0, 0.0, 0.0, 0.0, 1.7632278982940493E9, 0.0, 2025-11-15 12:31:38.294
22.0, -50.6158060003072, 41.19125811196864, -23.116321626119316, 10.793351272121072, -0.03200000151991844, 0.25600001215934753, 1.008000047877431, 0.0, 0.0, 0.0, 0.0, 0.0, 1.7632278982940493E9, 0.0, 2025-11-15 12:31:38.294
23.0, -223.63479765038937, -130.90771814901382, -171.0031855739653, -163.1531355669722, -0.03200000151991844, 0.25600001215934753, 1.008000047877431, 0.0, 0.0, 0.0, 0.0, 0.0, 1.7632278983096974E9, 0.0, 2025-11-15 12:31:38.309
23.0, -206.44995735399425, -125.2829086156562, -172.50288545619696, -130.27567505650222, -0.03200000151991844, 0.25600001215934753, 1.008000047877431, 0.0, 0.0, 0.0, 0.0, 0.0, 1.7632278983096974E9, 0.0, 2025-11-15 12:31:38.309
24.0, -62.40397066064179, 29.33951515238732, -34.7212311886251, 5.550011534243822, -0.03200000151991844, 0.25600001215934753, 1.008000047877431, 0.0, 0.0, 0.0, 0.0, 0.0, 1.76322789831041E9, 0.0, 2025-11-15 12:31:38.310
24.0, -214.85725245438516, -104.11881476640701, -146.74245456140488, -140.01811444107443, -0.03200000151991844, 0.25600001215934753, 1.008000047877431, 0.0, 0.0, 0.0, 0.0, 0.0, 1.76322789831041E9, 0.0, 2025-11-15 12:31:38.310
25.0, -259.51165792532265, -161.49261998664588, -205.56360106449574, -186.8678411860019, -0.03200000151991844, 0.25600001215934753, 1.008000047877431, 0.0, 0.0, 0.0, 0.0, 0.0, 1.7632278983240702E9, 0.0, 2025-11-15 12:31:38.324
25.0, -106.22811834141612, -47.55282793659717, -119.64313948247582, -86.67592137306929, -0.03200000151991844, 0.25600001215934753, 1.008000047877431, 0.0, 0.0, 0.0, 0.0, 0.0, 1.7632278983240702E9, 0.0, 2025-11-15 12:31:38.324
26.0, -109.96801829710603, -9.940654082223773, -57.61315881740302, -16.45929970499128, -0.03200000151991844, 0.25600001215934753, 1.008000047877431, 0.0, 0.0, 0.0, 0.0, 0.0, 1.7632278983396995E9, 0.0, 2025-11-15 12:31:38.339
26.0, -301.19658283144236, -181.56092314887792, -219.56578649859875, -207.01094234734774, -0.03200000151991844, 0.25600001215934753, 1.008000047877431, 0.0, 0.0, 0.0, 0.0, 0.0, 1.7632278983396995E9, 0.0, 2025-11-15 12:31:38.339
27.0, -180.65586735960096, -110.62998058926314, -166.77709862403572, -136.72326258011162, -0.03200000151991844, 0.25600001215934753, 1.008000047877431, 0.0, 0.0, 0.0, 0.0, 0.0, 1.7632278983404126E9, 0.0, 2025-11-15 12:31:38.340
27.0, -89.88101563509554, 9.66390148550272, -49.51627541333437, -8.661608297377825, -0.03200000151991844, 0.25600001215934753, 1.008000047877431, 0.0, 0.0, 0.0, 0.0, 0.0, 1.7632278983404126E9, 0.0, 2025-11-15 12:31:38.340
28.0, -258.72627893462777, -142.96889550611377, -176.6429547071457, -157.83125793002546, -0.03200000151991844, 0.25600001215934753, 1.008000047877431, 0.0, 0.0, 0.0, 0.0, 0.0, 1.7632278983541176E9, 0.0, 2025-11-15 12:31:38.354
28.0, -254.81434358097613, -149.45762192923576, -197.91924555506557, -167.76817211229354, -0.03200000151991844, 0.25600001215934753, 1.008000047877431, 0.0, 0.0, 0.0, 0.0, 0.0, 1.7632278983541176E9, 0.0, 2025-11-15 12:31:38.354
29.0, -66.33460551407188, 16.751011901535094, -54.535221153870225, -30.057575943879783, -0.03200000151991844, 0.25600001215934753, 1.008000047877431, 0.0, 0.0, 0.0, 0.0, 0.0, 1.763227898369707E9, 0.0, 2025-11-15 12:31:38.369
29.0, -150.48609441705048, -68.01756049413234, -118.65580589417368, -97.66000754293054, -0.03200000151991844, 0.25600001215934753, 1.008000047877431, 0.0, 0.0, 0.0, 0.0, 0.0, 1.763227898369707E9, 0.0, 2025-11-15 12:31:38.369
30.0, -283.29742164351046, -182.29394354019314, -227.49811430461705, -198.0164829539135, -0.03200000151991844, 0.25600001215934753, 0.9920000471174717, 0.0, 0.0, 0.0, 0.0, 0.0, 1.763227898370412E9, 0.0, 2025-11-15 12:31:38.370
30.0, -163.2952517652884, -73.19732193276286, -134.20630990993232, -91.62380901444703, -0.03200000151991844, 0.25600001215934753, 0.9920000471174717, 0.0, 0.0, 0.0, 0.0, 0.0, 1.763227898370412E9, 0.0, 2025-11-15 12:31:38.370
31.0, -121.84220065642148, -26.19051938969642, -75.41508260648698, -44.40009227395058, -0.03200000151991844, 0.27200001291930676, 0.9920000471174717, 0.0, 0.0, 0.0, 0.0, 0.0, 1.7632278983840947E9, 0.0, 2025-11-15 12:31:38.384
31.0, -307.6666097547859, -200.23050372768193, -235.61369720846415, -212.12338558677584, -0.03200000151991844, 0.27200001291930676, 0.9920000471174717, 0.0, 0.0, 0.0, 0.0, 0.0, 1.7632278983840947E9, 0.0, 2025-11-15 12:31:38.384
32.0, -204.0190223827958, -123.7645092336461, -187.4550054790452, -155.6695957556367, -0.03200000151991844, 0.27200001291930676, 0.9920000471174717, 0.0, 0.0, 0.0, 0.0, 0.0, 1.763227898399451E9, 0.0, 2025-11-15 12:31:38.399
32.0, -77.05315878707916, 16.724832601845264, -42.3917659977451, -4.0390919521451, -0.03200000151991844, 0.27200001291930676, 0.9920000471174717, 0.0, 0.0, 0.0, 0.0, 0.0, 1.763227898399451E9, 0.0, 2025-11-15 12:31:38.399
33.0, -255.4202073737979, -157.65548263210803, -191.9765445254743, -171.92320096306503, -0.03200000151991844, 0.27200001291930676, 0.9920000471174717, 0.0, 0.0, 0.0, 0.0, 0.0, 1.7632278984147098E9, 0.0, 2025-11-15 12:31:38.414
33.0, -272.3993531726301, -168.6320890020579, -212.75542867928743, -183.59542872477323, -0.03200000151991844, 0.27200001291930676, 0.9920000471174717, 0.0, 0.0, 0.0, 0.0, 0.0, 1.7632278984147098E9, 0.0, 2025-11-15 12:31:38.414
34.0, -109.48931110277772, -18.329249682836235, -88.97221994586289, -46.898345444351435, -0.03200000151991844, 0.27200001291930676, 0.9920000471174717, 0.0, 0.0, 0.0, 0.0, 0.0, 1.7632278984154174E9, 0.0, 2025-11-15 12:31:38.415
34.0, -212.254282085225, -115.60778743028641, -158.1828085258603, -130.04380125924945, -0.03200000151991844, 0.27200001291930676, 0.9920000471174717, 0.0, 0.0, 0.0, 0.0, 0.0, 1.7632278984154174E9, 0.0, 2025-11-15 12:31:38.415
35.0, -310.20974172465503, -209.56903391703963, -258.651480935514, -228.39569029398263, -0.03200000151991844, 0.27200001291930676, 0.9920000471174717, 0.0, 0.0, 0.0, 0.0, 0.0, 1.7632278984297342E9, 0.0, 2025-11-15 12:31:38.429
35.0, -152.04563269857317, -72.55779904033989, -138.07336646411568, -91.84446311183274, -0.03200000151991844, 0.27200001291930676, 0.9920000471174717, 0.0, 0.0, 0.0, 0.0, 0.0, 1.7632278984297342E9, 0.0, 2025-11-15 12:31:38.429
36.0, -134.7336358036846, -43.8353673806414, -94.66808757837862, -45.38742586225271, -0.03200000151991844, 0.27200001291930676, 0.9920000471174717, 0.0, 0.0, 0.0, 0.0, 0.0, 1.7632278984304209E9, 0.0, 2025-11-15 12:31:38.430
36.0, -299.1358979558572, -211.2145898975432, -257.0882027540356, -236.4850938981399, -0.03200000151991844, 0.27200001291930676, 0.9920000471174717, 0.0, 0.0, 0.0, 0.0, 0.0, 1.7632278984304209E9, 0.0, 2025-11-15 12:31:38.430
37.0, -202.68013819865882, -133.92955731321126, -201.11686001718044, -169.54088469129056, -0.03200000151991844, 0.27200001291930676, 0.9920000471174717, 0.0, 0.0, 0.0, 0.0, 0.0, 1.7632278984604137E9, 0.0, 2025-11-15 12:31:38.460
37.0, -105.63721414841712, -22.95176602806896, -94.15946118440479, -50.00246240757406, -0.03200000151991844, 0.27200001291930676, 0.9920000471174717, 0.0, 0.0, 0.0, 0.0, 0.0, 1.7632278984604137E9, 0.0, 2025-11-15 12:31:38.460
38.0, -281.5508883642033, -175.1619543246925, -213.4323505712673, -203.30096159130335, -0.03200000151991844, 0.27200001291930676, 0.9920000471174717, 0.0, 0.0, 0.0, 0.0, 0.0, 1.7632278984611337E9, 0.0, 2025-11-15 12:31:38.461
38.0, -278.3644936019555, -192.07752182427794, -244.40620200429112, -214.71139635611326, -0.03200000151991844, 0.27200001291930676, 0.9920000471174717, 0.0, 0.0, 0.0, 0.0, 0.0, 1.7632278984611337E9, 0.0, 2025-11-15 12:31:38.461
39.0, -89.99321263376623, -30.809295834973454, -106.63202753663063, -64.22530193906277, -0.03200000151991844, 0.27200001291930676, 0.9920000471174717, 0.0, 0.0, 0.0, 0.0, 0.0, 1.763227898461883E9, 0.0, 2025-11-15 12:31:38.461
39.0, -213.49592887051404, -131.56594054121524, -185.43545950297266, -150.9274026118219, -0.03200000151991844, 0.27200001291930676, 0.9920000471174717, 0.0, 0.0, 0.0, 0.0, 0.0, 1.763227898461883E9, 0.0, 2025-11-15 12:31:38.461
40.0, -319.53705221414566, -207.9159981366247, -255.06865677796304, -223.86293154768646, -0.03200000151991844, 0.27200001291930676, 1.008000047877431, 0.0, 0.0, 0.0, 0.0, 0.0, 1.763227898474043E9, 0.0, 2025-11-15 12:31:38.474
40.0, -169.65682158991694, -87.56975746247917, -153.42565578222275, -111.17974588274956, -0.03200000151991844, 0.27200001291930676, 1.008000047877431, 0.0, 0.0, 0.0, 0.0, 0.0, 1.763227898474043E9, 0.0, 2025-11-15 12:31:38.474
41.0, -147.24360115546733, -68.45886868890375, -133.23393592145294, -105.33054235205054, -0.03200000151991844, 0.27200001291930676, 1.008000047877431, 0.0, 0.0, 0.0, 0.0, 0.0, 1.763227898489741E9, 0.0, 2025-11-15 12:31:38.489
41.0, -310.9913808153942, -217.34054602496326, -269.59068830590695, -259.11148863006383, -0.03200000151991844, 0.27200001291930676, 1.008000047877431, 0.0, 0.0, 0.0, 0.0, 0.0, 1.763227898489741E9, 0.0, 2025-11-15 12:31:38.489
42.0, -231.57834515627474, -146.72375506162643, -205.45140406582505, -160.68106169626117, -0.03200000151991844, 0.27200001291930676, 1.008000047877431, 0.0, 0.0, 0.0, 0.0, 0.0, 1.7632278984904647E9, 0.0, 2025-11-15 12:31:38.490
42.0, -82.83130421862006, -10.610096174292266, -82.13942272681743, -40.69011151790619, -0.03200000151991844, 0.27200001291930676, 1.008000047877431, 0.0, 0.0, 0.0, 0.0, 0.0, 1.7632278984904647E9, 0.0, 2025-11-15 12:31:38.490
43.0, -270.3050091974437, -159.62267000880092, -204.9913963712752, -192.00272382516414, -0.03200000151991844, 0.27200001291930676, 1.008000047877431, 0.0, 0.0, 0.0, 0.0, 0.0, 1.7632278985040593E9, 0.0, 2025-11-15 12:31:38.504
43.0, -276.89097301941365, -183.35981502756476, -235.71467450726777, -202.0181759065017, -0.03200000151991844, 0.27200001291930676, 1.008000047877431, 0.0, 0.0, 0.0, 0.0, 0.0, 1.7632278985040593E9, 0.0, 2025-11-15 12:31:38.504
44.0, -95.16175437252969, -29.36569445207715, -98.57628303207457, -40.17774522397667, -0.03200000151991844, 0.27200001291930676, 1.008000047877431, 0.0, 0.0, 0.0, 0.0, 0.0, 1.763227898519728E9, 0.0, 2025-11-15 12:31:38.519
44.0, -218.76544790808111, -117.22716411110014, -162.61085007339716, -138.89240455441177, -0.03200000151991844, 0.27200001291930676, 1.008000047877431, 0.0, 0.0, 0.0, 0.0, 0.0, 1.763227898519728E9, 0.0, 2025-11-15 12:31:38.519
45.0, -271.37462058477104, -190.84335483890027, -246.84087687544525, -222.79706006031483, -0.03200000151991844, 0.27200001291930676, 1.008000047877431, 0.0, 0.0, 0.0, 0.0, 0.0, 1.7632278985204494E9, 0.0, 2025-11-15 12:31:38.520
45.0, -145.94211597088724, -61.831765967421234, -124.69574432261288, -69.46864167694002, -0.03200000151991844, 0.27200001291930676, 1.008000047877431, 0.0, 0.0, 0.0, 0.0, 0.0, 1.7632278985204494E9, 0.0, 2025-11-15 12:31:38.520
46.0, -150.2205615201965, -75.87883020099252, -133.71638301573694, -104.38808756321669, -0.03200000151991844, 0.27200001291930676, 1.008000047877431, 0.0, 0.0, 0.0, 0.0, 0.0, 1.7632278985341268E9, 0.0, 2025-11-15 12:31:38.534
46.0, -279.14613269269466, -193.59592120628804, -244.1144898077473, -221.0280873812735, -0.03200000151991844, 0.27200001291930676, 1.008000047877431, 0.0, 0.0, 0.0, 0.0, 0.0, 1.7632278985341268E9, 0.0, 2025-11-15 12:31:38.534
47.0, -222.49786806385964, -130.16347805783153, -182.7502113347873, -133.2488955212757, -0.03200000151991844, 0.27200001291930676, 1.008000047877431, 0.0, 0.0, 0.0, 0.0, 0.0, 1.7632278985497422E9, 0.0, 2025-11-15 12:31:38.549
47.0, -78.77351276669651, -7.173128115013242, -78.17886867374182, -45.89231235627085, -0.03200000151991844, 0.27200001291930676, 1.008000047877431, 0.0, 0.0, 0.0, 0.0, 0.0, 1.7632278985497422E9, 0.0, 2025-11-15 12:31:38.549
48.0, -279.47898378875107, -176.36994201038033, -219.39375110063702, -196.9468715665862, -0.03200000151991844, 0.27200001291930676, 1.008000047877431, 0.0, 0.0, 0.0, 0.0, 0.0, 1.7632278985504525E9, 0.0, 2025-11-15 12:31:38.550
48.0, -259.02547093108296, -179.99016516748816, -230.34417817089707, -195.11058068834245, -0.03200000151991844, 0.27200001291930676, 1.008000047877431, 0.0, 0.0, 0.0, 0.0, 0.0, 1.7632278985504525E9, 0.0, 2025-11-15 12:31:38.550
49.0, -79.95906105265021, -13.882508635520935, -87.61089636199176, -29.103901455178857, -0.03200000151991844, 0.27200001291930676, 1.008000047877431, 0.0, 0.0, 0.0, 0.0, 0.0, 1.7632278985640385E9, 0.0, 2025-11-15 12:31:38.564
49.0, -205.71693696267903, -113.61816065385938, -156.86262384150177, -118.43889169674367, -0.03200000151991844, 0.27200001291930676, 1.008000047877431, 0.0, 0.0, 0.0, 0.0, 0.0, 1.7632278985640385E9, 0.0, 2025-11-15 12:31:38.564
50.0, -248.93896075058728, -166.8930355226621, -222.1762366676703, -202.0219158064574, -0.03200000151991844, 0.27200001291930676, 0.9920000471174717, 0.0, 0.0, 0.0, 0.0, 0.0, 1.7632278985797389E9, 0.0, 2025-11-15 12:31:38.579
50.0, -153.73232757858932, -87.29674476571381, -159.02428601589054, -125.2455096160993, -0.03200000151991844, 0.27200001291930676, 0.9920000471174717, 0.0, 0.0, 0.0, 0.0, 0.0, 1.7632278985797389E9, 0.0, 2025-11-15 12:31:38.579
51.0, -149.37908403016627, -55.313120344653726, -114.68777204118669, -67.87170439586043, -0.03200000151991844, 0.288000013679266, 0.9920000471174717, 0.0, 0.0, 0.0, 0.0, 0.0, 1.763227898580442E9, 0.0, 2025-11-15 12:31:38.580
51.0, -293.83271981868893, -185.63741410057992, -223.9265098469332, -184.06291621923447, -0.03200000151991844, 0.288000013679266, 0.9920000471174717, 0.0, 0.0, 0.0, 0.0, 0.0, 1.763227898580442E9, 0.0, 2025-11-15 12:31:38.580
52.0, -178.43436678592116, -103.33343577571213, -164.21526715438813, -143.5149208996445, -0.03200000151991844, 0.288000013679266, 0.9920000471174717, 0.0, 0.0, 0.0, 0.0, 0.0, 1.7632278985940282E9, 0.0, 2025-11-15 12:31:38.594
52.0, -22.424440134316683, 34.31732199341059, -42.29452859889716, 3.653882256709039, -0.03200000151991844, 0.288000013679266, 0.9920000471174717, 0.0, 0.0, 0.0, 0.0, 0.0, 1.7632278985940282E9, 0.0, 2025-11-15 12:31:38.594
53.0, 217.02078457875177, -166.49286622740328, -205.9488107599318, -176.76263150572777, -0.03200000151991844, 0.288000013679266, 0.9920000471174717, 0.0, 0.0, 0.0, 0.0, 0.0, 1.7632278986097353E9, 0.0, 2025-11-15 12:31:38.609
53.0, 221.99485151981935, -169.58950339071453, -221.97802197001874, -197.85940715577453, -0.03200000151991844, 0.288000013679266, 0.9920000471174717, 0.0, 0.0, 0.0, 0.0, 0.0, 1.7632278986097353E9, 0.0, 2025-11-15 12:31:38.609
54.0, 412.8120270590298, -6.8627164186909795, -83.84855700656772, -54.565140353515744, -0.03200000151991844, 0.288000013679266, 0.9920000471174717, 0.0, 0.0, 0.0, 0.0, 0.0, 1.7632278986104412E9, 0.0, 2025-11-15 12:31:38.610
54.0, 333.88517839415, -47.242416240274906, -95.01589827425778, -65.72500182129443, -0.03200000151991844, 0.288000013679266, 0.9920000471174717, 0.0, 0.0, 0.0, 0.0, 0.0, 1.7632278986104412E9, 0.0, 2025-11-15 12:31:38.610
55.0, 246.4650169298984, -145.41479007713497, -194.32894159760326, -156.65318944398314, -0.03200000151991844, 0.288000013679266, 0.9920000471174717, 0.0, 0.0, 0.0, 0.0, 0.0, 1.7632278986240227E9, 0.0, 2025-11-15 12:31:38.624
55.0, 379.37358155520633, -45.230350064113736, -113.29652925767004, -67.63235079869628, -0.03200000151991844, 0.288000013679266, 0.9920000471174717, 0.0, 0.0, 0.0, 0.0, 0.0, 1.7632278986240227E9, 0.0, 2025-11-15 12:31:38.624
56.0, 377.70184627501294, -21.938253140076995, -90.06427073292434, -66.91802990715951, -0.03200000151991844, 0.288000013679266, 0.9920000471174717, 0.0, 0.0, 0.0, 0.0, 0.0, 1.7632278986397347E9, 0.0, 2025-11-15 12:31:38.639
56.0, 223.68902619974688, -155.67707555554807, -203.21494389232248, -181.17571345344186, -0.03200000151991844, 0.288000013679266, 0.9920000471174717, 0.0, 0.0, 0.0, 0.0, 0.0, 1.7632278986397347E9, 0.0, 2025-11-15 12:31:38.639
57.0, 293.32970327464864, -113.52840305492282, -175.26293162349612, -126.89854539651424, -0.03200000151991844, 0.288000013679266, 0.9920000471174717, 0.0, 0.0, 0.0, 0.0, 0.0, 1.7632278986404445E9, 0.0, 2025-11-15 12:31:38.640
57.0, 414.71937603643164, 11.485232763923705, -52.82982677407563, 3.537945358082652, -0.03200000151991844, 0.288000013679266, 0.9920000471174717, 0.0, 0.0, 0.0, 0.0, 0.0, 1.7632278986404445E9, 0.0, 2025-11-15 12:31:38.640
58.0, 265.7404613015242, -133.08433992322534, -184.96797200851142, -160.40056919958442, -0.03200000151991844, 0.288000013679266, 0.9920000471174717, 0.0, 0.0, 0.0, 0.0, 0.0, 1.7632278986541016E9, 0.0, 2025-11-15 12:31:38.654
58.0, 266.780153489206, -143.5111809996888, -204.00032288301736, -164.8173910472542, -0.03200000151991844, 0.288000013679266, 0.9920000471174717, 0.0, 0.0, 0.0, 0.0, 0.0, 1.7632278986541016E9, 0.0, 2025-11-15 12:31:38.654
59.0, 392.4669713000767, -9.054297792725265, -81.0772911394015, -31.302962629124522, -0.03200000151991844, 0.288000013679266, 0.9920000471174717, 0.0, 0.0, 0.0, 0.0, 0.0, 1.7632278986697412E9, 0.0, 2025-11-15 12:31:38.669
59.0, 298.9657325078733, -80.38540964759886, -135.92292398959398, -110.4205461917445, -0.03200000151991844, 0.288000013679266, 0.9920000471174717, 0.0, 0.0, 0.0, 0.0, 0.0, 1.7632278986697412E9, 0.0, 2025-11-15 12:31:38.669
60.0, 234.47863757191226, -152.89458998851478, -197.66493235807866, -148.90037683583796, -0.03200000151991844, 0.288000013679266, 0.9920000471174717, 0.0, 0.0, 0.0, 0.0, 0.0, 1.76322789867044E9, 0.0, 2025-11-15 12:31:38.670
60.0, 353.64680976001546, -63.413743648678064, -137.51986127067357, -97.54407064430416, -0.03200000151991844, 0.288000013679266, 0.9920000471174717, 0.0, 0.0, 0.0, 0.0, 0.0, 1.76322789867044E9, 0.0, 2025-11-15 12:31:38.670
61.0, 392.88584009511396, -18.213312784209847, -75.33654470741749, -22.252404736354947, -0.03200000151991844, 0.27200001291930676, 0.9920000471174717, 0.0, 0.0, 0.0, 0.0, 0.0, 1.7632278986840925E9, 0.0, 2025-11-15 12:31:38.684
61.0, 231.66997270518914, -169.1182759962976, -218.42137711215764, -185.89546719752252, -0.03200000151991844, 0.27200001291930676, 0.9920000471174717, 0.0, 0.0, 0.0, 0.0, 0.0, 1.7632278986840925E9, 0.0, 2025-11-15 12:31:38.684
62.0, 285.09818347217515, -112.48497096728534, -165.06796434428543, -114.7962291399017, -0.03200000151991844, 0.27200001291930676, 0.9920000471174717, 0.0, 0.0, 0.0, 0.0, 0.0, 1.763227898699743E9, 0.0, 2025-11-15 12:31:38.699
62.0, 434.8849165975116, 19.092189273796976, -46.01198915485293, 5.759445931762457, -0.03200000151991844, 0.27200001291930676, 0.9920000471174717, 0.0, 0.0, 0.0, 0.0, 0.0, 1.763227898699743E9, 0.0, 2025-11-15 12:31:38.699
63.0, 248.29382800823078, -145.9944745702669, -192.26451682206243, -159.74982660729438, -0.03200000151991844, 0.27200001291930676, 0.9920000471174717, 0.0, 0.0, 0.0, 0.0, 0.0, 1.76322789870045E9, 0.0, 2025-11-15 12:31:38.700
63.0, 215.09847600152716, -173.60989584308118, -224.35285844188184, -170.1579681839794, -0.03200000151991844, 0.27200001291930676, 0.9920000471174717, 0.0, 0.0, 0.0, 0.0, 0.0, 1.76322789870045E9, 0.0, 2025-11-15 12:31:38.700
64.0, 404.6216461560689, -13.534697939641774, -92.68968050181866, -35.78336277604103, -0.03200000151991844, 0.27200001291930676, 0.9920000471174717, 0.0, 0.0, 0.0, 0.0, 0.0, 1.7632278987140973E9, 0.0, 2025-11-15 12:31:38.714
64.0, 313.25963013852015, -94.24547888338566, -146.7013156618923, -110.29338959325105, -0.03200000151991844, 0.27200001291930676, 0.9920000471174717, 0.0, 0.0, 0.0, 0.0, 0.0, 1.7632278987140973E9, 0.0, 2025-11-15 12:31:38.714
65.0, 193.7062482549809, -194.39625979680568, -235.12377031426877, -176.28018441144377, -0.03200000151991844, 0.27200001291930676, 0.9920000471174717, 0.0, 0.0, 0.0, 0.0, 0.0, 1.7632278987297926E9, 0.0, 2025-11-15 12:31:38.729
65.0, 340.6917963135056, -83.11927651520818, -148.4740282408893, -82.98838001675904, -0.03200000151991844, 0.27200001291930676, 0.9920000471174717, 0.0, 0.0, 0.0, 0.0, 0.0, 1.7632278987297926E9, 0.0, 2025-11-15 12:31:38.729
66.0, 384.54960309388116, -24.227071912959218, -85.30711798928678, -41.669965306296945, -0.03200000151991844, 0.27200001291930676, 0.9920000471174717, 0.0, 0.0, 0.0, 0.0, 0.0, 1.7632278987304535E9, 0.0, 2025-11-15 12:31:38.730
66.0, 199.21138098975644, -187.18947258219123, -230.0375063745305, -185.48033830244094, -0.03200000151991844, 0.27200001291930676, 0.9920000471174717, 0.0, 0.0, 0.0, 0.0, 0.0, 1.7632278987304535E9, 0.0, 2025-11-15 12:31:38.730
67.0, 244.2846552557312, -157.6330432323739, -214.2850477611646, -161.68335488438606, -0.03200000151991844, 0.27200001291930676, 0.9920000471174717, 0.0, 0.0, 0.0, 0.0, 0.0, 1.7632278987440925E9, 0.0, 2025-11-15 12:31:38.744
67.0, 445.8652628674172, 14.589349727146327, -64.19912263937294, -8.44469409994781, -0.03200000151991844, 0.27200001291930676, 0.9920000471174717, 0.0, 0.0, 0.0, 0.0, 0.0, 1.7632278987440925E9, 0.0, 2025-11-15 12:31:38.744
68.0, 257.64731779741123, -157.46848763432354, -208.1366522340104, -169.35014979355037, -0.03200000151991844, 0.27200001291930676, 0.9920000471174717, 0.0, 0.0, 0.0, 0.0, 0.0, 1.7632278987597287E9, 0.0, 2025-11-15 12:31:38.759
68.0, 197.25167341297492, -203.08778729382902, -247.42430126853287, -193.58096160646528, -0.03200000151991844, 0.27200001291930676, 0.9920000471174717, 0.0, 0.0, 0.0, 0.0, 0.0, 1.7632278987597287E9, 0.0, 2025-11-15 12:31:38.759
69.0, 404.4234314584173, -21.69515964295715, -93.91262778732926, -31.078568631783128, -0.03200000151991844, 0.27200001291930676, 0.9920000471174717, 0.0, 0.0, 0.0, 0.0, 0.0, 1.763227898760429E9, 0.0, 2025-11-15 12:31:38.760
69.0, 275.98778718011454, -127.50814908929169, -184.7173987114802, -145.94585587084293, -0.03200000151991844, 0.27200001291930676, 0.9920000471174717, 0.0, 0.0, 0.0, 0.0, 0.0, 1.763227898760429E9, 0.0, 2025-11-15 12:31:38.760
70.0, 175.26480157347396, -215.66507084481418, -257.3836548505351, -213.6230854690075, -0.03200000151991844, 0.27200001291930676, 1.008000047877431, 0.0, 0.0, 0.0, 0.0, 0.0, 1.763227898774073E9, 0.0, 2025-11-15 12:31:38.774
70.0, 323.2414231202565, -100.76412450615317, -172.5215849559754, -110.77583668753505, -0.03200000151991844, 0.27200001291930676, 1.008000047877431, 0.0, 0.0, 0.0, 0.0, 0.0, 1.763227898774073E9, 0.0, 2025-11-15 12:31:38.774
71.0, 376.6322348876856, -46.430857949890196, -108.14668701868504, -59.67384369298816, -0.03200000151991844, 0.27200001291930676, 1.008000047877431, 0.0, 0.0, 0.0, 0.0, 0.0, 1.7632278987897267E9, 0.0, 2025-11-15 12:31:38.789
71.0, 210.66669455403462, -192.9788377135992, -233.58293153252453, -171.85214286390692, -0.03200000151991844, 0.27200001291930676, 1.008000047877431, 0.0, 0.0, 0.0, 0.0, 0.0, 1.7632278987897267E9, 0.0, 2025-11-15 12:31:38.789
72.0, 218.65512085938826, -178.0528969904408, -241.90046903397888, -185.8992070974782, -0.03200000151991844, 0.27200001291930676, 1.008000047877431, 0.0, 0.0, 0.0, 0.0, 0.0, 1.7632278987904308E9, 0.0, 2025-11-15 12:31:38.790
72.0, 421.6232313546352, -12.629642150364816, -91.88560201134533, -34.73993068840355, -0.03200000151991844, 0.27200001291930676, 1.008000047877431, 0.0, 0.0, 0.0, 0.0, 0.0, 1.7632278987904308E9, 0.0, 2025-11-15 12:31:38.790
73.0, 210.65921475412324, -188.11322787124664, -243.62082301359624, -202.60160029958934, -0.03200000151991844, 0.27200001291930676, 1.008000047877431, 0.0, 0.0, 0.0, 0.0, 0.0, 1.763227898804066E9, 0.0, 2025-11-15 12:31:38.804
73.0, 206.88939559878781, -201.206617616117, -255.96249286737293, -195.38359338510782, -0.03200000151991844, 0.27200001291930676, 1.008000047877431, 0.0, 0.0, 0.0, 0.0, 0.0, 1.763227898804066E9, 0.0, 2025-11-15 12:31:38.804
74.0, 383.6856862041168, -49.37789911497384, -129.168664669618, -62.998614753596485, -0.03200000151991844, 0.27200001291930676, 1.008000047877431, 0.0, 0.0, 0.0, 0.0, 0.0, 1.7632278988197477E9, 0.0, 2025-11-15 12:31:38.819
74.0, 285.0832238723524, -116.33332802169025, -167.4166215164587, -121.98057695478201, -0.03200000151991844, 0.27200001291930676, 1.008000047877431, 0.0, 0.0, 0.0, 0.0, 0.0, 1.7632278988197477E9, 0.0, 2025-11-15 12:31:38.819
75.0, 167.89345876080915, -235.09385111462325, -285.2122504208237, -229.41294308193028, -0.03200000151991844, 0.27200001291930676, 1.008000047877431, 0.0, 0.0, 0.0, 0.0, 0.0, 1.7632278988204553E9, 0.0, 2025-11-15 12:31:38.820
75.0, 309.5309498826973, -112.08106177207083, -186.16847989428788, -117.03268931340426, -0.03200000151991844, 0.27200001291930676, 1.008000047877431, 0.0, 0.0, 0.0, 0.0, 0.0, 1.7632278988204553E9, 0.0, 2025-11-15 12:31:38.820
76.0, 381.3519886317663, -47.41071173828095, -113.03847616072744, -60.87809147872031, -0.03200000151991844, 0.27200001291930676, 1.008000047877431, 0.0, 0.0, 0.0, 0.0, 0.0, 1.7632278988340638E9, 0.0, 2025-11-15 12:31:38.834
76.0, 177.1010924517177, -226.15549022052437, -273.5662019588053, -224.6969292378053, -0.03200000151991844, 0.27200001291930676, 1.008000047877431, 0.0, 0.0, 0.0, 0.0, 0.0, 1.7632278988340638E9, 0.0, 2025-11-15 12:31:38.834
77.0, 249.56539399316534, -165.0380451446399, -228.5153670925647, -156.9673410402611, -0.03200000151991844, 0.27200001291930676, 1.008000047877431, 0.0, 0.0, 0.0, 0.0, 0.0, 1.7632278988497295E9, 0.0, 2025-11-15 12:31:38.849
77.0, 407.0675407270901, -26.485971486195922, -101.87113489303738, -51.56948048900813, -0.03200000151991844, 0.27200001291930676, 1.008000047877431, 0.0, 0.0, 0.0, 0.0, 0.0, 1.7632278988497295E9, 0.0, 2025-11-15 12:31:38.849
78.0, 224.18643289385363, -174.51495163235813, -220.8074332838878, -179.4516195738688, -0.03200000151991844, 0.27200001291930676, 1.008000047877431, 0.0, 0.0, 0.0, 0.0, 0.0, 1.7632278988504324E9, 0.0, 2025-11-15 12:31:38.850
78.0, 203.14201584318653, -202.29866840317845, -251.81120391655713, -195.44717168435454, -0.03200000151991844, 0.27200001291930676, 1.008000047877431, 0.0, 0.0, 0.0, 0.0, 0.0, 1.7632278988504324E9, 0.0, 2025-11-15 12:31:38.850
79.0, 391.25898361438885, -43.46885718498379, -118.07238150108606, -47.05542124249041, -0.03200000151991844, 0.27200001291930676, 1.008000047877431, 0.0, 0.0, 0.0, 0.0, 0.0, 1.7632278988640924E9, 0.0, 2025-11-15 12:31:38.864
79.0, 294.242238863837, -111.52381667867303, -159.60023060906678, -112.37277396861464, -0.03200000151991844, 0.27200001291930676, 1.008000047877431, 0.0, 0.0, 0.0, 0.0, 0.0, 1.7632278988640924E9, 0.0, 2025-11-15 12:31:38.864
80.0, 189.56617900403216, -227.90576339978725, -279.22467059176415, -239.5966906612739, -0.03200000151991844, 0.27200001291930676, 1.008000047877431, 0.0, 0.0, 0.0, 0.0, 0.0, 1.7632278988797312E9, 0.0, 2025-11-15 12:31:38.879
80.0, 333.7617616956122, -96.32112335879356, -167.0014926213771, -100.17696021310985, -0.03200000151991844, 0.27200001291930676, 1.008000047877431, 0.0, 0.0, 0.0, 0.0, 0.0, 1.7632278988797312E9, 0.0, 2025-11-15 12:31:38.879
81.0, 363.17981474706903, -58.37983830831945, -121.17275856435299, -76.95966128818691, -0.03200000151991844, 0.27200001291930676, 1.008000047877431, 0.0, 0.0, 0.0, 0.0, 0.0, 1.7632278988804588E9, 0.0, 2025-11-15 12:31:38.880
81.0, 181.31969960173592, -213.15185807459056, -254.43661368545145, -204.3219542792067, -0.03200000151991844, 0.27200001291930676, 1.008000047877431, 0.0, 0.0, 0.0, 0.0, 0.0, 1.7632278988804588E9, 0.0, 2025-11-15 12:31:38.880
82.0, 266.05835279775783, -160.06771810352802, -212.97608277667314, -145.15673698019236, -0.03200000151991844, 0.27200001291930676, 1.008000047877431, 0.0, 0.0, 0.0, 0.0, 0.0, 1.7632278988941126E9, 0.0, 2025-11-15 12:31:38.894
82.0, 404.1803379612975, -11.006525569595397, -83.25391291361302, -20.393674458377063, -0.03200000151991844, 0.27200001291930676, 1.008000047877431, 0.0, 0.0, 0.0, 0.0, 0.0, 1.7632278988941126E9, 0.0, 2025-11-15 12:31:38.894
83.0, 240.6158133991994, -175.32277002278715, -225.4411693289876, -182.1555672418326, -0.03200000151991844, 0.27200001291930676, 1.008000047877431, 0.0, 0.0, 0.0, 0.0, 0.0, 1.763227898909727E9, 0.0, 2025-11-15 12:31:38.909
83.0, 198.82617129432037, -210.75458220299333, -268.1657864227891, -216.065240140073, -0.03200000151991844, 0.27200001291930676, 1.008000047877431, 0.0, 0.0, 0.0, 0.0, 0.0, 1.763227898909727E9, 0.0, 2025-11-15 12:31:38.909
84.0, 430.6737892474048, 3.3509503602981567, -72.2960060434416, -16.788410901091993, -0.03200000151991844, 0.27200001291930676, 1.008000047877431, 0.0, 0.0, 0.0, 0.0, 0.0, 1.7632278989104288E9, 0.0, 2025-11-15 12:31:38.910
84.0, 277.4912269623019, -128.3234472796321, -182.22288544103503, -130.96755654830486, -0.03200000151991844, 0.27200001291930676, 1.008000047877431, 0.0, 0.0, 0.0, 0.0, 0.0, 1.7632278989104288E9, 0.0, 2025-11-15 12:31:38.910
85.0, 190.32537869503722, -217.13485152740031, -271.37462058477104, -213.70536326803267, -0.03200000151991844, 0.27200001291930676, 1.008000047877431, 0.0, 0.0, 0.0, 0.0, 0.0, 1.76322789892407E9, 0.0, 2025-11-15 12:31:38.924
85.0, 336.8845781586133, -87.91008835844696, -162.40141567587852, -96.54551735613495, -0.03200000151991844, 0.27200001291930676, 1.008000047877431, 0.0, 0.0, 0.0, 0.0, 0.0, 1.76322789892407E9, 0.0, 2025-11-15 12:31:38.924
86.0, 389.99489742936566, -38.71170444134623, -102.69765278324485, -45.40238546207547, -0.03200000151991844, 0.27200001291930676, 1.008000047877431, 0.0, 0.0, 0.0, 0.0, 0.0, 1.7632278989397209E9, 0.0, 2025-11-15 12:31:38.939
86.0, 208.2656787824817, -193.19201201107353, -237.28169258870184, -181.20563265308738, -0.03200000151991844, 0.27200001291930676, 1.008000047877431, 0.0, 0.0, 0.0, 0.0, 0.0, 1.7632278989397209E9, 0.0, 2025-11-15 12:31:38.939
87.0, 268.5117271686904, -144.74534798506647, -201.83118090871722, -141.22236222680658, -0.03200000151991844, 0.27200001291930676, 1.008000047877431, 0.0, 0.0, 0.0, 0.0, 0.0, 1.7632278989404273E9, 0.0, 2025-11-15 12:31:38.940
87.0, 419.0389604852535, -12.50996535178274, -93.03749119769782, -35.1288802837953, -0.03200000151991844, 0.27200001291930676, 1.008000047877431, 0.0, 0.0, 0.0, 0.0, 0.0, 1.7632278989404273E9, 0.0, 2025-11-15 12:31:38.940
88.0, 199.97432058071718, -191.80450912751257, -235.82687150593847, -196.66263916995376, -0.03200000151991844, 0.27200001291930676, 1.008000047877431, 0.0, 0.0, 0.0, 0.0, 0.0, 1.763227898954056E9, 0.0, 2025-11-15 12:31:38.954
88.0, 215.72677919408306, -194.0521890008822, -246.72493997681886, -189.5306499544531, -0.03200000151991844, 0.27200001291930676, 1.008000047877431, 0.0, 0.0, 0.0, 0.0, 0.0, 1.763227898954056E9, 0.0, 2025-11-15 12:31:38.954
89.0, 410.5119885862805, -25.42383989877999, -98.8642553286627, -25.29294340033084, -0.03200000151991844, 0.27200001291930676, 1.008000047877431, 0.0, 0.0, 0.0, 0.0, 0.0, 1.7632278989697084E9, 0.0, 2025-11-15 12:31:38.969
89.0, 333.8814384941943, -79.90670245327055, -131.83147343806922, -91.13014222029597, -0.03200000151991844, 0.27200001291930676, 1.008000047877431, 0.0, 0.0, 0.0, 0.0, 0.0, 1.7632278989697084E9, 0.0, 2025-11-15 12:31:38.969
90.0, 196.79540561838076, -210.1412386102602, -268.10594802349806, -221.63021127413958, -0.03200000151991844, 0.27200001291930676, 1.008000047877431, 0.0, 0.0, 0.0, 0.0, 0.0, 1.763227898970424E9, 0.0, 2025-11-15 12:31:38.970
90.0, 324.12403950979933, -102.78367048222572, -179.4553594738245, -118.43141189683229, -0.03200000151991844, 0.27200001291930676, 1.008000047877431, 0.0, 0.0, 0.0, 0.0, 0.0, 1.763227898970424E9, 0.0, 2025-11-15 12:31:38.970
91.0, 362.38695595646277, -45.675398158840835, -106.66568663623184, -45.82125425711274, -0.03200000151991844, 0.27200001291930676, 1.008000047877431, 0.0, 0.0, 0.0, 0.0, 0.0, 1.763227898984064E9, 0.0, 2025-11-15 12:31:38.984
91.0, 184.24804126704112, -205.9151516603306, -251.13428202457726, -195.47335098404437, -0.03200000151991844, 0.27200001291930676, 1.008000047877431, 0.0, 0.0, 0.0, 0.0, 0.0, 1.763227898984064E9, 0.0, 2025-11-15 12:31:38.984
92.0, 258.11854519182816, -155.3741436591372, -219.09081920422614, -159.39827601145953, -0.03200000151991844, 0.27200001291930676, 1.008000047877431, 0.0, 0.0, 0.0, 0.0, 0.0, 1.763227898999724E9, 0.0, 2025-11-15 12:31:38.999
92.0, 433.16830251784995, 1.5894574811682105, -73.5900114281103, -10.87188917119056, -0.03200000151991844, 0.27200001291930676, 1.008000047877431, 0.0, 0.0, 0.0, 0.0, 0.0, 1.763227898999724E9, 0.0, 2025-11-15 12:31:38.999
93.0, 239.8379142084159, -170.5282182795927, -216.44297003559768, -171.47067306842655, -0.03200000151991844, 0.27200001291930676, 1.008000047877431, 0.0, 0.0, 0.0, 0.0, 0.0, 1.7632278990004263E9, 0.0, 2025-11-15 12:31:39.000
93.0, 213.95032671513036, -204.89415897242725, -258.5953824361786, -203.43559798970819, -0.03200000151991844, 0.27200001291930676, 1.008000047877431, 0.0, 0.0, 0.0, 0.0, 0.0, 1.7632278990004263E9, 0.0, 2025-11-15 12:31:39.000
94.0, 422.6367442426272, -26.411173487082124, -106.9386993329972, -43.46137738507241, -0.03200000151991844, 0.27200001291930676, 1.008000047877431, 0.0, 0.0, 0.0, 0.0, 0.0, 1.7632278990140457E9, 0.0, 2025-11-15 12:31:39.014
94.0, 292.8622157801874, -106.81902253441513, -156.16326254978776, -113.2740898579359, -0.03200000151991844, 0.27200001291930676, 1.008000047877431, 0.0, 0.0, 0.0, 0.0, 0.0, 1.7632278990140457E9, 0.0, 2025-11-15 12:31:39.014
95.0, 186.64531713863835, -210.9490570006892, -260.06142321880907, -203.91804508399218, -0.03200000151991844, 0.27200001291930676, 1.008000047877431, 0.0, 0.0, 0.0, 0.0, 0.0, 1.7632278990297372E9, 0.0, 2025-11-15 12:31:39.029
95.0, 324.38209260674194, -92.72333960141987, -163.28029216546565, -102.3423622874543, -0.03200000151991844, 0.27200001291930676, 1.008000047877431, 0.0, 0.0, 0.0, 0.0, 0.0, 1.7632278990297372E9, 0.0, 2025-11-15 12:31:39.029
96.0, 363.32567084534094, -50.58962670061737, -115.08420143648982, -65.13035772833973, -0.03200000151991844, 0.27200001291930676, 1.008000047877431, 0.0, 0.0, 0.0, 0.0, 0.0, 1.7632278990304255E9, 0.0, 2025-11-15 12:31:39.030
96.0, 221.3815079270862, -186.98751798458397, -234.09529782645404, -189.74756415188313, -0.03200000151991844, 0.27200001291930676, 1.008000047877431, 0.0, 0.0, 0.0, 0.0, 0.0, 1.7632278990304255E9, 0.0, 2025-11-15 12:31:39.030
97.0, 275.8157517821528, -149.75681392569095, -211.1697110980749, -147.28100015502423, -0.03200000151991844, 0.27200001291930676, 1.008000047877431, 0.0, 0.0, 0.0, 0.0, 0.0, 1.763227899044126E9, 0.0, 2025-11-15 12:31:39.044
97.0, 450.3868019138463, 15.68514041416347, -67.76698719710112, -2.3449172722175717, -0.03200000151991844, 0.27200001291930676, 1.008000047877431, 0.0, 0.0, 0.0, 0.0, 0.0, 1.763227899044126E9, 0.0, 2025-11-15 12:31:39.044
98.0, 689.2785214334726, -189.5343898544088, -238.0408922797069, -194.35886079724878, -0.03200000151991844, 0.27200001291930676, 1.008000047877431, 0.0, 0.0, 0.0, 0.0, 0.0, 1.7632278990597365E9, 0.0, 2025-11-15 12:31:39.059
98.0, 710.8652239777148, -180.81294315773994, -232.58437824435532, -175.9361136155203, -0.03200000151991844, 0.27200001291930676, 1.008000047877431, 0.0, 0.0, 0.0, 0.0, 0.0, 1.7632278990597365E9, 0.0, 2025-11-15 12:31:39.059
99.0, 919.8508335016668, -4.749672943726182, -92.52886480372399, -25.992304692044854, -0.03200000151991844, 0.27200001291930676, 1.008000047877431, 0.0, 0.0, 0.0, 0.0, 0.0, 1.7632278990604284E9, 0.0, 2025-11-15 12:31:39.060
99.0, 839.6711183516309, -72.74853393808007, -139.5431471467018, -112.78790286369622, -0.03200000151991844, 0.27200001291930676, 1.008000047877431, 0.0, 0.0, 0.0, 0.0, 0.0, 1.7632278990604284E9, 0.0, 2025-11-15 12:31:39.060
100.0, 654.6956665432081, -222.68860296159983, -272.3245551735163, -233.1865021372214, -0.03200000151991844, 0.27200001291930676, 1.008000047877431, 0.0, 0.0, 0.0, 0.0, 0.0, 1.7632278990747075E9, 0.0, 2025-11-15 12:31:39.074
100.0, 823.7653238400817, -88.81140424776822, -164.86600974667817, -103.12026147823781, -0.03200000151991844, 0.27200001291930676, 1.008000047877431, 0.0, 0.0, 0.0, 0.0, 0.0, 1.7632278990747075E9, 0.0, 2025-11-15 12:31:39.074
0.0, -92.25585210695863, -25.60896494658664, -96.64462470496073, -39.790665578562766, -0.03200000151991844, 0.27200001291930676, 1.008000047877431, 0.0, 0.0, 0.0, 0.0, 0.0, 1.7632278990754175E9, 0.0, 2025-11-15 12:31:39.075
1.0, -251.51949172001332, -167.3249939675443, -218.06047676643357, -165.2082105926238, -0.03200000151991844, 0.27200001291930676, 1.008000047877431, 0.0, 0.0, 0.0, 0.0, 0.0, 1.7632278990890992E9, 0.0, 2025-11-15 12:31:39.089
1.0, -235.63613660819829, -153.80151572776958, -208.85284307552502, -140.58844918431714, -0.03200000151991844, 0.27200001291930676, 1.008000047877431, 0.0, 0.0, 0.0, 0.0, 0.0, 1.7632278990890992E9, 0.0, 2025-11-15 12:31:39.089
2.0, -31.41141972783953, 15.013828372117132, -64.72083868319169, -17.642978040967137, -0.03200000151991844, 0.27200001291930676, 1.008000047877431, 0.0, 0.0, 0.0, 0.0, 0.0, 1.7632278991044707E9, 0.0, 2025-11-15 12:31:39.104
2.0, -259.4518195260316, -157.3170216861181, -204.18170803086832, -168.15525175770745, -0.03200000151991844, 0.27200001291930676, 1.008000047877431, 0.0, 0.0, 0.0, 0.0, 0.0, 1.7632278991044707E9, 0.0, 2025-11-15 12:31:39.104
3.0, -290.55656745750457, -207.21102699497715, -263.49652132811025, -217.92958026798442, -0.03200000151991844, 0.27200001291930676, 1.008000047877431, 0.0, 0.0, 0.0, 0.0, 0.0, 1.7632278991197305E9, 0.0, 2025-11-15 12:31:39.119
3.0, -47.661285035312176, -1.250996535178274, -82.15251237666234, -16.30783375678584, -0.03200000151991844, 0.27200001291930676, 1.008000047877431, 0.0, 0.0, 0.0, 0.0, 0.0, 1.7632278991197305E9, 0.0, 2025-11-15 12:31:39.119
4.0, -190.316028945148, -99.86467856680974, -155.25259691057727, -109.68191595049575, -0.03200000151991844, 0.27200001291930676, 1.008000047877431, 0.0, 0.0, 0.0, 0.0, 0.0, 1.7632278991204245E9, 0.0, 2025-11-15 12:31:39.120
4.0, -257.3163366513327, -184.7005691616796, -236.77119624475017, -187.5877719274722, -0.03200000151991844, 0.27200001291930676, 1.008000047877431, 0.0, 0.0, 0.0, 0.0, 0.0, 1.7632278991204245E9, 0.0, 2025-11-15 12:31:39.120
5.0, -138.54085395857692, -72.81024228734896, -149.9830778730102, -89.03392829513177, -0.03200000151991844, 0.27200001291930676, 1.008000047877431, 0.0, 0.0, 0.0, 0.0, 0.0, 1.7632278991347032E9, 0.0, 2025-11-15 12:31:39.134
5.0, -118.0200229017064, -26.461662136483938, -89.84548658551648, -47.835190383251756, -0.03200000151991844, 0.27200001291930676, 1.008000047877431, 0.0, 0.0, 0.0, 0.0, 0.0, 1.7632278991347032E9, 0.0, 2025-11-15 12:31:39.134
6.0, -265.6413539526984, -182.8493186836131, -238.48033052450046, -194.27471304824576, -0.03200000151991844, 0.27200001291930676, 1.008000047877431, 0.0, 0.0, 0.0, 0.0, 0.0, 1.7632278991354136E9, 0.0, 2025-11-15 12:31:39.135
6.0, -230.82662526518106, -149.18273928249255, -214.07374341366813, -154.59063461842015, -0.03200000151991844, 0.27200001291930676, 1.008000047877431, 0.0, 0.0, 0.0, 0.0, 0.0, 1.7632278991354136E9, 0.0, 2025-11-15 12:31:39.135
7.0, -50.40637160278857, 11.89101190911606, -65.22946507716551, -12.986802596133202, -0.03200000151991844, 0.27200001291930676, 1.008000047877431, 0.0, 0.0, 0.0, 0.0, 0.0, 1.763227899165445E9, 0.0, 2025-11-15 12:31:39.165
7.0, -253.4118810975924, -152.0138435489498, -199.68260838417336, -166.49847607733682, -0.03200000151991844, 0.27200001291930676, 1.008000047877431, 0.0, 0.0, 0.0, 0.0, 0.0, 1.763227899165445E9, 0.0, 2025-11-15 12:31:39.165
8.0, -254.3019772870466, -172.68427060404792, -230.4956441191025, -174.29242758499458, -0.03200000151991844, 0.27200001291930676, 1.008000047877431, 0.0, 0.0, 0.0, 0.0, 0.0, 1.7632278991661396E9, 0.0, 2025-11-15 12:31:39.166
8.0, -70.75142736174166, -12.066787207033485, -97.4711425951682, -35.94230852415785, -0.03200000151991844, 0.27200001291930676, 1.008000047877431, 0.0, 0.0, 0.0, 0.0, 0.0, 1.7632278991661396E9, 0.0, 2025-11-15 12:31:39.166
9.0, -195.67530558165163, -102.86781823122874, -157.4292186847888, -114.80931878974661, -0.03200000151991844, 0.27200001291930676, 1.008000047877431, 0.0, 0.0, 0.0, 0.0, 0.0, 1.7632278991668785E9, 0.0, 2025-11-15 12:31:39.166
9.0, -285.26834892015904, -200.67742177238688, -250.56768718129024, -202.2257403540425, -0.03200000151991844, 0.27200001291930676, 1.008000047877431, 0.0, 0.0, 0.0, 0.0, 0.0, 1.7632278991668785E9, 0.0, 2025-11-15 12:31:39.166
10.0, -168.12720250803977, -97.38138499623165, -169.41559804277495, -107.0340667818673, -0.03200000151991844, 0.27200001291930676, 1.008000047877431, 0.0, 0.0, 0.0, 0.0, 0.0, 1.7632278991791117E9, 0.0, 2025-11-15 12:31:39.179
10.0, -112.54480936657637, -24.438376260455698, -89.53507488919422, -33.776906449813396, -0.03200000151991844, 0.27200001291930676, 1.008000047877431, 0.0, 0.0, 0.0, 0.0, 0.0, 1.7632278991791117E9, 0.0, 2025-11-15 12:31:39.179
11.0, -296.5778063861653, -192.87225056486204, -246.10598653415218, -204.06577113224193, -0.03200000151991844, 0.27200001291930676, 1.008000047877431, 0.0, 0.0, 0.0, 0.0, 0.0, 1.76322789919475E9, 0.0, 2025-11-15 12:31:39.194
11.0, -238.54203887376934, -165.01373579492792, -233.07617508852854, -178.20436293864623, -0.03200000151991844, 0.27200001291930676, 1.008000047877431, 0.0, 0.0, 0.0, 0.0, 0.0, 1.76322789919475E9, 0.0, 2025-11-15 12:31:39.194
12.0, -23.00786452740431, 32.27346666762605, -51.6723277377896, -8.558761048596352, -0.03200000151991844, 0.27200001291930676, 1.008000047877431, 0.0, 0.0, 0.0, 0.0, 0.0, 1.763227899195466E9, 0.0, 2025-11-15 12:31:39.195
12.0, -261.7443781988695, -154.61681391810998, -206.6762213013135, -167.96077696001157, -0.03200000151991844, 0.27200001291930676, 1.008000047877431, 0.0, 0.0, 0.0, 0.0, 0.0, 1.763227899195466E9, 0.0, 2025-11-15 12:31:39.195
13.0, -277.03308921772987, -193.2238011606969, -253.87375874212012, -204.1555287311785, -0.03200000151991844, 0.27200001291930676, 1.008000047877431, 0.0, 0.0, 0.0, 0.0, 0.0, 1.763227899209105E9, 0.0, 2025-11-15 12:31:39.209
13.0, -68.69448238611221, -4.186818000394851, -87.68008451117203, -32.37818386638537, -0.03200000151991844, 0.27200001291930676, 1.008000047877431, 0.0, 0.0, 0.0, 0.0, 0.0, 1.763227899209105E9, 0.0, 2025-11-15 12:31:39.209
14.0, -170.7825314765796, -87.2836551158689, -144.7172987353988, -102.61350503424183, -0.03200000151991844, 0.27200001291930676, 1.008000047877431, 0.0, 0.0, 0.0, 0.0, 0.0, 1.7632278992247431E9, 0.0, 2025-11-15 12:31:39.224
14.0, -287.7703419905156, -205.76742561208084, -258.52619428699836, -209.32407046994194, -0.03200000151991844, 0.27200001291930676, 1.008000047877431, 0.0, 0.0, 0.0, 0.0, 0.0, 1.7632278992247431E9, 0.0, 2025-11-15 12:31:39.224
15.0, -166.51156572718173, -97.38512489618734, -171.30424752039835, -104.6592303100042, -0.03200000151991844, 0.27200001291930676, 1.008000047877431, 0.0, 0.0, 0.0, 0.0, 0.0, 1.7632278992254457E9, 0.0, 2025-11-15 12:31:39.225
15.0, -83.32497101277113, -12.69883029954508, -83.62603295920417, -34.8876567366533, -0.03200000151991844, 0.27200001291930676, 1.008000047877431, 0.0, 0.0, 0.0, 0.0, 0.0, 1.7632278992254457E9, 0.0, 2025-11-15 12:31:39.225
16.0, -280.866486672312, -192.15792967332527, -245.62727933982387, -202.00882615661249, -0.03200000151991844, 0.27200001291930676, 1.008000047877431, 0.0, 0.0, 0.0, 0.0, 0.0, 1.7632278992391105E9, 0.0, 2025-11-15 12:31:39.239
16.0, -250.13572873640805, -182.82313938392326, -250.8818387775682, -184.61829136265442, -0.03200000151991844, 0.27200001291930676, 1.008000047877431, 0.0, 0.0, 0.0, 0.0, 0.0, 1.7632278992391105E9, 0.0, 2025-11-15 12:31:39.239
17.0, -24.803016506135464, 21.390357796568424, -66.58704876108095, -14.953989972826093, -0.03200000151991844, 0.27200001291930676, 1.008000047877431, 0.0, 0.0, 0.0, 0.0, 0.0, 1.7632278992547607E9, 0.0, 2025-11-15 12:31:39.254
17.0, -268.69685221649706, -169.04160804720595, -217.8660019687377, -167.1005999702029, -0.03200000151991844, 0.27200001291930676, 1.008000047877431, 0.0, 0.0, 0.0, 0.0, 0.0, 1.7632278992547607E9, 0.0, 2025-11-15 12:31:39.254
18.0, -273.5811615586281, -201.98638675687835, -264.94386261096224, -205.28123861784115, -0.03200000151991844, 0.27200001291930676, 1.008000047877431, 0.0, 0.0, 0.0, 0.0, 0.0, 1.7632278992554655E9, 0.0, 2025-11-15 12:31:39.255
18.0, -89.26019224245101, -23.219168874900788, -102.87155813118443, -36.12930352194235, -0.03200000151991844, 0.27200001291930676, 1.008000047877431, 0.0, 0.0, 0.0, 0.0, 0.0, 1.7632278992554655E9, 0.0, 2025-11-15 12:31:39.255
19.0, -152.31116559542716, -83.83920725667849, -146.089842019137, -106.83211218426004, -0.03200000151991844, 0.27200001291930676, 1.008000047877431, 0.0, 0.0, 0.0, 0.0, 0.0, 1.7632278992690768E9, 0.0, 2025-11-15 12:31:39.269
19.0, -309.76469362992793, -223.35243520373479, -278.09335085516796, -224.14903389429674, -0.03200000151991844, 0.27200001291930676, 1.008000047877431, 0.0, 0.0, 0.0, 0.0, 0.0, 1.7632278992690768E9, 0.0, 2025-11-15 12:31:39.269
20.0, -164.39104245230556, -96.91015760181472, -170.7619620268233, -106.61145808687434, -0.03200000151991844, 0.27200001291930676, 1.008000047877431, 0.0, 0.0, 0.0, 0.0, 0.0, 1.7632278992847555E9, 0.0, 2025-11-15 12:31:39.284
20.0, -93.33668319415301, -17.0632935478352, -88.03163510700688, -38.96788758831099, -0.03200000151991844, 0.27200001291930676, 1.008000047877431, 0.0, 0.0, 0.0, 0.0, 0.0, 1.7632278992847555E9, 0.0, 2025-11-15 12:31:39.284
21.0, -272.44049207214266, -193.13030366180465, -249.56539399316534, -191.65304317930713, -0.03200000151991844, 0.27200001291930676, 1.008000047877431, 0.0, 0.0, 0.0, 0.0, 0.0, 1.7632278992854493E9, 0.0, 2025-11-15 12:31:39.285
21.0, -262.1669868938625, -176.52888775849715, -242.52316237660125, -166.66303167538717, -0.03200000151991844, 0.27200001291930676, 1.008000047877431, 0.0, 0.0, 0.0, 0.0, 0.0, 1.7632278992854493E9, 0.0, 2025-11-15 12:31:39.285
22.0, -44.00740277860314, 9.777968434151262, -80.64159279456362, -26.151250440161675, -0.03200000151991844, 0.27200001291930676, 1.008000047877431, 0.0, 0.0, 0.0, 0.0, 0.0, 1.7632278992990923E9, 0.0, 2025-11-15 12:31:39.299
22.0, -229.74953407794237, -153.52476313104853, -210.65921475412324, -169.66243143985048, -0.03200000151991844, 0.27200001291930676, 1.008000047877431, 0.0, 0.0, 0.0, 0.0, 0.0, 1.7632278992990923E9, 0.0, 2025-11-15 12:31:39.299
23.0, -310.98016111552715, -222.22298541711643, -282.31569790514186, -214.268218211364, -0.03200000151991844, 0.27200001291930676, 1.008000047877431, 0.0, 0.0, 0.0, 0.0, 0.0, 1.763227899314742E9, 0.0, 2025-11-15 12:31:39.314
23.0, -97.34585594665259, -31.21133508021012, -107.93912257114425, -32.8868102603592, -0.03200000151991844, 0.27200001291930676, 1.008000047877431, 0.0, 0.0, 0.0, 0.0, 0.0, 1.763227899314742E9, 0.0, 2025-11-15 12:31:39.314
24.0, -174.61966883111745, -98.32757968502119, -158.93639836693183, -112.32602521916851, -0.03200000151991844, 0.27200001291930676, 1.008000047877431, 0.0, 0.0, 0.0, 0.0, 0.0, 1.763227899315448E9, 0.0, 2025-11-15 12:31:39.315
24.0, -303.2535278070718, -222.39128091512248, -271.6607229313813, -203.78901853552088, -0.03200000151991844, 0.27200001291930676, 1.008000047877431, 0.0, 0.0, 0.0, 0.0, 0.0, 1.763227899315448E9, 0.0, 2025-11-15 12:31:39.315
25.0, -136.54000748228282, -87.81846080953255, -167.17913786927238, -92.63171205250546, -0.03200000151991844, 0.27200001291930676, 1.008000047877431, 0.0, 0.0, 0.0, 0.0, 0.0, 1.7632278993291156E9, 0.0, 2025-11-15 12:31:39.329
25.0, -86.21217377856374, -17.92347053764388, -87.42577131418511, -23.320146173704416, -0.03200000151991844, 0.27200001291930676, 1.008000047877431, 0.0, 0.0, 0.0, 0.0, 0.0, 1.7632278993291156E9, 0.0, 2025-11-15 12:31:39.329
26.0, -304.5475331917405, -214.3467561104335, -267.8796840761788, -220.10994194215164, -0.03200000151991844, 0.27200001291930676, 1.008000047877431, 0.0, 0.0, 0.0, 0.0, 0.0, 1.7632278993447409E9, 0.0, 2025-11-15 12:31:39.344
26.0, -259.88190802093595, -174.05307398783043, -235.82126165600494, -174.70381658012047, -0.03200000151991844, 0.27200001291930676, 1.008000047877431, 0.0, 0.0, 0.0, 0.0, 0.0, 1.7632278993447409E9, 0.0, 2025-11-15 12:31:39.344
27.0, -49.45643701404333, 13.424370890948921, -69.77718342328444, -9.89016543282196, -0.03200000151991844, 0.27200001291930676, 1.008000047877431, 0.0, 0.0, 0.0, 0.0, 0.0, 1.7632278993454669E9, 0.0, 2025-11-15 12:31:39.345
27.0, -260.2334586167708, -161.4608308370225, -217.09184267790988, -169.71479003923014, -0.03200000151991844, 0.27200001291930676, 1.008000047877431, 0.0, 0.0, 0.0, 0.0, 0.0, 1.7632278993454669E9, 0.0, 2025-11-15 12:31:39.345
28.0, -278.66742549836636, -202.43891465151682, -261.0618464569561, -196.21198122529313, -0.03200000151991844, 0.27200001291930676, 1.008000047877431, 0.0, 0.0, 0.0, 0.0, 0.0, 1.7632278993590713E9, 0.0, 2025-11-15 12:31:39.359
28.0, -67.66600989829749, -18.73876872798428, -103.75417452072725, -38.54901879327372, -0.03200000151991844, 0.27200001291930676, 1.008000047877431, 0.0, 0.0, 0.0, 0.0, 0.0, 1.7632278993590713E9, 0.0, 2025-11-15 12:31:39.359
29.0, -157.5919043328613, -75.66752585349604, -132.50278548011556, -81.28485558694229, -0.03200000151991844, 0.27200001291930676, 1.008000047877431, 0.0, 0.0, 0.0, 0.0, 0.0, 1.7632278993747396E9, 0.0, 2025-11-15 12:31:39.374
29.0, -308.26873364765197, -229.92343942588195, -279.98948013270274, -223.46463220240548, -0.03200000151991844, 0.27200001291930676, 1.008000047877431, 0.0, 0.0, 0.0, 0.0, 0.0, 1.7632278993747396E9, 0.0, 2025-11-15 12:31:39.374
30.0, -168.90136179886758, -96.06120031187311, -162.23125022789463, -92.1380452583544, -0.03200000151991844, 0.27200001291930676, 1.008000047877431, 0.0, 0.0, 0.0, 0.0, 0.0, 1.7632278993754456E9, 0.0, 2025-11-15 12:31:39.375
30.0, -76.37623689509928, -11.517021913547069, -81.21379748778418, -22.467448983807117, -0.03200000151991844, 0.27200001291930676, 1.008000047877431, 0.0, 0.0, 0.0, 0.0, 0.0, 1.7632278993754456E9, 0.0, 2025-11-15 12:31:39.375
31.0, -295.5381141984835, -203.54218513844535, -256.4842089111917, -208.8939819750376, -0.03200000151991844, 0.27200001291930676, 1.008000047877431, 0.0, 0.0, 0.0, 0.0, 0.0, 1.7632278993891072E9, 0.0, 2025-11-15 12:31:39.389
31.0, -239.69392806012183, -173.51452839421108, -237.10404734080657, -173.78380119102076, -0.03200000151991844, 0.27200001291930676, 1.008000047877431, 0.0, 0.0, 0.0, 0.0, 0.0, 1.7632278993891072E9, 0.0, 2025-11-15 12:31:39.389
32.0, -46.68143124692142, 20.556360106449574, -52.02013843366876, 13.117699094582349, -0.03200000151991844, 0.27200001291930676, 1.008000047877431, 0.0, 0.0, 0.0, 0.0, 0.0, 1.7632278994047377E9, 0.0, 2025-11-15 12:31:39.404
32.0, -234.16635592561215, -148.44597899122164, -205.04936482058838, -160.16308555239812, -0.03200000151991844, 0.27200001291930676, 1.008000047877431, 0.0, 0.0, 0.0, 0.0, 0.0, 1.7632278994047377E9, 0.0, 2025-11-15 12:31:39.404
33.0, -304.0987451970577, -216.43362028570846, -268.8595378645696, -205.06806432036683, -0.03200000151991844, 0.27200001291930676, 1.008000047877431, 0.0, 0.0, 0.0, 0.0, 0.0, 1.7632278994054573E9, 0.0, 2025-11-15 12:31:39.405
33.0, -66.2897267146036, -12.964363196399063, -92.6915504517965, -19.419430519919842, -0.03200000151991844, 0.27200001291930676, 1.008000047877431, 0.0, 0.0, 0.0, 0.0, 0.0, 1.7632278994054573E9, 0.0, 2025-11-15 12:31:39.405
34.0, -157.16555573791265, -71.93510569771752, -126.8218774474226, -80.92582519119605, -0.03200000151991844, 0.27200001291930676, 1.008000047877431, 0.0, 0.0, 0.0, 0.0, 0.0, 1.7632278994191208E9, 0.0, 2025-11-15 12:31:39.419
34.0, -298.6310114618391, -223.13178110634908, -269.8506113528274, -214.4140743096359, -0.03200000151991844, 0.27200001291930676, 1.008000047877431, 0.0, 0.0, 0.0, 0.0, 0.0, 1.7632278994191208E9, 0.0, 2025-11-15 12:31:39.419
35.0, -151.82497860118747, -84.02994215441868, -146.00382432015613, -83.27448236336932, -0.03200000151991844, 0.27200001291930676, 1.008000047877431, 0.0, 0.0, 0.0, 0.0, 0.0, 1.7632278994347992E9, 0.0, 2025-11-15 12:31:39.434
35.0, -73.42171593010426, -4.22421699995175, -73.91725267423317, -26.514020735863596, -0.03200000151991844, 0.27200001291930676, 1.008000047877431, 0.0, 0.0, 0.0, 0.0, 0.0, 1.7632278994347992E9, 0.0, 2025-11-15 12:31:39.434
36.0, -305.46754858084023, -206.3433702052571, -249.94312388869002, -198.0781913031824, -0.03200000151991844, 0.27200001291930676, 1.008000047877431, 0.0, 0.0, 0.0, 0.0, 0.0, 1.7632278994354415E9, 0.0, 2025-11-15 12:31:39.435
36.0, -245.0756440963596, -172.8450863021426, -233.36040748516098, -167.60174656426534, -0.03200000151991844, 0.27200001291930676, 1.008000047877431, 0.0, 0.0, 0.0, 0.0, 0.0, 1.7632278994354415E9, 0.0, 2025-11-15 12:31:39.435
37.0, -35.87686027493328, 9.553574436809868, -66.05598296737298, 3.1957445121370256, -0.03200000151991844, 0.27200001291930676, 1.008000047877431, 0.0, 0.0, 0.0, 0.0, 0.0, 1.7632278994491055E9, 0.0, 2025-11-15 12:31:39.449
37.0, -237.65942248422652, -156.30350879812613, -202.5623313500546, -148.50207749055699, -0.03200000151991844, 0.27200001291930676, 1.008000047877431, 0.0, 0.0, 0.0, 0.0, 0.0, 1.7632278994491055E9, 0.0, 2025-11-15 12:31:39.449
38.0, -299.82029964774847, -217.76128476997837, -267.01950708637014, -208.84162337565795, -0.03200000151991844, 0.27200001291930676, 1.008000047877431, 0.0, 0.0, 0.0, 0.0, 0.0, 1.7632278994647367E9, 0.0, 2025-11-15 12:31:39.464
38.0, -537.9490795764141, 8.805594445671886, -72.61576748965308, -3.01248941430822, -0.03200000151991844, 0.27200001291930676, 1.008000047877431, 0.0, 0.0, 0.0, 0.0, 0.0, 1.7632278994647367E9, 0.0, 2025-11-15 12:31:39.464
39.0, -658.5832925471477, -92.11560585862026, -149.7212848761119, -110.24290094384924, -0.03200000151991844, 0.27200001291930676, 1.008000047877431, 0.0, 0.0, 0.0, 0.0, 0.0, 1.763227899465459E9, 0.0, 2025-11-15 12:31:39.465
39.0, -812.1922034271993, -227.07363565964624, -272.5919580203481, -219.66489384742454, -0.03200000151991844, 0.27200001291930676, 1.008000047877431, 0.0, 0.0, 0.0, 0.0, 0.0, 1.763227899465459E9, 0.0, 2025-11-15 12:31:39.465
40.0, -653.2651548101567, -98.45473628351465, -169.70731023931876, -100.96420915378258, -0.03200000151991844, 0.27200001291930676, 1.008000047877431, 0.0, 0.0, 0.0, 0.0, 0.0, 1.763227899479238E9, 0.0, 2025-11-15 12:31:39.479
40.0, -561.7759821941145, -1.6362062306143343, -68.32610224047676, -18.491935330908746, -0.03200000151991844, 0.27200001291930676, 1.008000047877431, 0.0, 0.0, 0.0, 0.0, 0.0, 1.763227899479238E9, 0.0, 2025-11-15 12:31:39.479
41.0, -772.829756393563, -198.81121169449762, -244.96531704766676, -197.57330480916426, -0.03200000151991844, 0.25600001215934753, 1.008000047877431, 0.0, 0.0, 0.0, 0.0, 0.0, 1.7632278994947548E9, 0.0, 2025-11-15 12:31:39.494
41.0, -739.8849776838906, -173.90721788955852, -225.25604428118095, -168.11037295823917, -0.03200000151991844, 0.25600001215934753, 1.008000047877431, 0.0, 0.0, 0.0, 0.0, 0.0, 1.7632278994947548E9, 0.0, 2025-11-15 12:31:39.494
42.0, -510.54683260107413, 30.212781792040914, -50.355882953386754, 11.816213910002261, -0.03200000151991844, 0.25600001215934753, 1.008000047877431, 0.0, 0.0, 0.0, 0.0, 0.0, 1.7632278994954653E9, 0.0, 2025-11-15 12:31:39.495
42.0, -736.2610146268271, -154.4223391204141, -199.52927248599008, -153.84265462728217, -0.03200000151991844, 0.25600001215934753, 1.008000047877431, 0.0, 0.0, 0.0, 0.0, 0.0, 1.7632278994954653E9, 0.0, 2025-11-15 12:31:39.495
43.0, -791.6414531706832, -225.78711007488891, -274.20011500129476, -204.77261222386733, -0.03200000151991844, 0.25600001215934753, 1.008000047877431, 0.0, 0.0, 0.0, 0.0, 0.0, 1.7632278995090604E9, 0.0, 2025-11-15 12:31:39.509
43.0, -554.2326039834879, -13.525348189752549, -92.64293175237253, -23.59689877042547, -0.03200000151991844, 0.25600001215934753, 1.008000047877431, 0.0, 0.0, 0.0, 0.0, 0.0, 1.7632278995090604E9, 0.0, 2025-11-15 12:31:39.509
44.0, -662.222215204034, -92.86732574971393, -145.40170042729005, -104.15434381598607, -0.03200000151991844, 0.25600001215934753, 1.008000047877431, 0.0, 0.0, 0.0, 0.0, 0.0, 1.7632278995247426E9, 0.0, 2025-11-15 12:31:39.524
44.0, -800.0001295716502, -220.1996995410882, -266.65299689071253, -216.6019157837145, -0.03200000151991844, 0.25600001215934753, 1.008000047877431, 0.0, 0.0, 0.0, 0.0, 0.0, 1.7632278995247426E9, 0.0, 2025-11-15 12:31:39.524
45.0, -650.9725961373188, -97.81521339109167, -169.37071924330667, -103.26424762653187, -0.03200000151991844, 0.25600001215934753, 1.008000047877431, 0.0, 0.0, 0.0, 0.0, 0.0, 1.7632278995254464E9, 0.0, 2025-11-15 12:31:39.525
45.0, -568.1151126190089, -7.354513262864202, -74.16034617135301, -18.806086927186698, -0.03200000151991844, 0.25600001215934753, 1.008000047877431, 0.0, 0.0, 0.0, 0.0, 0.0, 1.7632278995254464E9, 0.0, 2025-11-15 12:31:39.525
46.0, -777.0334039437585, -199.14406279055402, -242.05567488214, -199.35723708802834, -0.03200000151991844, 0.25600001215934753, 1.008000047877431, 0.0, 0.0, 0.0, 0.0, 0.0, 1.7632278995555155E9, 0.0, 2025-11-15 12:31:39.555
46.0, -718.7208838346414, -157.8742667795159, -215.9362135916017, -148.70777198811993, -0.03200000151991844, 0.25600001215934753, 1.008000047877431, 0.0, 0.0, 0.0, 0.0, 0.0, 1.7632278995555155E9, 0.0, 2025-11-15 12:31:39.555
47.0, -507.65215003537014, 35.21302803279832, -37.90201610093936, 34.11723734578118, -0.03200000151991844, 0.25600001215934753, 1.008000047877431, 0.0, 0.0, 0.0, 0.0, 0.0, 1.763227899556188E9, 0.0, 2025-11-15 12:31:39.556
47.0, -269.10450131166726, -165.44756418978795, -210.49465915607288, -166.07586738234386, -0.03200000151991844, 0.25600001215934753, 1.008000047877431, 0.0, 0.0, 0.0, 0.0, 0.0, 1.763227899556188E9, 0.0, 2025-11-15 12:31:39.556
48.0, -306.35390487033874, -215.7529584937729, -261.0020080576651, -215.932473691646, -0.03200000151991844, 0.25600001215934753, 1.008000047877431, 0.0, 0.0, 0.0, 0.0, 0.0, 1.763227899556907E9, 0.0, 2025-11-15 12:31:39.556
48.0, -542.5304570221342, -4.141939200926572, -84.23189675202593, -23.17429007543251, -0.03200000151991844, 0.25600001215934753, 1.008000047877431, 0.0, 0.0, 0.0, 0.0, 0.0, 1.763227899556907E9, 0.0, 2025-11-15 12:31:39.556
49.0, -655.6886099814437, -88.319607403595, -144.5303037376143, -99.70386286871508, -0.03200000151991844, 0.25600001215934753, 1.008000047877431, 0.0, 0.0, 0.0, 0.0, 0.0, 1.76322789956907E9, 0.0, 2025-11-15 12:31:39.569
49.0, -803.9232846251689, -224.1303343945183, -269.2297879601829, -215.03115780232474, -0.03200000151991844, 0.25600001215934753, 1.008000047877431, 0.0, 0.0, 0.0, 0.0, 0.0, 1.76322789956907E9, 0.0, 2025-11-15 12:31:39.569
50.0, -662.6672632987611, -111.61544422758743, -177.45638294750825, -98.38741808431223, -0.03200000151991844, 0.25600001215934753, 1.008000047877431, 0.0, 0.0, 0.0, 0.0, 0.0, 1.7632278995847676E9, 0.0, 2025-11-15 12:31:39.584
50.0, -574.8170133396052, -21.711989192757756, -87.06674091843888, -36.54817231697962, -0.03200000151991844, 0.25600001215934753, 1.008000047877431, 0.0, 0.0, 0.0, 0.0, 0.0, 1.7632278995847676E9, 0.0, 2025-11-15 12:31:39.584
51.0, -780.9490791973658, -206.77719860011712, -254.11311233928427, -214.61976880719885, -0.03200000151991844, 0.25600001215934753, 1.008000047877431, 0.0, 0.0, 0.0, 0.0, 0.0, 1.7632278995854883E9, 0.0, 2025-11-15 12:31:39.585
51.0, -722.8160742861219, -168.618999352213, -222.2342051169835, -157.91540567902848, -0.03200000151991844, 0.25600001215934753, 1.008000047877431, 0.0, 0.0, 0.0, 0.0, 0.0, 1.7632278995854883E9, 0.0, 2025-11-15 12:31:39.585
52.0, -533.5285178287886, 15.313020368572325, -64.47774518607184, -7.137599065434188, -0.03200000151991844, 0.25600001215934753, 1.008000047877431, 0.0, 0.0, 0.0, 0.0, 0.0, 1.763227899599096E9, 0.0, 2025-11-15 12:31:39.599
52.0, -733.0147814652883, -155.95195820229128, -204.91098852222785, -164.70332409860566, -0.03200000151991844, 0.25600001215934753, 1.008000047877431, 0.0, 0.0, 0.0, 0.0, 0.0, 1.763227899599096E9, 0.0, 2025-11-15 12:31:39.599
53.0, -785.7810299401172, -224.00317779602483, -267.16536318464205, -215.0498573021032, -0.03200000151991844, 0.25600001215934753, 1.008000047877431, 0.0, 0.0, 0.0, 0.0, 0.0, 1.76322789961476E9, 0.0, 2025-11-15 12:31:39.614
53.0, -1017.9932881388813, 6.24002307606861, -66.85258165793493, -2.294428622815758, -0.03200000151991844, 0.25600001215934753, 1.008000047877431, 0.0, 0.0, 0.0, 0.0, 0.0, 1.76322789961476E9, 0.0, 2025-11-15 12:31:39.614
54.0, -1154.5744345206767, -94.36328573198989, -146.87522100983188, -110.13818374508992, -0.03200000151991844, 0.25600001215934753, 1.008000047877431, 0.0, 0.0, 0.0, 0.0, 0.0, 1.7632278996154752E9, 0.0, 2025-11-15 12:31:39.615
54.0, -1286.3909483589232, -228.40130014391616, -262.38577104127035, -196.80288541829214, -0.03200000151991844, 0.25600001215934753, 1.008000047877431, 0.0, 0.0, 0.0, 0.0, 0.0, 1.7632278996154752E9, 0.0, 2025-11-15 12:31:39.615
55.0, -1162.4731032270938, -121.99366660462692, -186.09929174510762, -126.4478874518536, -0.03200000151991844, 0.25600001215934753, 1.008000047877431, 0.0, 0.0, 0.0, 0.0, 0.0, 1.763227899629132E9, 0.0, 2025-11-15 12:31:39.629
55.0, -1052.224592433311, -10.873759121168405, -78.12090022442862, -31.372150778304785, -0.03200000151991844, 0.25600001215934753, 1.008000047877431, 0.0, 0.0, 0.0, 0.0, 0.0, 1.763227899629132E9, 0.0, 2025-11-15 12:31:39.629
56.0, -1266.2179279979318, -193.80722555378452, -238.6523659224622, -202.1920812544413, -0.03200000151991844, 0.25600001215934753, 1.008000047877431, 0.0, 0.0, 0.0, 0.0, 0.0, 1.7632278996447787E9, 0.0, 2025-11-15 12:31:39.644
56.0, -1222.7752501126379, -174.24380888557062, -222.17062681773677, -158.27069617481902, -0.03200000151991844, 0.25600001215934753, 1.008000047877431, 0.0, 0.0, 0.0, 0.0, 0.0, 1.7632278996447787E9, 0.0, 2025-11-15 12:31:39.644
57.0, -1023.4011834748089, 19.789680615533143, -56.22004608390853, 3.300461710896343, -0.03200000151991844, 0.25600001215934753, 1.008000047877431, 0.0, 0.0, 0.0, 0.0, 0.0, 1.763227899645507E9, 0.0, 2025-11-15 12:31:39.645
57.0, -1231.1862851129845, -156.11277390038595, -197.50598660996184, -159.9499112549238, -0.03200000151991844, 0.25600001215934753, 1.008000047877431, 0.0, 0.0, 0.0, 0.0, 0.0, 1.763227899645507E9, 0.0, 2025-11-15 12:31:39.645
58.0, -1267.2351807858795, -198.7476333952509, -237.9866637303494, -189.58113860385492, -0.03200000151991844, 0.25600001215934753, 1.008000047877431, 0.0, 0.0, 0.0, 0.0, 0.0, 1.7632278996591427E9, 0.0, 2025-11-15 12:31:39.659
58.0, -1057.8045231672004, -29.61439779913053, -99.08303947607055, -34.195775244850665, -0.03200000151991844, 0.25600001215934753, 1.008000047877431, 0.0, 0.0, 0.0, 0.0, 0.0, 1.7632278996591427E9, 0.0, 2025-11-15 12:31:39.659
59.0, -1113.4355350080878, -60.90988062834367, -112.1091110217385, -81.13899948867038, -0.03200000151991844, 0.25600001215934753, 1.008000047877431, 0.0, 0.0, 0.0, 0.0, 0.0, 1.763227899674795E9, 0.0, 2025-11-15 12:31:39.674
59.0, -1300.950378886424, -231.41191960824654, -273.32123851170763, -228.07966874772683, -0.03200000151991844, 0.25600001215934753, 1.008000047877431, 0.0, 0.0, 0.0, 0.0, 0.0, 1.763227899674795E9, 0.0, 2025-11-15 12:31:39.674
60.0, -1155.0344422152266, -108.24205446755514, -166.83132717339322, -97.48610219499096, -0.03200000151991844, 0.25600001215934753, 1.008000047877431, 0.0, 0.0, 0.0, 0.0, 0.0, 1.7632278996754737E9, 0.0, 2025-11-15 12:31:39.675
60.0, -1061.5556428227574, -6.6626317710615695, -76.2771295462735, -26.551419735420495, -0.03200000151991844, 0.25600001215934753, 1.008000047877431, 0.0, 0.0, 0.0, 0.0, 0.0, 1.7632278996754737E9, 0.0, 2025-11-15 12:31:39.675
61.0, -1258.1397440936416, -196.51117322174832, -246.04614813486114, -215.0797765017487, -0.03200000151991844, 0.2400000113993883, 1.008000047877431, 0.0, 0.0, 0.0, 0.0, 0.0, 1.7632278996891255E9, 0.0, 2025-11-15 12:31:39.689
61.0, -1230.4308253219351, -180.36976501299068, -232.54510929482058, -176.8056403552182, -0.03200000151991844, 0.2400000113993883, 1.008000047877431, 0.0, 0.0, 0.0, 0.0, 0.0, 1.7632278996891255E9, 0.0, 2025-11-15 12:31:39.689
62.0, -990.1646925685927, 37.27745280833915, -32.09395146975294, 22.557206582743675, -0.03200000151991844, 0.2400000113993883, 1.008000047877431, 0.0, 0.0, 0.0, 0.0, 0.0, 1.7632278997047608E9, 0.0, 2025-11-15 12:31:39.704
62.0, -1213.560136621818, -148.5319966902025, -192.1841089730151, -149.85592127451673, -0.03200000151991844, 0.2400000113993883, 1.008000047877431, 0.0, 0.0, 0.0, 0.0, 0.0, 1.7632278997047608E9, 0.0, 2025-11-15 12:31:39.704
63.0, -1282.6959272027016, -217.88470146851614, -263.23098843125626, -211.36231594579294, -0.03200000151991844, 0.2400000113993883, 1.008000047877431, 0.0, 0.0, 0.0, 0.0, 0.0, 1.763227899705474E9, 0.0, 2025-11-15 12:31:39.705
