%OpenBCI Raw EXG Data
%Number of channels = 4
%Sample Rate = 200 Hz
%Board = OpenBCI_GUI$BoardGanglionBLE
Sample Index, EXG Channel 0, EXG Channel 1, EXG Channel 2, EXG Channel 3, Accel Channel 0, Accel Channel 1, Accel Channel 2, Other, Other, Other, Other, Other, Timestamp, Marker Channel, Timestamp (Formatted)
4.0, -128.30474777985364, -89.94833383429796, -33.85357439890504, -20.59188915602863, 0.0, 0.0, 0.0, 0.0, 0.0, 0.0, 0.0, 0.0, 1.7632262311031544E9, 0.0, 2025-11-15 12:03:51.103
4.0, -0.044878799468278885, -38.28909574635327, 31.097268131561577, 0.5161061938852072, 0.0, 0.0, 0.0, 0.0, 0.0, 0.0, 0.0, 0.0, 1.7632262311031544E9, 0.0, 2025-11-15 12:03:51.103
0.0, -156.3521274975501, -83.59237385960296, -132.3251402322203, -108.06440921965986, 0.0, 0.0, 0.0, 0.0, 0.0, 0.0, 0.0, 0.0, 1.763226231133689E9, 0.0, 2025-11-15 12:03:51.133
1.0, 5.2115505882538855, 73.37496718065813, 21.078076150268316, 33.199091906659305, 0.0, 0.2240000106394291, 0.0, 0.0, 0.0, 0.0, 0.0, 0.0, 1.7632262311470315E9, 0.0, 2025-11-15 12:03:51.147
1.0, 244.52961870282888, -147.4997843024321, -159.17762191407382, -133.20027682185173, 0.0, 0.2240000106394291, 0.0, 0.0, 0.0, 0.0, 0.0, 0.0, 1.7632262311470315E9, 0.0, 2025-11-15 12:03:51.147
2.0, 262.8700880855322, -144.56022293725982, -178.80087698157877, -156.68684854358435, -0.01600000075995922, 0.2240000106394291, 0.0, 0.0, 0.0, 0.0, 0.0, 0.0, 1.7632262311639645E9, 0.0, 2025-11-15 12:03:51.163
2.0, 29.494721000548452, 78.38643312128261, 12.741839149035513, 22.54037703294307, -0.01600000075995922, 0.2240000106394291, 0.0, 0.0, 0.0, 0.0, 0.0, 0.0, 1.7632262311639645E9, 0.0, 2025-11-15 12:03:51.163
3.0, -162.84459382062778, -72.40633309213445, -87.2256866665557, -66.16257011611015, -0.01600000075995922, 0.2240000106394291, 0.0, 0.0, 0.0, 0.0, 0.0, 0.0, 1.7632262311645305E9, 0.0, 2025-11-15 12:03:51.164
3.0, -254.23278913786635, -169.1725045456551, -189.47455145511776, -164.91836834605783, -0.01600000075995922, 0.2240000106394291, 0.0, 0.0, 0.0, 0.0, 0.0, 0.0, 1.7632262311645305E9, 0.0, 2025-11-15 12:03:51.164
4.0, -48.60186987416819, 8.779415145982057, -56.07979983557016, -39.998230026103556, -0.01600000075995922, 0.2240000106394291, 0.0, 0.0, 0.0, 0.0, 0.0, 0.0, 1.76322623117687E9, 0.0, 2025-11-15 12:03:51.176
4.0, -80.55931499553844, 6.210103876423091, -21.863455140963197, 2.5169526701793075, -0.01600000075995922, 0.2240000106394291, 0.0, 0.0, 0.0, 0.0, 0.0, 0.0, 1.76322623117687E9, 0.0, 2025-11-15 12:03:51.176
5.0, -271.71682143071666, -170.9526969245635, -185.7196918996051, -163.46354726329446, -0.01600000075995922, 0.2240000106394291, 0.0, 0.0, 0.0, 0.0, 0.0, 0.0, 1.7632262311926231E9, 0.0, 2025-11-15 12:03:51.192
5.0, -129.2677720184438, -62.734951806720346, -115.47315103188157, -94.10336268506944, -0.01600000075995922, 0.2240000106394291, 0.0, 0.0, 0.0, 0.0, 0.0, 0.0, 1.7632262311926231E9, 0.0, 2025-11-15 12:03:51.192
6.0, 20.088872611988336, 84.243116451893, 30.513843738473952, 38.453651344403625, -0.01600000075995922, 0.2240000106394291, 0.0, 0.0, 0.0, 0.0, 0.0, 0.0, 1.763226231193412E9, 0.0, 2025-11-15 12:03:51.193
6.0, 261.8752746973187, -132.4915657802485, -146.82473236043006, -121.10918026510626, -0.01600000075995922, 0.2240000106394291, 0.0, 0.0, 0.0, 0.0, 0.0, 0.0, 1.763226231193412E9, 0.0, 2025-11-15 12:03:51.193
7.0, 280.2120041800663, -122.88002289412543, -165.90196203440428, -138.12198516353965, -0.01600000075995922, 0.2240000106394291, 0.0, 0.0, 0.0, 0.0, 0.0, 0.0, 1.763226231206868E9, 0.0, 2025-11-15 12:03:51.206
7.0, 43.1864947383292, 92.96830304851755, 32.15191991906613, 40.98556361440569, -0.01600000075995922, 0.2240000106394291, 0.0, 0.0, 0.0, 0.0, 0.0, 0.0, 1.763226231206868E9, 0.0, 2025-11-15 12:03:51.206
8.0, -155.99683700175956, -60.20677943667397, -74.71946121472865, -59.793520491570234, -0.01600000075995922, 0.2240000106394291, 0.0, 0.0, 0.0, 0.0, 0.0, 0.0, 1.7632262312225878E9, 0.0, 2025-11-15 12:03:51.222
8.0, -245.79557483782992, -158.01264307787642, -182.92598663270473, -154.58128486853093, -0.01600000075995922, 0.2240000106394291, 0.0, 0.0, 0.0, 0.0, 0.0, 0.0, 1.7632262312225878E9, 0.0, 2025-11-15 12:03:51.222
9.0, -46.48134659929201, 10.959776820149273, -49.23952281661332, -41.707364305853844, -0.01600000075995922, 0.2240000106394291, 0.0, 0.0, 0.0, 0.0, 0.0, 0.0, 1.7632262312233396E9, 0.0, 2025-11-15 12:03:51.223
9.0, -68.78610993502662, 11.288888016249985, -8.612989597953856, -3.7585994554683566, -0.01600000075995922, 0.2240000106394291, 0.0, 0.0, 0.0, 0.0, 0.0, 0.0, 1.7632262312233396E9, 0.0, 2025-11-15 12:03:51.223
10.0, -245.14483224553987, -150.13641377119347, -165.87578273471445, -146.24504786729813, -0.01600000075995922, 0.2240000106394291, 0.5120000243186951, 0.0, 0.0, 0.0, 0.0, 0.0, 1.7632262312368653E9, 0.0, 2025-11-15 12:03:51.236
10.0, -148.50581739051268, -70.69719881238416, -116.36698712129146, -98.3818082343787, -0.01600000075995922, 0.2240000106394291, 0.5120000243186951, 0.0, 0.0, 0.0, 0.0, 0.0, 1.7632262312368653E9, 0.0, 2025-11-15 12:03:51.236
11.0, 17.366225444246083, 76.56884174281731, 26.650527084246278, 35.233597482554615, -0.01600000075995922, 0.144000006839633, 0.5120000243186951, 0.0, 0.0, 0.0, 0.0, 0.0, 1.7632262312526212E9, 0.0, 2025-11-15 12:03:51.252
11.0, 262.39886069111526, -140.7118658828549, -145.38113097753376, -113.17311255913228, -0.01600000075995922, 0.144000006839633, 0.5120000243186951, 0.0, 0.0, 0.0, 0.0, 0.0, 1.7632262312526212E9, 0.0, 2025-11-15 12:03:51.252
12.0, 281.2367367679253, -136.16414753673598, -164.27136565372348, -136.05382048804313, -0.03200000151991844, 0.144000006839633, 0.5120000243186951, 0.0, 0.0, 0.0, 0.0, 0.0, 1.7632262312533145E9, 0.0, 2025-11-15 12:03:51.253
12.0, 519.5506417443976, 84.41889174981043, 17.25963829550892, 28.382100763730705, -0.03200000151991844, 0.144000006839633, 0.5120000243186951, 0.0, 0.0, 0.0, 0.0, 0.0, 1.7632262312533145E9, 0.0, 2025-11-15 12:03:51.253
13.0, 320.0868175076321, -73.6816389770247, -84.49555969890207, -75.91622920054942, -0.03200000151991844, 0.144000006839633, 0.5120000243186951, 0.0, 0.0, 0.0, 0.0, 0.0, 1.7632262312668846E9, 0.0, 2025-11-15 12:03:51.266
13.0, 238.9983066683635, -159.82275465643033, -176.76263150572777, -148.0738589456305, -0.03200000151991844, 0.144000006839633, 0.5120000243186951, 0.0, 0.0, 0.0, 0.0, 0.0, 1.7632262312668846E9, 0.0, 2025-11-15 12:03:51.266
14.0, 450.27647486515343, 13.035421295557171, -47.736083034425974, -39.5382223315537, -0.03200000151991844, 0.144000006839633, 0.5120000243186951, 0.0, 0.0, 0.0, 0.0, 0.0, 1.7632262312825916E9, 0.0, 2025-11-15 12:03:51.282
14.0, 421.58396240510046, 4.564547895919532, -23.924140016548336, -7.075890716165304, -0.03200000151991844, 0.144000006839633, 0.5120000243186951, 0.0, 0.0, 0.0, 0.0, 0.0, 1.7632262312825916E9, 0.0, 2025-11-15 12:03:51.282
15.0, 225.65060372650623, -171.43888391880319, -184.65008051227778, -158.39598282333463, -0.03200000151991844, 0.144000006839633, 0.5120000243186951, 0.0, 0.0, 0.0, 0.0, 0.0, 1.7632262312833233E9, 0.0, 2025-11-15 12:03:51.283
15.0, 345.7612307034433, -73.18423228291795, -115.29737573396415, -95.64794136676937, -0.03200000151991844, 0.144000006839633, 0.5120000243186951, 0.0, 0.0, 0.0, 0.0, 0.0, 1.7632262312833233E9, 0.0, 2025-11-15 12:03:51.283
16.0, 516.9439314752817, 85.27158893970773, 40.55921501945704, 47.0591611424461, -0.03200000151991844, 0.144000006839633, 0.5120000243186951, 0.0, 0.0, 0.0, 0.0, 0.0, 1.7632262312968588E9, 0.0, 2025-11-15 12:03:51.296
16.0, 742.3944505541585, -136.5605769320391, -144.52843378763646, -119.11955348867923, -0.03200000151991844, 0.144000006839633, 0.5120000243186951, 0.0, 0.0, 0.0, 0.0, 0.0, 1.7632262312968588E9, 0.0, 2025-11-15 12:03:51.296
17.0, 759.1080634561367, -138.11263541365042, -170.12804898433387, -146.78359346091747, -0.03200000151991844, 0.144000006839633, 0.5120000243186951, 0.0, 0.0, 0.0, 0.0, 0.0, 1.7632262313125925E9, 0.0, 2025-11-15 12:03:51.312
17.0, 528.2683485411108, 82.30210837488994, 21.27255094796419, 22.753551330417395, -0.03200000151991844, 0.144000006839633, 0.5120000243186951, 0.0, 0.0, 0.0, 0.0, 0.0, 1.7632262313125925E9, 0.0, 2025-11-15 12:03:51.312
18.0, 324.13338925968856, -68.50935733830556, -83.05195831600577, -67.62861089874059, -0.03200000151991844, 0.144000006839633, 0.5120000243186951, 0.0, 0.0, 0.0, 0.0, 0.0, 1.7632262313132958E9, 0.0, 2025-11-15 12:03:51.313
18.0, 243.13463601935655, -158.82420136826113, -177.87338179256767, -149.09485163353384, -0.03200000151991844, 0.144000006839633, 0.5120000243186951, 0.0, 0.0, 0.0, 0.0, 0.0, 1.7632262313132958E9, 0.0, 2025-11-15 12:03:51.313
19.0, 449.8875252697617, 6.6514120711945, -47.78470173384994, -39.02959593757987, -0.03200000151991844, 0.144000006839633, 0.5120000243186951, 0.0, 0.0, 0.0, 0.0, 0.0, 1.763226231326923E9, 0.0, 2025-11-15 12:03:51.326
19.0, 426.9394991416484, 8.450303949881345, -14.836183124221861, -8.960800293833017, -0.03200000151991844, 0.144000006839633, 0.5120000243186951, 0.0, 0.0, 0.0, 0.0, 0.0, 1.763226231326923E9, 0.0, 2025-11-15 12:03:51.326
20.0, 228.16007659677416, -164.92023829603568, -170.4870793800801, -149.31924563087523, -0.03200000151991844, 0.144000006839633, 0.7680000364780426, 0.0, 0.0, 0.0, 0.0, 0.0, 1.7632262313425913E9, 0.0, 2025-11-15 12:03:51.342
20.0, 346.4269328955561, -69.7547440235503, -117.54131570737809, -93.86774898786098, -0.03200000151991844, 0.144000006839633, 0.7680000364780426, 0.0, 0.0, 0.0, 0.0, 0.0, 1.7632262313425913E9, 0.0, 2025-11-15 12:03:51.342
21.0, 518.1818383606151, 88.01667550718412, 36.57622156664729, 43.88024618010968, -0.03200000151991844, 0.17600000835955143, 0.7680000364780426, 0.0, 0.0, 0.0, 0.0, 0.0, 1.763226231343297E9, 0.0, 2025-11-15 12:03:51.343
21.0, 749.6872554677539, -136.87472852831706, -142.23961501475424, -125.33526721503586, -0.03200000151991844, 0.17600000835955143, 0.7680000364780426, 0.0, 0.0, 0.0, 0.0, 0.0, 1.763226231343297E9, 0.0, 2025-11-15 12:03:51.343
22.0, 767.5190984564833, -134.62330875499174, -163.49720636289567, -138.48849535919726, -0.03200000151991844, 0.17600000835955143, 0.7680000364780426, 0.0, 0.0, 0.0, 0.0, 0.0, 1.7632262313569307E9, 0.0, 2025-11-15 12:03:51.356
22.0, 1009.6140422881581, 85.1706116409041, 23.265917624346912, 25.78661019448191, -0.03200000151991844, 0.17600000835955143, 0.7680000364780426, 0.0, 0.0, 0.0, 0.0, 0.0, 1.7632262313569307E9, 0.0, 2025-11-15 12:03:51.356
23.0, 819.3316724426113, -68.1241476428695, -77.69268167950213, -60.50784138310701, -0.03200000151991844, 0.17600000835955143, 0.7680000364780426, 0.0, 0.0, 0.0, 0.0, 0.0, 1.7632262313726144E9, 0.0, 2025-11-15 12:03:51.372
23.0, 738.7031692978926, -152.4252325440757, -171.53425136767328, -148.12247764505446, -0.03200000151991844, 0.17600000835955143, 0.7680000364780426, 0.0, 0.0, 0.0, 0.0, 0.0, 1.7632262313726144E9, 0.0, 2025-11-15 12:03:51.372
24.0, 946.2227380392142, 21.15848399931565, -35.83946127537638, -28.471858362667263, -0.03200000151991844, 0.17600000835955143, 0.7680000364780426, 0.0, 0.0, 0.0, 0.0, 0.0, 1.7632262313733027E9, 0.0, 2025-11-15 12:03:51.373
24.0, 912.298105541151, 10.421231226529926, -14.215359731577337, 4.917968441732228, -0.03200000151991844, 0.17600000835955143, 0.7680000364780426, 0.0, 0.0, 0.0, 0.0, 0.0, 1.7632262313733027E9, 0.0, 2025-11-15 12:03:51.373
25.0, 726.6644313405268, -157.79198898049071, -175.66310091875494, -143.20450920332223, -0.03200000151991844, 0.17600000835955143, 0.7680000364780426, 0.0, 0.0, 0.0, 0.0, 0.0, 1.763226231386963E9, 0.0, 2025-11-15 12:03:51.386
25.0, 841.4457008806057, -72.87382058659568, -118.37531339749694, -93.77051158901304, -0.03200000151991844, 0.17600000835955143, 0.7680000364780426, 0.0, 0.0, 0.0, 0.0, 0.0, 1.763226231386963E9, 0.0, 2025-11-15 12:03:51.386
26.0, 997.8857160271145, 77.84414762770757, 34.50805689115077, 40.5741746192798, -0.03200000151991844, 0.17600000835955143, 0.7680000364780426, 0.0, 0.0, 0.0, 0.0, 0.0, 1.763226231402613E9, 0.0, 2025-11-15 12:03:51.402
26.0, 1234.4063389748335, -136.7849709293805, -140.7660944322124, -115.45445153210312, -0.03200000151991844, 0.17600000835955143, 0.7680000364780426, 0.0, 0.0, 0.0, 0.0, 0.0, 1.763226231402613E9, 0.0, 2025-11-15 12:03:51.402
27.0, 1257.4179434021935, -134.59338955534622, -164.65283544920385, -133.75378201529384, -0.03200000151991844, 0.17600000835955143, 0.7680000364780426, 0.0, 0.0, 0.0, 0.0, 0.0, 1.763226231403303E9, 0.0, 2025-11-15 12:03:51.403
27.0, 1018.8029764792882, 81.66632538242266, 17.68598689045757, 34.369680592790246, -0.03200000151991844, 0.17600000835955143, 0.7680000364780426, 0.0, 0.0, 0.0, 0.0, 0.0, 1.763226231403303E9, 0.0, 2025-11-15 12:03:51.403
28.0, 808.5944196698256, -83.84668705658987, -95.17297407239676, -72.10153124574572, -0.03200000151991844, 0.17600000835955143, 0.7680000364780426, 0.0, 0.0, 0.0, 0.0, 0.0, 1.7632262314169703E9, 0.0, 2025-11-15 12:03:51.416
28.0, 730.4828691952862, -164.66592509904876, -183.54307012539357, -153.90810287650675, -0.03200000151991844, 0.17600000835955143, 0.7680000364780426, 0.0, 0.0, 0.0, 0.0, 0.0, 1.7632262314169703E9, 0.0, 2025-11-15 12:03:51.416
29.0, 942.232264786493, 15.52245476609096, -46.834767145104706, -21.848495541140437, -0.03200000151991844, 0.17600000835955143, 0.7680000364780426, 0.0, 0.0, 0.0, 0.0, 0.0, 1.763226231432621E9, 0.0, 2025-11-15 12:03:51.432
29.0, 911.0340193561278, 6.0156290787272155, -19.522277768701315, -3.2911119610071182, -0.03200000151991844, 0.17600000835955143, 0.7680000364780426, 0.0, 0.0, 0.0, 0.0, 0.0, 1.763226231432621E9, 0.0, 2025-11-15 12:03:51.432
30.0, 724.5588676654734, -162.45564422523603, -171.9755595624447, -137.66571736894548, -0.03200000151991844, 0.17600000835955143, 0.8960000425577164, 0.0, 0.0, 0.0, 0.0, 0.0, 1.7632262314333377E9, 0.0, 2025-11-15 12:03:51.433
30.0, 836.2173207425512, -76.18363204738125, -117.67595210578293, -96.0443707620725, -0.03200000151991844, 0.17600000835955143, 0.8960000425577164, 0.0, 0.0, 0.0, 0.0, 0.0, 1.7632262314333377E9, 0.0, 2025-11-15 12:03:51.433
31.0, 994.9910334614106, 75.11776056000963, 36.7220776649192, 40.20766442362219, -0.03200000151991844, 0.17600000835955143, 0.8960000425577164, 0.0, 0.0, 0.0, 0.0, 0.0, 1.7632262314469264E9, 0.0, 2025-11-15 12:03:51.446
31.0, 1234.6793516715989, -139.14484780142084, -148.23467464372516, -115.63396672997624, -0.03200000151991844, 0.17600000835955143, 0.8960000425577164, 0.0, 0.0, 0.0, 0.0, 0.0, 1.7632262314469264E9, 0.0, 2025-11-15 12:03:51.446
32.0, 1252.3653385620564, -139.3430624990724, -174.0063252383843, -142.29945341404527, -0.03200000151991844, 0.17600000835955143, 0.8960000425577164, 0.0, 0.0, 0.0, 0.0, 0.0, 1.763226231462604E9, 0.0, 2025-11-15 12:03:51.462
32.0, 1489.964922646992, 63.77090409444645, 5.355536736547947, 21.2688110480085, -0.03200000151991844, 0.17600000835955143, 0.8960000425577164, 0.0, 0.0, 0.0, 0.0, 0.0, 1.763226231462604E9, 0.0, 2025-11-15 12:03:51.462
33.0, 1298.2950499178842, -89.2807616922073, -87.63707566168159, -64.06448624096811, -0.03200000151991844, 0.17600000835955143, 0.8960000425577164, 0.0, 0.0, 0.0, 0.0, 0.0, 1.76322623146329E9, 0.0, 2025-11-15 12:03:51.463
33.0, 1220.9015602348372, -169.2136434451677, -183.77868382260203, -151.57440530415624, -0.03200000151991844, 0.17600000835955143, 0.8960000425577164, 0.0, 0.0, 0.0, 0.0, 0.0, 1.76322623146329E9, 0.0, 2025-11-15 12:03:51.463
34.0, 1417.1341109098867, 1.9166987272910774, -51.77891488652676, -28.786009958945215, -0.03200000151991844, 0.17600000835955143, 0.8960000425577164, 0.0, 0.0, 0.0, 0.0, 0.0, 1.7632262314769645E9, 0.0, 2025-11-15 12:03:51.476
34.0, 1401.811740791425, 8.457783749792725, -14.660407826304436, 3.706240856088698, -0.03200000151991844, 0.17600000835955143, 0.8960000425577164, 0.0, 0.0, 0.0, 0.0, 0.0, 1.7632262314769645E9, 0.0, 2025-11-15 12:03:51.476
35.0, 1215.5161042986438, -159.70681775780395, -173.94648683909327, -145.74016137328, -0.03200000151991844, 0.17600000835955143, 0.8960000425577164, 0.0, 0.0, 0.0, 0.0, 0.0, 1.763226231492596E9, 0.0, 2025-11-15 12:03:51.492
35.0, 1317.6004134891555, -77.30186213413253, -120.76510946918279, -106.06356274336576, -0.03200000151991844, 0.17600000835955143, 0.8960000425577164, 0.0, 0.0, 0.0, 0.0, 0.0, 1.763226231492596E9, 0.0, 2025-11-15 12:03:51.492
36.0, 1488.9401900591329, 76.64363974193111, 30.835475134663284, 38.782762540504336, -0.03200000151991844, 0.17600000835955143, 0.8960000425577164, 0.0, 0.0, 0.0, 0.0, 0.0, 1.7632262314932988E9, 0.0, 2025-11-15 12:03:51.493
36.0, 1719.9855994717218, -139.92648689216003, -149.3267254307866, -129.23224296886474, -0.03200000151991844, 0.17600000835955143, 0.8960000425577164, 0.0, 0.0, 0.0, 0.0, 0.0, 1.7632262314932988E9, 0.0, 2025-11-15 12:03:51.493
37.0, 1746.613687156234, -140.80162348179147, -172.97785275056958, -146.2562675671652, -0.03200000151991844, 0.17600000835955143, 0.8960000425577164, 0.0, 0.0, 0.0, 0.0, 0.0, 1.7632262315069883E9, 0.0, 2025-11-15 12:03:51.506
37.0, 1502.8600976942107, 76.41924574458972, 13.534697939641774, 23.142500925809145, -0.03200000151991844, 0.17600000835955143, 0.8960000425577164, 0.0, 0.0, 0.0, 0.0, 0.0, 1.7632262315069883E9, 0.0, 2025-11-15 12:03:51.506
38.0, 1291.181760202162, -84.81158124515787, -98.05643693823367, -72.44560204166919, -0.03200000151991844, 0.17600000835955143, 0.8960000425577164, 0.0, 0.0, 0.0, 0.0, 0.0, 1.763226231522596E9, 0.0, 2025-11-15 12:03:51.522
38.0, 1228.538435944356, -158.07622137712315, -179.84430906921625, -138.24540186207741, -0.03200000151991844, 0.17600000835955143, 0.8960000425577164, 0.0, 0.0, 0.0, 0.0, 0.0, 1.763226231522596E9, 0.0, 2025-11-15 12:03:51.522
39.0, 1414.5311405407265, 3.147125812713057, -58.70146970450878, -36.030196173116565, -0.03200000151991844, 0.17600000835955143, 0.8960000425577164, 0.0, 0.0, 0.0, 0.0, 0.0, 1.763226231523301E9, 0.0, 2025-11-15 12:03:51.523
39.0, 1405.6937569454312, 12.26126200472936, -14.817483624443412, 1.7240938795730472, -0.03200000151991844, 0.17600000835955143, 0.8960000425577164, 0.0, 0.0, 0.0, 0.0, 0.0, 1.763226231523301E9, 0.0, 2025-11-15 12:03:51.523
40.0, 1222.532156615518, -154.58315481850877, -169.23795279487967, -142.3256327137351, -0.03200000151991844, 0.17600000835955143, 0.9600000455975533, 0.0, 0.0, 0.0, 0.0, 0.0, 1.7632262315369923E9, 0.0, 2025-11-15 12:03:51.536
40.0, 1320.573633953929, -74.69889176497236, -119.54216218367219, -101.77763739414513, -0.03200000151991844, 0.17600000835955143, 0.9600000455975533, 0.0, 0.0, 0.0, 0.0, 0.0, 1.7632262315369923E9, 0.0, 2025-11-15 12:03:51.536
41.0, 1490.350132342428, 83.51009606057778, 38.5359291434288, 42.043955301865935, -0.03200000151991844, 0.19200000911951065, 0.9600000455975533, 0.0, 0.0, 0.0, 0.0, 0.0, 1.7632262315526052E9, 0.0, 2025-11-15 12:03:51.552
41.0, 1727.72719238, -129.76517871255055, -131.26300864480436, -112.82156196329743, -0.03200000151991844, 0.19200000911951065, 0.9600000455975533, 0.0, 0.0, 0.0, 0.0, 0.0, 1.7632262315526052E9, 0.0, 2025-11-15 12:03:51.552
42.0, 1756.3673462406732, -128.2243399308063, -154.67852226737887, -133.48824911843985, -0.03200000151991844, 0.19200000911951065, 0.9600000455975533, 0.0, 0.0, 0.0, 0.0, 0.0, 1.7632262315533326E9, 0.0, 2025-11-15 12:03:51.553
42.0, 1972.0959953847341, 68.44577903905883, 8.01834550499916, 12.90265484713018, -0.03200000151991844, 0.19200000911951065, 0.9600000455975533, 0.0, 0.0, 0.0, 0.0, 0.0, 1.7632262315533326E9, 0.0, 2025-11-15 12:03:51.553
43.0, 1784.375457008835, -85.49972283700481, -87.92130805831403, -66.54030001163483, -0.03200000151991844, 0.19200000911951065, 0.9600000455975533, 0.0, 0.0, 0.0, 0.0, 0.0, 1.7632262315669389E9, 0.0, 2025-11-15 12:03:51.566
43.0, 1709.887869591359, -167.07068077055737, -179.77699087001383, -150.06348572205752, -0.03200000151991844, 0.19200000911951065, 0.9600000455975533, 0.0, 0.0, 0.0, 0.0, 0.0, 1.7632262315669389E9, 0.0, 2025-11-15 12:03:51.566
44.0, 1917.9534637262113, 5.4920430849306285, -50.19693720526993, -36.99135046172887, -0.03200000151991844, 0.19200000911951065, 0.9600000455975533, 0.0, 0.0, 0.0, 0.0, 0.0, 1.7632262315825968E9, 0.0, 2025-11-15 12:03:51.582
44.0, 1905.01714977948, 17.426063843537122, -0.5871642930433154, 13.635675238445401, -0.03200000151991844, 0.19200000911951065, 0.9600000455975533, 0.0, 0.0, 0.0, 0.0, 0.0, 1.7632262315825968E9, 0.0, 2025-11-15 12:03:51.582
45.0, 1699.4011901156045, -169.3221005438827, -172.95167345087975, -149.4763214290142, -0.03200000151991844, 0.19200000911951065, 0.9600000455975533, 0.0, 0.0, 0.0, 0.0, 0.0, 1.76322623158331E9, 0.0, 2025-11-15 12:03:51.583
45.0, 1809.2944104135968, -80.35736039793119, -118.47629069630057, -97.34585594665259, -0.03200000151991844, 0.19200000911951065, 0.9600000455975533, 0.0, 0.0, 0.0, 0.0, 0.0, 1.76322623158331E9, 0.0, 2025-11-15 12:03:51.583
46.0, 1980.757603682112, 76.34444774547592, 28.086648667231202, 35.14383988361806, -0.03200000151991844, 0.19200000911951065, 0.9600000455975533, 0.0, 0.0, 0.0, 0.0, 0.0, 1.76322623159695E9, 0.0, 2025-11-15 12:03:51.596
46.0, 1736.5570961753838, -133.99874546239153, -136.94391667749733, -119.83013448026031, -0.03200000151991844, 0.19200000911951065, 0.9600000455975533, 0.0, 0.0, 0.0, 0.0, 0.0, 1.76322623159695E9, 0.0, 2025-11-15 12:03:51.596
47.0, 1739.9454455352388, -143.83842224581167, -168.13468230795115, -149.31924563087523, -0.03200000151991844, 0.19200000911951065, 0.9600000455975533, 0.0, 0.0, 0.0, 0.0, 0.0, 1.7632262316126893E9, 0.0, 2025-11-15 12:03:51.612
47.0, 1502.1420369027182, 73.59562127804384, 14.750165425240993, 21.093035750091076, -0.03200000151991844, 0.19200000911951065, 0.9600000455975533, 0.0, 0.0, 0.0, 0.0, 0.0, 1.7632262316126893E9, 0.0, 2025-11-15 12:03:51.612
48.0, 1307.3007290111855, -77.48885713191703, -87.33414376527071, -62.5124277593568, -0.03200000151991844, 0.19200000911951065, 0.9600000455975533, 0.0, 0.0, 0.0, 0.0, 0.0, 1.763226231613314E9, 0.0, 2025-11-15 12:03:51.613
48.0, 1227.887693352066, -158.0911809769459, -179.0140512790531, -150.19812212046236, -0.03200000151991844, 0.19200000911951065, 0.9600000455975533, 0.0, 0.0, 0.0, 0.0, 0.0, 1.763226231613314E9, 0.0, 2025-11-15 12:03:51.613
49.0, 1436.5516714798287, 9.42267793836072, -54.21358975768089, -43.77926888130605, -0.03200000151991844, 0.19200000911951065, 0.9600000455975533, 0.0, 0.0, 0.0, 0.0, 0.0, 1.7632262316269217E9, 0.0, 2025-11-15 12:03:51.626
49.0, 1409.1868235040456, 13.48046939028427, -14.032104633748531, -3.7698191553354263, -0.03200000151991844, 0.19200000911951065, 0.9600000455975533, 0.0, 0.0, 0.0, 0.0, 0.0, 1.7632262316269217E9, 0.0, 2025-11-15 12:03:51.626
50.0, 1216.9896248811856, -165.1371524934657, -174.7468254296109, -146.9930278584361, -0.03200000151991844, 0.19200000911951065, 0.9920000471174717, 0.0, 0.0, 0.0, 0.0, 0.0, 1.7632262316426332E9, 0.0, 2025-11-15 12:03:51.642
50.0, 1321.5908867418766, -80.30874169850722, -126.84992669709027, -105.83168894611299, -0.03200000151991844, 0.19200000911951065, 0.9920000471174717, 0.0, 0.0, 0.0, 0.0, 0.0, 1.7632262316426332E9, 0.0, 2025-11-15 12:03:51.642
51.0, 1498.5068541457877, 86.55811452446505, 38.59950744267553, 50.00620230752975, -0.03200000151991844, 0.19200000911951065, 0.9920000471174717, 0.0, 0.0, 0.0, 0.0, 0.0, 1.7632262316433032E9, 0.0, 2025-11-15 12:03:51.643
51.0, 1732.4132870244794, -128.8227239237167, -133.14417832251638, -106.19071934185922, -0.03200000151991844, 0.19200000911951065, 0.9920000471174717, 0.0, 0.0, 0.0, 0.0, 0.0, 1.7632262316433032E9, 0.0, 2025-11-15 12:03:51.643
52.0, 1761.1506782840006, -124.64899557316676, -148.34687164239585, -120.52201597206295, -0.03200000151991844, 0.19200000911951065, 0.9920000471174717, 0.0, 0.0, 0.0, 0.0, 0.0, 1.763226231656948E9, 0.0, 2025-11-15 12:03:51.656
52.0, 1997.1533250878565, 83.18098486447707, 25.857668293640018, 34.88952668663114, -0.03200000151991844, 0.19200000911951065, 0.9920000471174717, 0.0, 0.0, 0.0, 0.0, 0.0, 1.763226231656948E9, 0.0, 2025-11-15 12:03:51.656
53.0, 1811.2354184905998, -59.68319344287738, -62.83405915554613, -40.98182371445, -0.03200000151991844, 0.19200000911951065, 0.9920000471174717, 0.0, 0.0, 0.0, 0.0, 0.0, 1.7632262316725955E9, 0.0, 2025-11-15 12:03:51.672
53.0, 1736.0409899814986, -141.42992667434737, -157.62182353250682, -138.85126565489918, -0.03200000151991844, 0.19200000911951065, 0.9920000471174717, 0.0, 0.0, 0.0, 0.0, 0.0, 1.7632262316725955E9, 0.0, 2025-11-15 12:03:51.672
54.0, 1940.426522559952, 25.803439744282514, -26.93101958092302, -19.170727172866464, -0.03200000151991844, 0.19200000911951065, 0.9920000471174717, 0.0, 0.0, 0.0, 0.0, 0.0, 1.7632262316732988E9, 0.0, 2025-11-15 12:03:51.673
54.0, 1909.261936229188, 17.728995739948004, -1.6717352801933885, 4.5701577458530664, -0.03200000151991844, 0.19200000911951065, 0.9920000471174717, 0.0, 0.0, 0.0, 0.0, 0.0, 1.7632262316732988E9, 0.0, 2025-11-15 12:03:51.673
55.0, 1726.1601742985658, -142.80246995808557, -150.30657921917737, -126.44975740183145, -0.03200000151991844, 0.19200000911951065, 0.9920000471174717, 0.0, 0.0, 0.0, 0.0, 0.0, 1.763226231686918E9, 0.0, 2025-11-15 12:03:51.686
55.0, 1829.4636908746324, -64.83677558181807, -106.02242384385318, -92.31195060629398, -0.03200000151991844, 0.19200000911951065, 0.9920000471174717, 0.0, 0.0, 0.0, 0.0, 0.0, 1.763226231686918E9, 0.0, 2025-11-15 12:03:51.686
56.0, 1991.176964958664, 92.6204923526384, 47.82584063336253, 55.45523654296994, -0.03200000151991844, 0.19200000911951065, 0.9920000471174717, 0.0, 0.0, 0.0, 0.0, 0.0, 1.7632262317025828E9, 0.0, 2025-11-15 12:03:51.702
56.0, 2228.0079996027052, -133.83044996438548, -145.1081182807684, -121.55048845987767, -0.03200000151991844, 0.19200000911951065, 0.9920000471174717, 0.0, 0.0, 0.0, 0.0, 0.0, 1.7632262317025828E9, 0.0, 2025-11-15 12:03:51.702
57.0, 2245.9370799902827, -131.3770755934529, -160.7483798954636, -138.48475545924157, -0.03200000151991844, 0.19200000911951065, 0.9920000471174717, 0.0, 0.0, 0.0, 0.0, 0.0, 1.763226231703287E9, 0.0, 2025-11-15 12:03:51.703
57.0, 2482.149161191657, 82.20113107608631, 21.100515550002456, 27.622901072725654, -0.03200000151991844, 0.19200000911951065, 0.9920000471174717, 0.0, 0.0, 0.0, 0.0, 0.0, 1.763226231703287E9, 0.0, 2025-11-15 12:03:51.703
58.0, 2312.324044103734, -58.95765285147354, -71.27875325549394, -51.64801838807762, -0.03200000151991844, 0.19200000911951065, 0.9920000471174717, 0.0, 0.0, 0.0, 0.0, 0.0, 1.763226231717013E9, 0.0, 2025-11-15 12:03:51.717
58.0, 2192.4602505238727, -168.88453224906698, -184.45186581462622, -155.34422445949167, -0.03200000151991844, 0.19200000911951065, 0.9920000471174717, 0.0, 0.0, 0.0, 0.0, 0.0, 1.763226231717013E9, 0.0, 2025-11-15 12:03:51.717
59.0, 2414.40461339429, 8.439084250014275, -39.87481332756579, -24.877814505249262, -0.03200000151991844, 0.19200000911951065, 0.9920000471174717, 0.0, 0.0, 0.0, 0.0, 0.0, 1.7632262317325835E9, 0.0, 2025-11-15 12:03:51.732
59.0, 2395.533078217879, 19.239915322046727, 0.8115582903847098, 14.349996129982173, -0.03200000151991844, 0.19200000911951065, 0.9920000471174717, 0.0, 0.0, 0.0, 0.0, 0.0, 1.7632262317325835E9, 0.0, 2025-11-15 12:03:51.732
60.0, 2205.721935766749, -158.1996380756609, -163.50842606276274, -139.96201594173908, -0.03200000151991844, 0.19200000911951065, 1.008000047877431, 0.0, 0.0, 0.0, 0.0, 0.0, 1.7632262317332895E9, 0.0, 2025-11-15 12:03:51.733
60.0, 2313.075763994828, -67.3836474516429, -99.67207371909171, -75.60955740418285, -0.03200000151991844, 0.19200000911951065, 1.008000047877431, 0.0, 0.0, 0.0, 0.0, 0.0, 1.7632262317332895E9, 0.0, 2025-11-15 12:03:51.733
61.0, 2474.770338579081, 82.81073476886377, 40.050588625483215, 39.72895722929388, -0.03200000151991844, 0.19200000911951065, 1.008000047877431, 0.0, 0.0, 0.0, 0.0, 0.0, 1.7632262317469556E9, 0.0, 2025-11-15 12:03:51.746
61.0, 2712.2595956153236, -133.1909270719625, -131.3939051432535, -118.49499019607902, -0.03200000151991844, 0.19200000911951065, 1.008000047877431, 0.0, 0.0, 0.0, 0.0, 0.0, 1.7632262317469556E9, 0.0, 2025-11-15 12:03:51.746
62.0, 2727.559526334051, -138.1949132126756, -163.35883006453514, -141.82074621971697, -0.03200000151991844, 0.19200000911951065, 1.008000047877431, 0.0, 0.0, 0.0, 0.0, 0.0, 1.7632262317626293E9, 0.0, 2025-11-15 12:03:51.762
62.0, 2485.6048287507147, 83.25204296363518, 26.291496688500047, 24.98627160396427, -0.03200000151991844, 0.19200000911951065, 1.008000047877431, 0.0, 0.0, 0.0, 0.0, 0.0, 1.7632262317626293E9, 0.0, 2025-11-15 12:03:51.762
63.0, 2296.11905759573, -67.28641005279496, -74.50628691725433, -61.012727877125144, -0.03200000151991844, 0.19200000911951065, 1.008000047877431, 0.0, 0.0, 0.0, 0.0, 0.0, 1.7632262317633157E9, 0.0, 2025-11-15 12:03:51.763
63.0, 2207.928476740606, -157.6910116816871, -174.76926482934505, -146.3273256663233, -0.03200000151991844, 0.19200000911951065, 1.008000047877431, 0.0, 0.0, 0.0, 0.0, 0.0, 1.7632262317633157E9, 0.0, 2025-11-15 12:03:51.763
64.0, 2403.9590728180483, 3.1994844120927155, -50.38019230309874, -32.828841811046004, -0.03200000151991844, 0.19200000911951065, 1.008000047877431, 0.0, 0.0, 0.0, 0.0, 0.0, 1.7632262317769604E9, 0.0, 2025-11-15 12:03:51.776
64.0, 2399.246798873879, 19.763501315843314, -1.3575836839154363, 8.07070410437882, -0.03200000151991844, 0.19200000911951065, 1.008000047877431, 0.0, 0.0, 0.0, 0.0, 0.0, 1.7632262317769604E9, 0.0, 2025-11-15 12:03:51.776
65.0, 2198.76198194921, -168.74615595070645, -171.9306807629764, -148.1785761443898, -0.03200000151991844, 0.19200000911951065, 1.008000047877431, 0.0, 0.0, 0.0, 0.0, 0.0, 1.76322623179258E9, 0.0, 2025-11-15 12:03:51.792
65.0, 2313.737726286985, -75.13646005978808, -116.50910331960768, -104.51898406166583, -0.03200000151991844, 0.19200000911951065, 1.008000047877431, 0.0, 0.0, 0.0, 0.0, 0.0, 1.76322623179258E9, 0.0, 2025-11-15 12:03:51.792
66.0, 2469.328784143552, 82.23479017568752, 39.17545203585178, 35.72726427670568, -0.03200000151991844, 0.19200000911951065, 1.008000047877431, 0.0, 0.0, 0.0, 0.0, 0.0, 1.7632262317933009E9, 0.0, 2025-11-15 12:03:51.793
66.0, 2705.550215094816, -135.33388974657282, -139.37485164869577, -120.77258926909417, -0.03200000151991844, 0.19200000911951065, 1.008000047877431, 0.0, 0.0, 0.0, 0.0, 0.0, 1.7632262317933009E9, 0.0, 2025-11-15 12:03:51.793
67.0, 2729.997941105161, -135.31893014675006, -160.15747570246458, -141.880584619008, -0.03200000151991844, 0.19200000911951065, 1.008000047877431, 0.0, 0.0, 0.0, 0.0, 0.0, 1.7632262318069255E9, 0.0, 2025-11-15 12:03:51.806
67.0, 2487.998364722356, 80.85476709203795, 28.284863364882767, 27.140453978441656, -0.03200000151991844, 0.19200000911951065, 1.008000047877431, 0.0, 0.0, 0.0, 0.0, 0.0, 1.7632262318069255E9, 0.0, 2025-11-15 12:03:51.806
68.0, 2285.8941711168736, -74.66523266537115, -72.92056933604181, -57.92357051372528, -0.03200000151991844, 0.19200000911951065, 1.008000047877431, 0.0, 0.0, 0.0, 0.0, 0.0, 1.7632262318390057E9, 0.0, 2025-11-15 12:03:51.839
68.0, 2202.262528307736, -155.14413981186226, -166.65368192549795, -139.93209674209356, -0.03200000151991844, 0.19200000911951065, 1.008000047877431, 0.0, 0.0, 0.0, 0.0, 0.0, 1.7632262318390057E9, 0.0, 2025-11-15 12:03:51.839
69.0, 2406.749038184993, 8.584940348286182, -42.20851089991629, -45.641739059239626, -0.03200000151991844, 0.19200000911951065, 1.008000047877431, 0.0, 0.0, 0.0, 0.0, 0.0, 1.763226231839681E9, 0.0, 2025-11-15 12:03:51.839
69.0, 2394.9720932245255, 23.95966906612739, 0.022439399734139442, -0.18325509782880545, -0.03200000151991844, 0.19200000911951065, 1.008000047877431, 0.0, 0.0, 0.0, 0.0, 0.0, 1.763226231839681E9, 0.0, 2025-11-15 12:03:51.839
70.0, 2193.6345791099593, -156.50920329568908, -160.57634449750185, -141.98530181776732, -0.03200000151991844, 0.19200000911951065, 1.008000047877431, 0.0, 0.0, 0.0, 0.0, 0.0, 1.7632262318404117E9, 0.0, 2025-11-15 12:03:51.840
70.0, 2304.402935997583, -76.8717736392282, -120.37989977374673, -106.63576743658632, -0.03200000151991844, 0.19200000911951065, 1.008000047877431, 0.0, 0.0, 0.0, 0.0, 0.0, 1.7632262318404117E9, 0.0, 2025-11-15 12:03:51.840
71.0, 2484.2322854669765, 89.75198908662423, 44.75164286978543, 49.03008841909468, -0.03200000151991844, 0.19200000911951065, 1.008000047877431, 0.0, 0.0, 0.0, 0.0, 0.0, 1.763226231841266E9, 0.0, 2025-11-15 12:03:51.841
71.0, 2719.0849130344577, -130.4458405044861, -135.0590070998296, -112.17455927096307, -0.03200000151991844, 0.19200000911951065, 1.008000047877431, 0.0, 0.0, 0.0, 0.0, 0.0, 1.763226231841266E9, 0.0, 2025-11-15 12:03:51.841
72.0, 2725.233308561612, -142.3050632639788, -154.63738336786628, -133.68272391613573, -0.03200000151991844, 0.19200000911951065, 1.008000047877431, 0.0, 0.0, 0.0, 0.0, 0.0, 1.7632262318519444E9, 0.0, 2025-11-15 12:03:51.851
72.0, 2487.20550593175, 80.74630999332294, 23.673566719517112, 15.651481314562261, -0.03200000151991844, 0.19200000911951065, 1.008000047877431, 0.0, 0.0, 0.0, 0.0, 0.0, 1.7632262318519444E9, 0.0, 2025-11-15 12:03:51.851
73.0, 2288.2091691894457, -74.0892880721949, -79.49531345814466, -73.19358203280717, -0.03200000151991844, 0.19200000911951065, 1.008000047877431, 0.0, 0.0, 0.0, 0.0, 0.0, 1.7632262318668957E9, 0.0, 2025-11-15 12:03:51.866
73.0, 2208.100512138568, -158.67834526998922, -168.62460920214653, -157.1505961380899, -0.03200000151991844, 0.19200000911951065, 1.008000047877431, 0.0, 0.0, 0.0, 0.0, 0.0, 1.7632262318668957E9, 0.0, 2025-11-15 12:03:51.866
74.0, 2404.938926606439, 8.693397447001189, -42.051435101777315, -34.15650629531592, -0.03200000151991844, 0.19200000911951065, 1.008000047877431, 0.0, 0.0, 0.0, 0.0, 0.0, 1.763226231882615E9, 0.0, 2025-11-15 12:03:51.882
74.0, 2388.2888920037076, 8.67469794722274, -6.376529424451292, -5.123662939295173, -0.03200000151991844, 0.19200000911951065, 1.008000047877431, 0.0, 0.0, 0.0, 0.0, 0.0, 1.763226231882615E9, 0.0, 2025-11-15 12:03:51.882
75.0, 2205.6433978676796, -157.00660998979583, -167.8205307116732, -147.7709270492196, -0.03200000151991844, 0.19200000911951065, 1.008000047877431, 0.0, 0.0, 0.0, 0.0, 0.0, 1.7632262318833418E9, 0.0, 2025-11-15 12:03:51.883
75.0, 2308.0530783543363, -79.74401680519804, -121.41585206147283, -103.09408217854798, -0.03200000151991844, 0.19200000911951065, 1.008000047877431, 0.0, 0.0, 0.0, 0.0, 0.0, 1.7632262318833418E9, 0.0, 2025-11-15 12:03:51.883
76.0, 2477.0928164515644, 84.33287405082956, 39.201631335541606, 40.050588625483215, -0.03200000151991844, 0.19200000911951065, 1.008000047877431, 0.0, 0.0, 0.0, 0.0, 0.0, 1.7632262319133327E9, 0.0, 2025-11-15 12:03:51.913
76.0, 2235.8655294096097, -126.21601365460083, -137.03367427643389, -114.32874164544046, -0.03200000151991844, 0.19200000911951065, 1.008000047877431, 0.0, 0.0, 0.0, 0.0, 0.0, 1.7632262319133327E9, 0.0, 2025-11-15 12:03:51.913
77.0, 2227.9780804030597, -140.76422448223457, -168.4824930038303, -141.9591225180775, -0.03200000151991844, 0.19200000911951065, 1.008000047877431, 0.0, 0.0, 0.0, 0.0, 0.0, 1.7632262319139855E9, 0.0, 2025-11-15 12:03:51.913
77.0, 1986.629246612545, 73.93595217401162, 18.08989608567208, 24.458945710211992, -0.03200000151991844, 0.19200000911951065, 1.008000047877431, 0.0, 0.0, 0.0, 0.0, 0.0, 1.7632262319139855E9, 0.0, 2025-11-15 12:03:51.913
78.0, 1795.5988967758603, -71.03004990844056, -68.88147738389671, -50.866379297338426, -0.03200000151991844, 0.19200000911951065, 1.008000047877431, 0.0, 0.0, 0.0, 0.0, 0.0, 1.7632262319147363E9, 0.0, 2025-11-15 12:03:51.914
78.0, 1716.6383890113793, -153.6107808300294, -165.8533433349803, -145.23527487926185, -0.03200000151991844, 0.19200000911951065, 1.008000047877431, 0.0, 0.0, 0.0, 0.0, 0.0, 1.7632262319147363E9, 0.0, 2025-11-15 12:03:51.914
79.0, 1919.572840407025, 10.181877629365772, -33.157953007146716, -24.473905310034752, -0.03200000151991844, 0.19200000911951065, 1.008000047877431, 0.0, 0.0, 0.0, 0.0, 0.0, 1.763226231926957E9, 0.0, 2025-11-15 12:03:51.926
79.0, 1908.8542871340178, 27.53501342376694, 11.118722568266094, 15.202693319879472, -0.03200000151991844, 0.19200000911951065, 1.008000047877431, 0.0, 0.0, 0.0, 0.0, 0.0, 1.763226231926957E9, 0.0, 2025-11-15 12:03:51.926
80.0, 1716.0175656187348, -154.4298189203255, -157.10571733862162, -137.6582375690341, -0.03200000151991844, 0.19200000911951065, 1.0240000486373901, 0.0, 0.0, 0.0, 0.0, 0.0, 1.7632262319426105E9, 0.0, 2025-11-15 12:03:51.942
80.0, 1823.4536716458388, -68.43829923914745, -106.9013003334403, -82.38625612389296, -0.03200000151991844, 0.19200000911951065, 1.0240000486373901, 0.0, 0.0, 0.0, 0.0, 0.0, 1.7632262319426105E9, 0.0, 2025-11-15 12:03:51.942
81.0, 2007.6437444635667, 97.23178899800405, 59.46440929546952, 70.06328576989472, -0.03200000151991844, 0.19200000911951065, 1.0240000486373901, 0.0, 0.0, 0.0, 0.0, 0.0, 1.7632262319432971E9, 0.0, 2025-11-15 12:03:51.943
81.0, 2230.1846213769168, -126.8181375474669, -121.8347208565101, -99.32052312325686, -0.03200000151991844, 0.19200000911951065, 1.0240000486373901, 0.0, 0.0, 0.0, 0.0, 0.0, 1.7632262319432971E9, 0.0, 2025-11-15 12:03:51.943
82.0, 2243.8053370155394, -130.95072699850425, -148.64232373889536, -123.02774894237518, -0.03200000151991844, 0.19200000911951065, 1.0240000486373901, 0.0, 0.0, 0.0, 0.0, 0.0, 1.7632262319569523E9, 0.0, 2025-11-15 12:03:51.956
82.0, 2485.178480155766, 85.94477093173191, 29.907979945652187, 38.13949974812567, -0.03200000151991844, 0.19200000911951065, 1.0240000486373901, 0.0, 0.0, 0.0, 0.0, 0.0, 1.7632262319569523E9, 0.0, 2025-11-15 12:03:51.956
83.0, 2304.0738248014823, -58.57618305599317, -59.43075019586831, -31.216944930143654, -0.03200000151991844, 0.19200000911951065, 1.0240000486373901, 0.0, 0.0, 0.0, 0.0, 0.0, 1.763226231973328E9, 0.0, 2025-11-15 12:03:51.973
83.0, 2213.9197964696214, -147.70921869995072, -158.4408616228029, -127.8372602853924, -0.03200000151991844, 0.19200000911951065, 1.0240000486373901, 0.0, 0.0, 0.0, 0.0, 0.0, 1.763226231973328E9, 0.0, 2025-11-15 12:03:51.973
84.0, 2406.049676893279, 12.481916102115065, -43.629672883078456, -42.7994150929153, -0.03200000151991844, 0.19200000911951065, 1.0240000486373901, 0.0, 0.0, 0.0, 0.0, 0.0, 1.763226231973945E9, 0.0, 2025-11-15 12:03:51.973
84.0, 2398.753132079728, 24.78992685629055, 3.504286258481443, 13.6730742380023, -0.03200000151991844, 0.19200000911951065, 1.0240000486373901, 0.0, 0.0, 0.0, 0.0, 0.0, 1.763226231973945E9, 0.0, 2025-11-15 12:03:51.973
85.0, 2208.197749537416, -148.17670619441196, -152.68515559099615, -127.11171969398856, -0.03200000151991844, 0.19200000911951065, 1.0240000486373901, 0.0, 0.0, 0.0, 0.0, 0.0, 1.7632262319869764E9, 0.0, 2025-11-15 12:03:51.986
85.0, 2307.3537170626223, -78.00870322575793, -119.22053078748286, -97.8993611400947, -0.03200000151991844, 0.19200000911951065, 1.0240000486373901, 0.0, 0.0, 0.0, 0.0, 0.0, 1.7632262319869764E9, 0.0, 2025-11-15 12:03:51.986
86.0, 2476.7524855555966, 82.9117120676674, 40.70133121777326, 48.951550520025194, -0.03200000151991844, 0.19200000911951065, 1.0240000486373901, 0.0, 0.0, 0.0, 0.0, 0.0, 1.7632262320026133E9, 0.0, 2025-11-15 12:03:52.002
86.0, 2234.2498926287517, -132.61872237874195, -134.8084338027984, -101.97959199175239, -0.03200000151991844, 0.19200000911951065, 1.0240000486373901, 0.0, 0.0, 0.0, 0.0, 0.0, 1.7632262320026133E9, 0.0, 2025-11-15 12:03:52.002
87.0, 2237.60084298905, -134.9299805513583, -158.9270486170426, -129.49777586571872, -0.03200000151991844, 0.19200000911951065, 1.0240000486373901, 0.0, 0.0, 0.0, 0.0, 0.0, 1.7632262320033193E9, 0.0, 2025-11-15 12:03:52.003
87.0, 2477.279811449349, 72.78406298765913, 16.724832601845264, 27.660300072282553, -0.03200000151991844, 0.19200000911951065, 1.0240000486373901, 0.0, 0.0, 0.0, 0.0, 0.0, 1.7632262320033193E9, 0.0, 2025-11-15 12:03:52.003
88.0, 2302.9219356151298, -65.63337427238002, -68.7019621860236, -44.822700968943536, -0.03200000151991844, 0.19200000911951065, 1.0240000486373901, 0.0, 0.0, 0.0, 0.0, 0.0, 1.7632262320169835E9, 0.0, 2025-11-15 12:03:52.016
88.0, 2219.2940327059478, -152.3840936445631, -168.13842220790684, -140.46690243575722, -0.03200000151991844, 0.19200000911951065, 1.0240000486373901, 0.0, 0.0, 0.0, 0.0, 0.0, 1.7632262320169835E9, 0.0, 2025-11-15 12:03:52.016
89.0, 2402.2050597388297, 10.084640230517834, -42.38054629787803, -35.184978783130646, -0.03200000151991844, 0.19200000911951065, 1.0240000486373901, 0.0, 0.0, 0.0, 0.0, 0.0, 1.7632262320326157E9, 0.0, 2025-11-15 12:03:52.032
89.0, 2407.268884278834, 22.115898387972265, 2.1467025745660067, 15.157814520411193, -0.03200000151991844, 0.19200000911951065, 1.0240000486373901, 0.0, 0.0, 0.0, 0.0, 0.0, 1.7632262320326157E9, 0.0, 2025-11-15 12:03:52.032
90.0, 2207.3338326476514, -149.42957267956808, -151.4435088057071, -128.18881088122725, -0.03200000151991844, 0.19200000911951065, 1.0240000486373901, 0.0, 0.0, 0.0, 0.0, 0.0, 1.7632262320333014E9, 0.0, 2025-11-15 12:03:52.033
90.0, 2313.591870188713, -73.02715648477897, -109.74362429976463, -90.87582902330905, -0.03200000151991844, 0.19200000911951065, 1.0240000486373901, 0.0, 0.0, 0.0, 0.0, 0.0, 1.7632262320333014E9, 0.0, 2025-11-15 12:03:52.033
91.0, 2481.7826509959996, 83.16976516461, 37.989903749898076, 37.73185065295547, -0.03200000151991844, 0.19200000911951065, 1.0240000486373901, 0.0, 0.0, 0.0, 0.0, 0.0, 1.7632262320469525E9, 0.0, 2025-11-15 12:03:52.046
91.0, 2725.715755655896, -128.44125412823632, -129.06768737081438, -98.13497483730316, -0.03200000151991844, 0.19200000911951065, 1.0240000486373901, 0.0, 0.0, 0.0, 0.0, 0.0, 1.7632262320469525E9, 0.0, 2025-11-15 12:03:52.046
92.0, 2733.3825505650602, -133.0824699732475, -156.87384354136884, -131.5023622419685, -0.03200000151991844, 0.19200000911951065, 1.0240000486373901, 0.0, 0.0, 0.0, 0.0, 0.0, 1.7632262320626E9, 0.0, 2025-11-15 12:03:52.062
92.0, 2976.1132773892023, 78.93993831472471, 23.052743326872587, 26.10824159067124, -0.03200000151991844, 0.19200000911951065, 1.0240000486373901, 0.0, 0.0, 0.0, 0.0, 0.0, 1.7632262320626E9, 0.0, 2025-11-15 12:03:52.062
93.0, 2800.046267275233, -64.8629548815079, -64.28514033835381, -42.65355899464339, -0.03200000151991844, 0.19200000911951065, 1.0240000486373901, 0.0, 0.0, 0.0, 0.0, 0.0, 1.7632262320632937E9, 0.0, 2025-11-15 12:03:52.063
93.0, 2688.638387495186, -160.26780275115743, -171.27993817068636, -144.25916099082679, -0.03200000151991844, 0.19200000911951065, 1.0240000486373901, 0.0, 0.0, 0.0, 0.0, 0.0, 1.7632262320632937E9, 0.0, 2025-11-15 12:03:52.063
94.0, 2897.459441421088, 8.454043849837035, -46.614113047719, -37.15964595973492, -0.03200000151991844, 0.19200000911951065, 1.0240000486373901, 0.0, 0.0, 0.0, 0.0, 0.0, 1.7632262320769715E9, 0.0, 2025-11-15 12:03:52.076
94.0, 2885.686236360576, 20.68725660489872, -1.2192073855549097, 13.777791436761618, -0.03200000151991844, 0.19200000911951065, 1.0240000486373901, 0.0, 0.0, 0.0, 0.0, 0.0, 1.7632262320769715E9, 0.0, 2025-11-15 12:03:52.076
95.0, 2690.2839434756897, -159.284209062811, -163.39248916413635, -134.6176989050582, -0.03200000151991844, 0.19200000911951065, 1.0240000486373901, 0.0, 0.0, 0.0, 0.0, 0.0, 1.7632262320926044E9, 0.0, 2025-11-15 12:03:52.092
95.0, 2794.12226574542, -83.7232703580521, -119.48606368433684, -98.8268563291058, -0.03200000151991844, 0.19200000911951065, 1.0240000486373901, 0.0, 0.0, 0.0, 0.0, 0.0, 1.7632262320926044E9, 0.0, 2025-11-15 12:03:52.092
96.0, 2964.3512920285575, 83.00894946651533, 45.720276958309114, 59.64766439329833, -0.03200000151991844, 0.19200000911951065, 1.0240000486373901, 0.0, 0.0, 0.0, 0.0, 0.0, 1.7632262320933032E9, 0.0, 2025-11-15 12:03:52.093
96.0, 3200.0304374862462, -142.95580585626885, -142.74824140872806, -116.14259312395006, -0.03200000151991844, 0.19200000911951065, 1.0240000486373901, 0.0, 0.0, 0.0, 0.0, 0.0, 1.7632262320933032E9, 0.0, 2025-11-15 12:03:52.093
97.0, 3223.9770169025287, -142.82116945786402, -167.25580581836402, -138.8400459550321, -0.03200000151991844, 0.19200000911951065, 1.0240000486373901, 0.0, 0.0, 0.0, 0.0, 0.0, 1.7632262321069767E9, 0.0, 2025-11-15 12:03:52.106
97.0, 3445.0013643838465, 58.96887255134061, 7.4648403115570545, 15.69262021407485, -0.03200000151991844, 0.19200000911951065, 1.0240000486373901, 0.0, 0.0, 0.0, 0.0, 0.0, 1.7632262321069767E9, 0.0, 2025-11-15 12:03:52.106
98.0, 3279.364935246296, -72.91121958615258, -78.57903796900064, -50.062300806865096, -0.03200000151991844, 0.19200000911951065, 1.0240000486373901, 0.0, 0.0, 0.0, 0.0, 0.0, 1.7632262321388211E9, 0.0, 2025-11-15 12:03:52.138
98.0, 3184.992299764417, -165.40642529027537, -181.17571345344186, -154.13623677380383, -0.03200000151991844, 0.19200000911951065, 1.0240000486373901, 0.0, 0.0, 0.0, 0.0, 0.0, 1.7632262321388211E9, 0.0, 2025-11-15 12:03:52.138
99.0, 3380.6451659463346, 3.1957445121370256, -45.90727195609361, -32.97095800936222, -0.03200000151991844, 0.19200000911951065, 1.0240000486373901, 0.0, 0.0, 0.0, 0.0, 0.0, 1.7632262321394515E9, 0.0, 2025-11-15 12:03:52.139
99.0, 3394.03774768766, 25.739861445035785, 4.869349742308259, 11.848003059625626, -0.03200000151991844, 0.19200000911951065, 1.0240000486373901, 0.0, 0.0, 0.0, 0.0, 0.0, 1.7632262321394515E9, 0.0, 2025-11-15 12:03:52.139
100.0, 3168.8396718557924, -163.5028162128292, -171.3435164699331, -146.64895706251264, -0.03200000151991844, 0.19200000911951065, 1.0240000486373901, 0.0, 0.0, 0.0, 0.0, 0.0, 1.763226232140266E9, 0.0, 2025-11-15 12:03:52.140
100.0, 3282.1810799129307, -82.71349737001583, -121.15405906457454, -98.66978053096682, -0.03200000151991844, 0.19200000911951065, 1.0240000486373901, 0.0, 0.0, 0.0, 0.0, 0.0, 1.763226232140266E9, 0.0, 2025-11-15 12:03:52.140
0.0, 24.15601381380111, 84.11035000346601, 38.10958054848015, 49.99124270770699, -0.03200000151991844, 0.19200000911951065, 1.0240000486373901, 0.0, 0.0, 0.0, 0.0, 0.0, 1.7632262321530628E9, 0.0, 2025-11-15 12:03:52.153
1.0, 257.7744743959047, -141.48415522370487, -142.11993821617216, -114.88224683888257, -0.03200000151991844, 0.19200000911951065, 1.0240000486373901, 0.0, 0.0, 0.0, 0.0, 0.0, 1.763226232168418E9, 0.0, 2025-11-15 12:03:52.168
1.0, 267.47951478092, -151.55944570433348, -175.3826084220782, -142.74450150877237, -0.03200000151991844, 0.19200000911951065, 1.0240000486373901, 0.0, 0.0, 0.0, 0.0, 0.0, 1.763226232168418E9, 0.0, 2025-11-15 12:03:52.168
2.0, 33.04201610852033, 74.31555201951414, 13.815190436318517, 30.783116535283625, -0.03200000151991844, 0.19200000911951065, 1.0240000486373901, 0.0, 0.0, 0.0, 0.0, 0.0, 1.7632262321690304E9, 0.0, 2025-11-15 12:03:52.169
2.0, -160.79325869493186, -73.17862243298441, -80.28069244883955, -50.79158129822463, -0.03200000151991844, 0.19200000911951065, 1.0240000486373901, 0.0, 0.0, 0.0, 0.0, 0.0, 1.7632262321690304E9, 0.0, 2025-11-15 12:03:52.169
3.0, -245.98443978559226, -162.52857227437198, -174.45885313302279, -139.66656384523958, -0.03200000151991844, 0.19200000911951065, 1.0240000486373901, 0.0, 0.0, 0.0, 0.0, 0.0, 1.7632262321697752E9, 0.0, 2025-11-15 12:03:52.169
3.0, -49.11236621811986, 3.751119655556977, -49.08618691843003, -38.427472044713795, -0.03200000151991844, 0.19200000911951065, 1.0240000486373901, 0.0, 0.0, 0.0, 0.0, 0.0, 1.7632262321697752E9, 0.0, 2025-11-15 12:03:52.169
4.0, -42.76575599331409, 32.10330121964216, 9.480646387673914, 21.837275841273367, -0.03200000151991844, 0.19200000911951065, 1.0240000486373901, 0.0, 0.0, 0.0, 0.0, 0.0, 1.7632262321819649E9, 0.0, 2025-11-15 12:03:52.181
4.0, -260.1324813179672, -169.16689469572157, -173.88664843980223, -149.39030373003334, -0.03200000151991844, 0.19200000911951065, 1.0240000486373901, 0.0, 0.0, 0.0, 0.0, 0.0, 1.7632262321819649E9, 0.0, 2025-11-15 12:03:52.181
5.0, -144.19558269158006, -79.86182365380228, -116.06779512483627, -91.5228317156434, -0.03200000151991844, 0.19200000911951065, 1.0240000486373901, 0.0, 0.0, 0.0, 0.0, 0.0, 1.7632262321976495E9, 0.0, 2025-11-15 12:03:52.197
5.0, 34.769849888049066, 78.48928037006408, 38.872520139440894, 43.88024618010968, -0.03200000151991844, 0.19200000911951065, 1.0240000486373901, 0.0, 0.0, 0.0, 0.0, 0.0, 1.7632262321976495E9, 0.0, 2025-11-15 12:03:52.197
6.0, 247.5458480170928, -146.34602516610175, -139.11679855175316, -112.71310486458242, -0.03200000151991844, 0.19200000911951065, 1.0240000486373901, 0.0, 0.0, 0.0, 0.0, 0.0, 1.7632262321983287E9, 0.0, 2025-11-15 12:03:52.198
6.0, 281.31340471701697, -139.64786434546113, -162.3340974766761, -132.68043072801083, -0.03200000151991844, 0.19200000911951065, 1.0240000486373901, 0.0, 0.0, 0.0, 0.0, 0.0, 1.7632262321983287E9, 0.0, 2025-11-15 12:03:52.198
7.0, 522.9371211542748, 70.19418226834387, 17.016544798389077, 21.72881874255836, -0.03200000151991844, 0.19200000911951065, 1.0240000486373901, 0.0, 0.0, 0.0, 0.0, 0.0, 1.763226232212072E9, 0.0, 2025-11-15 12:03:52.212
7.0, 339.93633652245626, -62.66576365754008, -71.13289715722203, -51.85371288564056, -0.03200000151991844, 0.19200000911951065, 1.0240000486373901, 0.0, 0.0, 0.0, 0.0, 0.0, 1.763226232212072E9, 0.0, 2025-11-15 12:03:52.212
8.0, 237.67999193398282, -167.0762906204909, -179.76203127019107, -146.8845707597211, -0.03200000151991844, 0.19200000911951065, 1.0240000486373901, 0.0, 0.0, 0.0, 0.0, 0.0, 1.7632262322276645E9, 0.0, 2025-11-15 12:03:52.227
8.0, 438.8903494500555, -0.40390919521450996, -48.125032629817724, -28.049249667674303, -0.03200000151991844, 0.19200000911951065, 1.0240000486373901, 0.0, 0.0, 0.0, 0.0, 0.0, 1.7632262322276645E9, 0.0, 2025-11-15 12:03:52.227
9.0, 438.9726272490807, 17.379315094090998, -3.7997383549809456, 9.895775282755494, -0.03200000151991844, 0.19200000911951065, 1.0240000486373901, 0.0, 0.0, 0.0, 0.0, 0.0, 1.7632262322283401E9, 0.0, 2025-11-15 12:03:52.228
9.0, 242.14543248107657, -161.44026138726622, -171.42205436900258, -145.97203517053276, -0.03200000151991844, 0.19200000911951065, 1.0240000486373901, 0.0, 0.0, 0.0, 0.0, 0.0, 1.7632262322283401E9, 0.0, 2025-11-15 12:03:52.228
10.0, 349.05421261442825, -81.97112722881138, -121.60658695921302, -103.47929187398404, -0.03200000151991844, 0.19200000911951065, 1.0240000486373901, 0.0, 0.0, 0.0, 0.0, 0.0, 1.7632262322419605E9, 0.0, 2025-11-15 12:03:52.241
10.0, 537.287117284257, 95.54322416801006, 51.00101569574326, 60.75093488022685, -0.03200000151991844, 0.19200000911951065, 1.0240000486373901, 0.0, 0.0, 0.0, 0.0, 0.0, 1.7632262322419605E9, 0.0, 2025-11-15 12:03:52.241
11.0, 745.6014147661626, -147.16132335644215, -146.11415136884898, -118.76426299288869, -0.03200000151991844, 0.19200000911951065, 1.0240000486373901, 0.0, 0.0, 0.0, 0.0, 0.0, 1.7632262322576985E9, 0.0, 2025-11-15 12:03:52.257
11.0, 760.4450776902959, -146.4021236654371, -172.94045375101268, -140.61649843398482, -0.03200000151991844, 0.19200000911951065, 1.0240000486373901, 0.0, 0.0, 0.0, 0.0, 0.0, 1.7632262322576985E9, 0.0, 2025-11-15 12:03:52.257
12.0, 517.0579984239303, 75.57963820453733, 19.548457068391144, 22.16264713741839, -0.03200000151991844, 0.19200000911951065, 1.0240000486373901, 0.0, 0.0, 0.0, 0.0, 0.0, 1.7632262322583432E9, 0.0, 2025-11-15 12:03:52.258
12.0, 337.262308054138, -67.50519420020282, -74.67084251530468, -54.40058475546539, -0.03200000151991844, 0.19200000911951065, 1.0240000486373901, 0.0, 0.0, 0.0, 0.0, 0.0, 1.7632262322583432E9, 0.0, 2025-11-15 12:03:52.258
13.0, 240.12588650500402, -167.8579297112301, -182.20418594125658, -156.05480545107275, -0.03200000151991844, 0.19200000911951065, 1.0240000486373901, 0.0, 0.0, 0.0, 0.0, 0.0, 1.7632262322719803E9, 0.0, 2025-11-15 12:03:52.271
13.0, 432.7344741229899, -8.657868397422135, -65.5118275238201, -45.724016858264804, -0.03200000151991844, 0.19200000911951065, 1.0240000486373901, 0.0, 0.0, 0.0, 0.0, 0.0, 1.7632262322719803E9, 0.0, 2025-11-15 12:03:52.271
14.0, 444.2309265867807, 18.87153517641127, -6.44010772369802, 8.205340502783656, -0.03200000151991844, 0.19200000911951065, 1.0240000486373901, 0.0, 0.0, 0.0, 0.0, 0.0, 1.7632262322876272E9, 0.0, 2025-11-15 12:03:52.287
14.0, 240.0997072053142, -165.68130793701857, -175.01609822642058, -146.17024986818433, -0.03200000151991844, 0.19200000911951065, 1.0240000486373901, 0.0, 0.0, 0.0, 0.0, 0.0, 1.7632262322876272E9, 0.0, 2025-11-15 12:03:52.287
15.0, 339.56982632679865, -83.58676400966942, -124.17963812872767, -95.93965356331319, -0.03200000151991844, 0.19200000911951065, 1.0240000486373901, 0.0, 0.0, 0.0, 0.0, 0.0, 1.763226232288349E9, 0.0, 2025-11-15 12:03:52.288
15.0, 518.8830696023069, 80.03011915180832, 31.243124229833484, 40.73499031737447, -0.03200000151991844, 0.19200000911951065, 1.0240000486373901, 0.0, 0.0, 0.0, 0.0, 0.0, 1.763226232288349E9, 0.0, 2025-11-15 12:03:52.288
16.0, 755.7178441463038, -135.60129259340465, -139.97697554156184, -116.29592902213335, -0.03200000151991844, 0.19200000911951065, 1.0240000486373901, 0.0, 0.0, 0.0, 0.0, 0.0, 1.763226232301922E9, 0.0, 2025-11-15 12:03:52.301
16.0, 749.5881481189281, -149.09485163353384, -170.10186968464404, -145.39235067740083, -0.03200000151991844, 0.19200000911951065, 1.0240000486373901, 0.0, 0.0, 0.0, 0.0, 0.0, 1.763226232301922E9, 0.0, 2025-11-15 12:03:52.301
17.0, 509.46974141383544, 64.76384753268212, 15.479445916600525, 16.795890701003373, -0.03200000151991844, 0.19200000911951065, 1.0240000486373901, 0.0, 0.0, 0.0, 0.0, 0.0, 1.7632262323173733E9, 0.0, 2025-11-15 12:03:52.317
17.0, 339.9662557221018, -71.32737195491791, -76.37623689509928, -64.34871863760054, -0.03200000151991844, 0.19200000911951065, 1.0240000486373901, 0.0, 0.0, 0.0, 0.0, 0.0, 1.7632262323173733E9, 0.0, 2025-11-15 12:03:52.317
18.0, 247.8076410139911, -166.7845784239471, -182.85118863359094, -154.47282776981592, -0.03200000151991844, 0.19200000911951065, 1.0240000486373901, 0.0, 0.0, 0.0, 0.0, 0.0, 1.7632262323490071E9, 0.0, 2025-11-15 12:03:52.349
18.0, 432.1211305302568, -6.776698719710112, -56.46874943096191, -40.880846415646374, -0.03200000151991844, 0.19200000911951065, 1.0240000486373901, 0.0, 0.0, 0.0, 0.0, 0.0, 1.7632262323490071E9, 0.0, 2025-11-15 12:03:52.349
19.0, 450.7420924096368, 24.313089611940086, 2.7263870676979423, 9.768618684262037, -0.03200000151991844, 0.19200000911951065, 1.0240000486373901, 0.0, 0.0, 0.0, 0.0, 0.0, 1.7632262323497236E9, 0.0, 2025-11-15 12:03:52.349
19.0, 241.99209658289328, -160.1836550021544, -165.4531740397215, -137.62831836938858, -0.03200000151991844, 0.19200000911951065, 1.0240000486373901, 0.0, 0.0, 0.0, 0.0, 0.0, 1.7632262323497236E9, 0.0, 2025-11-15 12:03:52.349
20.0, 341.8773445994593, -86.08875708002597, -126.10194670595229, -106.59836843702942, -0.03200000151991844, 0.19200000911951065, 1.0240000486373901, 0.0, 0.0, 0.0, 0.0, 0.0, 1.7632262323504689E9, 0.0, 2025-11-15 12:03:52.350
20.0, 519.1074635996483, 78.1489494740963, 39.86359362769872, 47.43315113801509, -0.03200000151991844, 0.19200000911951065, 1.0240000486373901, 0.0, 0.0, 0.0, 0.0, 0.0, 1.7632262323504689E9, 0.0, 2025-11-15 12:03:52.350
21.0, 747.4825844438747, -134.0679336115718, -129.70721026323736, -106.48991133831441, -0.03200000151991844, 0.19200000911951065, 1.0240000486373901, 0.0, 0.0, 0.0, 0.0, 0.0, 1.7632262323512712E9, 0.0, 2025-11-15 12:03:52.351
21.0, 755.0708414539695, -145.6204845746979, -165.27365884184837, -136.26699478551745, -0.03200000151991844, 0.19200000911951065, 1.0240000486373901, 0.0, 0.0, 0.0, 0.0, 0.0, 1.7632262323512712E9, 0.0, 2025-11-15 12:03:52.351
22.0, 520.4313881839626, 74.91019611246884, 18.699499778449535, 14.177960732020438, -0.03200000151991844, 0.19200000911951065, 1.0240000486373901, 0.0, 0.0, 0.0, 0.0, 0.0, 1.7632262323619406E9, 0.0, 2025-11-15 12:03:52.361
22.0, 336.67514376109466, -72.17632924485952, -82.60691022127867, -58.607972205616534, -0.03200000151991844, 0.19200000911951065, 1.0240000486373901, 0.0, 0.0, 0.0, 0.0, 0.0, 1.7632262323619406E9, 0.0, 2025-11-15 12:03:52.361
23.0, 249.68507079174742, -162.2256403779611, -177.3759750984609, -153.16012288536876, -0.03200000151991844, 0.19200000911951065, 1.0240000486373901, 0.0, 0.0, 0.0, 0.0, 0.0, 1.7632262323775933E9, 0.0, 2025-11-15 12:03:52.377
23.0, 431.8967365329154, -1.5034397821873426, -56.33037313260138, -44.26545587554574, -0.03200000151991844, 0.19200000911951065, 1.0240000486373901, 0.0, 0.0, 0.0, 0.0, 0.0, 1.7632262323775933E9, 0.0, 2025-11-15 12:03:52.377
24.0, 433.7330274111591, 17.76078488957137, -3.3172912606969476, 13.740392437204719, -0.03200000151991844, 0.19200000911951065, 1.0240000486373901, 0.0, 0.0, 0.0, 0.0, 0.0, 1.7632262323782988E9, 0.0, 2025-11-15 12:03:52.378
24.0, 231.83826820319518, -163.27281236555427, -168.32541720569134, -135.84812599048018, -0.03200000151991844, 0.19200000911951065, 1.0240000486373901, 0.0, 0.0, 0.0, 0.0, 0.0, 1.7632262323782988E9, 0.0, 2025-11-15 12:03:52.378
25.0, 326.8130275779404, -87.33414376527071, -119.97225067857653, -99.55987672042102, -0.03200000151991844, 0.19200000911951065, 1.0240000486373901, 0.0, 0.0, 0.0, 0.0, 0.0, 1.763226232391938E9, 0.0, 2025-11-15 12:03:52.391
25.0, 525.2670788266696, 85.51281248684973, 44.74416306987405, 47.272335439920425, -0.03200000151991844, 0.19200000911951065, 1.0240000486373901, 0.0, 0.0, 0.0, 0.0, 0.0, 1.763226232391938E9, 0.0, 2025-11-15 12:03:52.391
26.0, 737.2763974647969, -144.58079238701612, -141.11764502804726, -125.59332031197846, -0.03200000151991844, 0.19200000911951065, 1.0240000486373901, 0.0, 0.0, 0.0, 0.0, 0.0, 1.7632262324076087E9, 0.0, 2025-11-15 12:03:52.407
26.0, 759.0613147066906, -139.81989974342287, -161.8927892819047, -140.68381663318723, -0.03200000151991844, 0.19200000911951065, 1.0240000486373901, 0.0, 0.0, 0.0, 0.0, 0.0, 1.7632262324076087E9, 0.0, 2025-11-15 12:03:52.407
27.0, 525.4278945247643, 79.60003065690398, 13.512258539907634, 22.15516733750701, -0.03200000151991844, 0.19200000911951065, 1.0240000486373901, 0.0, 0.0, 0.0, 0.0, 0.0, 1.7632262324083073E9, 0.0, 2025-11-15 12:03:52.408
27.0, 326.71579017909244, -72.01925344672054, -83.42220841161907, -56.01996143627912, -0.03200000151991844, 0.19200000911951065, 1.0240000486373901, 0.0, 0.0, 0.0, 0.0, 0.0, 1.7632262324083073E9, 0.0, 2025-11-15 12:03:52.408
28.0, 243.97050365945324, -163.20923406630754, -181.79653684608638, -152.76743339002132, -0.03200000151991844, 0.19200000911951065, 1.0240000486373901, 0.0, 0.0, 0.0, 0.0, 0.0, 1.7632262324219573E9, 0.0, 2025-11-15 12:03:52.421
28.0, 435.4571212907322, -3.788518655113876, -55.94142353720963, -43.40901878569275, -0.03200000151991844, 0.19200000911951065, 1.0240000486373901, 0.0, 0.0, 0.0, 0.0, 0.0, 1.7632262324219573E9, 0.0, 2025-11-15 12:03:52.421
29.0, 445.70070726936683, 26.807602882385254, 2.3897960716858506, 16.87068870011717, -0.03200000151991844, 0.19200000911951065, 1.0240000486373901, 0.0, 0.0, 0.0, 0.0, 0.0, 1.763226232437588E9, 0.0, 2025-11-15 12:03:52.437
29.0, 233.52496308321133, -162.16954187862575, -166.5265253270045, -138.48849535919726, -0.03200000151991844, 0.19200000911951065, 1.0240000486373901, 0.0, 0.0, 0.0, 0.0, 0.0, 1.763226232437588E9, 0.0, 2025-11-15 12:03:52.437
30.0, 329.6590914442204, -93.47879939246923, -131.80903403833508, -108.24018451757729, -0.03200000151991844, 0.19200000911951065, 1.0240000486373901, 0.0, 0.0, 0.0, 0.0, 0.0, 1.76322623243829E9, 0.0, 2025-11-15 12:03:52.438
30.0, 524.2161669391207, 86.99007296934724, 43.637152682989836, 56.08353973552585, -0.03200000151991844, 0.19200000911951065, 1.0240000486373901, 0.0, 0.0, 0.0, 0.0, 0.0, 1.76322623243829E9, 0.0, 2025-11-15 12:03:52.438
31.0, 757.2699026279151, -133.75378201529384, -134.78973430301994, -111.49015757907182, -0.03200000151991844, 0.19200000911951065, 1.0240000486373901, 0.0, 0.0, 0.0, 0.0, 0.0, 1.76322623245198E9, 0.0, 2025-11-15 12:03:52.451
31.0, 748.9935040259734, -159.2262406134978, -177.81728329323232, -152.87215058878064, -0.03200000151991844, 0.19200000911951065, 1.0240000486373901, 0.0, 0.0, 0.0, 0.0, 0.0, 1.76322623245198E9, 0.0, 2025-11-15 12:03:52.451
32.0, 514.3465709560551, 75.58711800444871, 16.010511710308492, 21.093035750091076, -0.03200000151991844, 0.19200000911951065, 1.0240000486373901, 0.0, 0.0, 0.0, 0.0, 0.0, 1.7632262324675913E9, 0.0, 2025-11-15 12:03:52.467
32.0, 343.9230698752217, -65.88955741934478, -78.34342427179217, -57.84503261465579, -0.03200000151991844, 0.19200000911951065, 1.0240000486373901, 0.0, 0.0, 0.0, 0.0, 0.0, 1.7632262324675913E9, 0.0, 2025-11-15 12:03:52.467
33.0, 241.21419739210978, -167.47645991574973, -184.3060097163543, -149.2182683320716, -0.03200000151991844, 0.19200000911951065, 1.0240000486373901, 0.0, 0.0, 0.0, 0.0, 0.0, 1.763226232468331E9, 0.0, 2025-11-15 12:03:52.468
33.0, 435.68525518802926, 3.3509503602981567, -52.42217767890543, -27.682739472016692, -0.03200000151991844, 0.19200000911951065, 1.0240000486373901, 0.0, 0.0, 0.0, 0.0, 0.0, 1.763226232468331E9, 0.0, 2025-11-15 12:03:52.468
34.0, 449.2760516270064, 24.028857215307653, -2.3935359716415405, 15.127895320765674, -0.03200000151991844, 0.19200000911951065, 1.0240000486373901, 0.0, 0.0, 0.0, 0.0, 0.0, 1.76322623248192E9, 0.0, 2025-11-15 12:03:52.481
34.0, 234.16822587559, -166.1936742309481, -174.9001613277942, -140.1377912396565, -0.03200000151991844, 0.19200000911951065, 1.0240000486373901, 0.0, 0.0, 0.0, 0.0, 0.0, 1.76322623248192E9, 0.0, 2025-11-15 12:03:52.481
35.0, 342.7076023896225, -89.21905334293842, -129.47533646598458, -113.51718335505575, -0.03200000151991844, 0.19200000911951065, 1.0240000486373901, 0.0, 0.0, 0.0, 0.0, 0.0, 1.7632262324975915E9, 0.0, 2025-11-15 12:03:52.497
35.0, 531.2883177553304, 85.8905423823744, 36.2022315710783, 47.04794144257903, -0.03200000151991844, 0.19200000911951065, 1.0240000486373901, 0.0, 0.0, 0.0, 0.0, 0.0, 1.7632262324975915E9, 0.0, 2025-11-15 12:03:52.497
36.0, 754.5958741595969, -138.65305095724761, -138.93728335388005, -114.08564814832062, -0.03200000151991844, 0.19200000911951065, 1.0240000486373901, 0.0, 0.0, 0.0, 0.0, 0.0, 1.7632262324982884E9, 0.0, 2025-11-15 12:03:52.498
36.0, 749.8761204155162, -154.7794995661825, -178.24737178813666, -149.177129432559, -0.03200000151991844, 0.19200000911951065, 1.0240000486373901, 0.0, 0.0, 0.0, 0.0, 0.0, 1.7632262324982884E9, 0.0, 2025-11-15 12:03:52.498
37.0, 989.2184978798032, 54.70351665187627, -2.8273643665015697, 9.577883786521852, -0.03200000151991844, 0.19200000911951065, 1.0240000486373901, 0.0, 0.0, 0.0, 0.0, 0.0, 1.7632262325119412E9, 0.0, 2025-11-15 12:03:52.511
37.0, 827.8642541915178, -65.95313571859151, -77.48698718193918, -56.74550202768296, -0.03200000151991844, 0.19200000911951065, 1.0240000486373901, 0.0, 0.0, 0.0, 0.0, 0.0, 1.7632262325119412E9, 0.0, 2025-11-15 12:03:52.511
38.0, 741.4800450149924, -160.93537489324808, -175.083416425623, -144.5172140877694, -0.03200000151991844, 0.19200000911951065, 1.0240000486373901, 0.0, 0.0, 0.0, 0.0, 0.0, 1.7632262325276978E9, 0.0, 2025-11-15 12:03:52.527
38.0, 900.6202679295093, -24.91147360485047, -77.1129971863702, -54.25472865719348, -0.03200000151991844, 0.19200000911951065, 1.0240000486373901, 0.0, 0.0, 0.0, 0.0, 0.0, 1.7632262325276978E9, 0.0, 2025-11-15 12:03:52.527
39.0, 922.8764125658199, 10.86066947132349, -18.037537486292422, 5.045125040225685, -0.03200000151991844, 0.19200000911951065, 1.0240000486373901, 0.0, 0.0, 0.0, 0.0, 0.0, 1.7632262325283723E9, 0.0, 2025-11-15 12:03:52.528
39.0, 745.115227771923, -147.80084624886513, -163.77395895961672, -134.41200440749526, -0.03200000151991844, 0.19200000911951065, 1.0240000486373901, 0.0, 0.0, 0.0, 0.0, 0.0, 1.7632262325283723E9, 0.0, 2025-11-15 12:03:52.528
40.0, 831.8472476443276, -89.04701794497669, -127.3922121906653, -97.00178515072912, -0.03200000151991844, 0.19200000911951065, 1.0240000486373901, 0.0, 0.0, 0.0, 0.0, 0.0, 1.7632262325419707E9, 0.0, 2025-11-15 12:03:52.541
40.0, 968.2638384280726, 44.96481716725975, 2.614190069027245, 20.14684106130153, -0.03200000151991844, 0.19200000911951065, 1.0240000486373901, 0.0, 0.0, 0.0, 0.0, 0.0, 1.7632262325419707E9, 0.0, 2025-11-15 12:03:52.541
41.0, 773.2579749384895, -119.98721027839929, -128.19629068113863, -104.69101945962757, -0.03200000151991844, 0.19200000911951065, 1.0240000486373901, 0.0, 0.0, 0.0, 0.0, 0.0, 1.7632262325576358E9, 0.0, 2025-11-15 12:03:52.557
41.0, 770.1613377751783, -137.38522487226874, -164.06567115616053, -139.5431471467018, -0.03200000151991844, 0.19200000911951065, 1.0240000486373901, 0.0, 0.0, 0.0, 0.0, 0.0, 1.7632262325576358E9, 0.0, 2025-11-15 12:03:52.557
42.0, 958.4466010443866, 27.966971868649125, -21.164093849249184, -2.1990611739456654, -0.03200000151991844, 0.19200000911951065, 1.0240000486373901, 0.0, 0.0, 0.0, 0.0, 0.0, 1.7632262325583627E9, 0.0, 2025-11-15 12:03:52.558
42.0, 854.0360740814358, -52.126725582405925, -62.91259705461562, -47.298514739610255, -0.03200000151991844, 0.19200000911951065, 1.0240000486373901, 0.0, 0.0, 0.0, 0.0, 0.0, 1.7632262325583627E9, 0.0, 2025-11-15 12:03:52.558
43.0, 762.5244620656595, -140.14901093952358, -161.1186299910769, -144.72290858533233, -0.03200000151991844, 0.19200000911951065, 1.0240000486373901, 0.0, 0.0, 0.0, 0.0, 0.0, 1.7632262325719447E9, 0.0, 2025-11-15 12:03:52.571
43.0, 895.1899331938475, -30.061315843835473, -80.14231615047902, -57.403724419884384, -0.03200000151991844, 0.19200000911951065, 1.0240000486373901, 0.0, 0.0, 0.0, 0.0, 0.0, 1.7632262325719447E9, 0.0, 2025-11-15 12:03:52.571
44.0, 928.1795907029882, 4.794551743194461, -24.316829511895776, 5.950180829502642, -0.03200000151991844, 0.19200000911951065, 1.0240000486373901, 0.0, 0.0, 0.0, 0.0, 0.0, 1.7632262325876577E9, 0.0, 2025-11-15 12:03:52.587
44.0, 753.0325959781185, -136.48016908299178, -151.3649709066376, -122.23115025181323, -0.03200000151991844, 0.19200000911951065, 1.0240000486373901, 0.0, 0.0, 0.0, 0.0, 0.0, 1.7632262325876577E9, 0.0, 2025-11-15 12:03:52.587
45.0, 838.6613453635946, -87.4500806638971, -124.5760675240308, -104.31702946405858, -0.03200000151991844, 0.19200000911951065, 1.0240000486373901, 0.0, 0.0, 0.0, 0.0, 0.0, 1.7632262325883412E9, 0.0, 2025-11-15 12:03:52.588
45.0, 958.7570127407089, 41.44557130895555, 3.2873720610514283, 24.14853401388973, -0.03200000151991844, 0.19200000911951065, 1.0240000486373901, 0.0, 0.0, 0.0, 0.0, 0.0, 1.7632262325883412E9, 0.0, 2025-11-15 12:03:52.588
46.0, 792.0584520157427, -108.41221991553903, -114.4596381438896, -92.51390520390123, -0.03200000151991844, 0.19200000911951065, 1.0240000486373901, 0.0, 0.0, 0.0, 0.0, 0.0, 1.7632262326019323E9, 0.0, 2025-11-15 12:03:52.601
46.0, 774.2415686268359, -130.85909944958985, -155.7443937547505, -128.22620988078415, -0.03200000151991844, 0.19200000911951065, 1.0240000486373901, 0.0, 0.0, 0.0, 0.0, 0.0, 1.7632262326019323E9, 0.0, 2025-11-15 12:03:52.601
47.0, 952.5899177137762, 27.72761827148497, -27.70517887175083, 0.5796844931319356, -0.03200000151991844, 0.19200000911951065, 1.0240000486373901, 0.0, 0.0, 0.0, 0.0, 0.0, 1.763226232617642E9, 0.0, 2025-11-15 12:03:52.617
47.0, 848.4898024471477, -54.086433159187436, -64.77506723254919, -40.26002302300185, -0.03200000151991844, 0.19200000911951065, 1.0240000486373901, 0.0, 0.0, 0.0, 0.0, 0.0, 1.763226232617642E9, 0.0, 2025-11-15 12:03:52.617
48.0, 763.3659395556897, -137.9162906659767, -158.36232372373343, -129.81192746199667, -0.03200000151991844, 0.19200000911951065, 1.0240000486373901, 0.0, 0.0, 0.0, 0.0, 0.0, 1.7632262326183453E9, 0.0, 2025-11-15 12:03:52.618
48.0, 897.0262240720913, -19.163247372955084, -67.42665630113333, -42.93031159136444, -0.03200000151991844, 0.19200000911951065, 1.0240000486373901, 0.0, 0.0, 0.0, 0.0, 0.0, 1.7632262326183453E9, 0.0, 2025-11-15 12:03:52.618
49.0, 924.6079862453043, 14.679107326082885, -7.805171207524836, 9.106656392104924, -0.03200000151991844, 0.19200000911951065, 1.0240000486373901, 0.0, 0.0, 0.0, 0.0, 0.0, 1.763226232631979E9, 0.0, 2025-11-15 12:03:52.631
49.0, 765.8193139266223, -133.1404384225607, -141.86188511922956, -120.80998826865107, -0.03200000151991844, 0.19200000911951065, 1.0240000486373901, 0.0, 0.0, 0.0, 0.0, 0.0, 1.763226232631979E9, 0.0, 2025-11-15 12:03:52.631
50.0, 824.2739502340555, -89.31255084183067, -127.75124258641154, -108.65905331261456, -0.03200000151991844, 0.19200000911951065, 1.0240000486373901, 0.0, 0.0, 0.0, 0.0, 0.0, 1.763226232647676E9, 0.0, 2025-11-15 12:03:52.647
50.0, 970.960306296125, 47.676244635134935, 9.491866087540984, 31.74053092394024, -0.03200000151991844, 0.19200000911951065, 1.0240000486373901, 0.0, 0.0, 0.0, 0.0, 0.0, 1.763226232647676E9, 0.0, 2025-11-15 12:03:52.647
51.0, 794.5492253862321, -105.45021915063262, -118.95125799067318, -97.48797214496881, -0.03200000151991844, 0.19200000911951065, 1.0240000486373901, 0.0, 0.0, 0.0, 0.0, 0.0, 1.7632262326483731E9, 0.0, 2025-11-15 12:03:52.648
51.0, 785.1770360972732, -125.07721411809325, -150.20560192037374, -130.52250845357776, -0.03200000151991844, 0.19200000911951065, 1.0240000486373901, 0.0, 0.0, 0.0, 0.0, 0.0, 1.7632262326483731E9, 0.0, 2025-11-15 12:03:52.648
52.0, 969.5728034125641, 35.173759083263576, -13.530958039686084, 7.034751816652715, -0.03200000151991844, 0.19200000911951065, 1.0240000486373901, 0.0, 0.0, 0.0, 0.0, 0.0, 1.7632262326619053E9, 0.0, 2025-11-15 12:03:52.661
52.0, 844.8733191899955, -51.45728349033743, -62.549826758913696, -42.34688719827682, -0.03200000151991844, 0.19200000911951065, 1.0240000486373901, 0.0, 0.0, 0.0, 0.0, 0.0, 1.7632262326619053E9, 0.0, 2025-11-15 12:03:52.661
53.0, 767.8425998026505, -131.03861464746296, -148.8816773360595, -128.41320487856865, -0.03200000151991844, 0.19200000911951065, 1.0240000486373901, 0.0, 0.0, 0.0, 0.0, 0.0, 1.7632262326777248E9, 0.0, 2025-11-15 12:03:52.677
53.0, 893.6004757126793, -20.793843753635883, -67.5500729996711, -50.36897260323167, -0.03200000151991844, 0.19200000911951065, 1.0240000486373901, 0.0, 0.0, 0.0, 0.0, 0.0, 1.7632262326777248E9, 0.0, 2025-11-15 12:03:52.677
54.0, 913.7061778744683, 9.316090789623559, -14.245278931222856, -0.7330203913152218, -0.03200000151991844, 0.19200000911951065, 1.0240000486373901, 0.0, 0.0, 0.0, 0.0, 0.0, 1.7632262326783752E9, 0.0, 2025-11-15 12:03:52.678
54.0, 762.4197448669001, -128.53288167715073, -142.56872621085495, -126.77886859793216, -0.03200000151991844, 0.19200000911951065, 1.0240000486373901, 0.0, 0.0, 0.0, 0.0, 0.0, 1.7632262326783752E9, 0.0, 2025-11-15 12:03:52.678
55.0, 823.6980056408793, -86.15607527922839, -120.58185437135398, -104.94533265661448, -0.03200000151991844, 0.19200000911951065, 1.0240000486373901, 0.0, 0.0, 0.0, 0.0, 0.0, 1.763226232691913E9, 0.0, 2025-11-15 12:03:52.691
55.0, 963.929294379428, 45.77637545764446, 9.577883786521852, 26.332635588012636, -0.03200000151991844, 0.19200000911951065, 1.0240000486373901, 0.0, 0.0, 0.0, 0.0, 0.0, 1.763226232691913E9, 0.0, 2025-11-15 12:03:52.691
56.0, 793.9807605929673, -101.20169280096889, -110.74217758793384, -97.08032304979861, -0.03200000151991844, 0.19200000911951065, 1.0240000486373901, 0.0, 0.0, 0.0, 0.0, 0.0, 1.7632262327077343E9, 0.0, 2025-11-15 12:03:52.707
56.0, 793.4235154995695, -113.54336265474558, -140.1789301391691, -113.73035765253007, -0.03200000151991844, 0.19200000911951065, 1.0240000486373901, 0.0, 0.0, 0.0, 0.0, 0.0, 1.7632262327077343E9, 0.0, 2025-11-15 12:03:52.707
57.0, 955.450941179879, 28.378360863775015, -19.092189273796976, -2.2813389729708433, -0.03200000151991844, 0.19200000911951065, 1.0240000486373901, 0.0, 0.0, 0.0, 0.0, 0.0, 1.763226232708377E9, 0.0, 2025-11-15 12:03:52.708
57.0, 843.4858163064346, -49.8753058090806, -60.578899482265115, -54.479122654534876, -0.03200000151991844, 0.19200000911951065, 1.0240000486373901, 0.0, 0.0, 0.0, 0.0, 0.0, 1.763226232708377E9, 0.0, 2025-11-15 12:03:52.708
58.0, 771.4777825595811, -137.4749824712053, -156.84392434172332, -142.38547111302614, -0.03200000151991844, 0.19200000911951065, 1.0240000486373901, 0.0, 0.0, 0.0, 0.0, 0.0, 1.7632262327219226E9, 0.0, 2025-11-15 12:03:52.721
58.0, 895.0066780960187, -22.667533631436527, -71.5891649518162, -58.02080791257322, -0.03200000151991844, 0.19200000911951065, 1.0240000486373901, 0.0, 0.0, 0.0, 0.0, 0.0, 1.7632262327219226E9, 0.0, 2025-11-15 12:03:52.721
59.0, 916.2231305446476, 13.744132337160408, -11.492712563835084, 6.006279328837991, -0.03200000151991844, 0.19200000911951065, 1.0240000486373901, 0.0, 0.0, 0.0, 0.0, 0.0, 1.7632262327376473E9, 0.0, 2025-11-15 12:03:52.737
59.0, 766.6944505162537, -121.86464005615562, -135.5825930936262, -112.79164276365191, -0.03200000151991844, 0.19200000911951065, 1.0240000486373901, 0.0, 0.0, 0.0, 0.0, 0.0, 1.7632262327376473E9, 0.0, 2025-11-15 12:03:52.737
60.0, 823.1968590468168, -86.2607924779877, -123.70841073431075, -103.52043077349663, -0.03200000151991844, 0.19200000911951065, 1.0240000486373901, 0.0, 0.0, 0.0, 0.0, 0.0, 1.7632262327383504E9, 0.0, 2025-11-15 12:03:52.738
60.0, 979.0945886997506, 58.65285100508481, 15.647741414606571, 39.9832704262808, -0.03200000151991844, 0.19200000911951065, 1.0240000486373901, 0.0, 0.0, 0.0, 0.0, 0.0, 1.7632262327383504E9, 0.0, 2025-11-15 12:03:52.738
61.0, 790.7532269312069, -97.23739884793758, -110.24851079378277, -100.4911118093878, -0.03200000151991844, 0.19200000911951065, 1.0240000486373901, 0.0, 0.0, 0.0, 0.0, 0.0, 1.7632262327519686E9, 0.0, 2025-11-15 12:03:52.751
61.0, 782.2711338317022, -116.59138111863285, -148.82183893676847, -135.82194669079036, -0.03200000151991844, 0.19200000911951065, 1.0240000486373901, 0.0, 0.0, 0.0, 0.0, 0.0, 1.7632262327519686E9, 0.0, 2025-11-15 12:03:52.751
62.0, 954.908655686304, 32.6829857127741, -18.830396276898682, -1.2827856848016381, -0.03200000151991844, 0.19200000911951065, 1.0240000486373901, 0.0, 0.0, 0.0, 0.0, 0.0, 1.763226232767633E9, 0.0, 2025-11-15 12:03:52.767
62.0, 846.2683018734679, -48.00535583123565, -62.07111956458539, -44.444971073418856, -0.03200000151991844, 0.19200000911951065, 1.0240000486373901, 0.0, 0.0, 0.0, 0.0, 0.0, 1.763226232767633E9, 0.0, 2025-11-15 12:03:52.767
63.0, 763.0069091599435, -136.42781048361212, -155.63967655599117, -134.13151191081852, -0.03200000151991844, 0.19200000911951065, 1.0240000486373901, 0.0, 0.0, 0.0, 0.0, 0.0, 1.7632262327683456E9, 0.0, 2025-11-15 12:03:52.768
63.0, 893.5219378136098, -24.08869561459869, -73.21602143254131, -53.54788756556809, -0.03200000151991844, 0.19200000911951065, 1.0240000486373901, 0.0, 0.0, 0.0, 0.0, 0.0, 1.7632262327683456E9, 0.0, 2025-11-15 12:03:52.768
64.0, 924.5070089465007, 22.790950329974294, -2.647849168628454, 22.226225436665118, -0.03200000151991844, 0.19200000911951065, 1.0240000486373901, 0.0, 0.0, 0.0, 0.0, 0.0, 1.7632262327820227E9, 0.0, 2025-11-15 12:03:52.782
64.0, 771.7582750562578, -126.68163119908422, -138.23418216221035, -120.9857635665685, -0.03200000151991844, 0.19200000911951065, 1.0240000486373901, 0.0, 0.0, 0.0, 0.0, 0.0, 1.7632262327820227E9, 0.0, 2025-11-15 12:03:52.782
65.0, 818.6678402004763, -84.86580979451537, -119.96851077862084, -103.4942514738068, -0.03200000151991844, 0.19200000911951065, 1.0240000486373901, 0.0, 0.0, 0.0, 0.0, 0.0, 1.763226232797638E9, 0.0, 2025-11-15 12:03:52.797
65.0, 978.2381516098976, 51.63305878825486, 16.84450940042734, 38.53218924347311, -0.03200000151991844, 0.19200000911951065, 1.0240000486373901, 0.0, 0.0, 0.0, 0.0, 0.0, 1.763226232797638E9, 0.0, 2025-11-15 12:03:52.797
66.0, 782.1439772332087, -99.74687171820551, -109.03678320813924, -94.81394367665052, -0.03200000151991844, 0.19200000911951065, 1.0240000486373901, 0.0, 0.0, 0.0, 0.0, 0.0, 1.763226232798344E9, 0.0, 2025-11-15 12:03:52.798
66.0, 771.20102996286, -126.27024220395833, -154.43542877025902, -131.8015542384237, -0.03200000151991844, 0.19200000911951065, 1.0240000486373901, 0.0, 0.0, 0.0, 0.0, 0.0, 1.763226232798344E9, 0.0, 2025-11-15 12:03:52.798
67.0, 948.7340808594599, 31.145886830985546, -22.48427853360772, -6.215713726356626, -0.03200000151991844, 0.19200000911951065, 1.0240000486373901, 0.0, 0.0, 0.0, 0.0, 0.0, 1.763226232811994E9, 0.0, 2025-11-15 12:03:52.811
67.0, 858.7894869251177, -38.66682564187795, -57.92731041368097, -44.57960747182369, -0.03200000151991844, 0.19200000911951065, 1.0240000486373901, 0.0, 0.0, 0.0, 0.0, 0.0, 1.763226232811994E9, 0.0, 2025-11-15 12:03:52.811
68.0, 767.644385104999, -131.29666774440557, -146.46196206472814, -132.3999382313341, -0.03200000151991844, 0.19200000911951065, 1.0240000486373901, 0.0, 0.0, 0.0, 0.0, 0.0, 1.763226232827634E9, 0.0, 2025-11-15 12:03:52.827
68.0, 893.121768518351, -22.035490538924932, -68.94131578318775, -46.9843631433323, -0.03200000151991844, 0.19200000911951065, 1.0240000486373901, 0.0, 0.0, 0.0, 0.0, 0.0, 1.763226232827634E9, 0.0, 2025-11-15 12:03:52.827
69.0, 916.3054083436728, 13.347702941857278, -14.982039222493768, 2.288818772882223, -0.03200000151991844, 0.19200000911951065, 1.0240000486373901, 0.0, 0.0, 0.0, 0.0, 0.0, 1.7632262328283322E9, 0.0, 2025-11-15 12:03:52.828
69.0, 755.3027152512223, -129.7670486625284, -142.01148111745715, -131.22934954520315, -0.03200000151991844, 0.19200000911951065, 1.0240000486373901, 0.0, 0.0, 0.0, 0.0, 0.0, 1.7632262328283322E9, 0.0, 2025-11-15 12:03:52.828
70.0, 825.1640464235097, -84.8545900946483, -121.89081935584545, -97.85448234062642, -0.03200000151991844, 0.19200000911951065, 1.0240000486373901, 0.0, 0.0, 0.0, 0.0, 0.0, 1.7632262328583603E9, 0.0, 2025-11-15 12:03:52.858
70.0, 972.6096021765843, 51.08703339472413, 15.2662716191262, 36.65101956576109, -0.03200000151991844, 0.19200000911951065, 1.0240000486373901, 0.0, 0.0, 0.0, 0.0, 0.0, 1.7632262328583603E9, 0.0, 2025-11-15 12:03:52.858
71.0, 808.6411684192717, -94.8962214756757, -105.48387825023383, -85.09394369181246, -0.03200000151991844, 0.19200000911951065, 1.0240000486373901, 0.0, 0.0, 0.0, 0.0, 0.0, 1.7632262328590128E9, 0.0, 2025-11-15 12:03:52.859
71.0, 770.5278479708359, -127.22391669265926, -154.52892626915127, -137.41888397186995, -0.03200000151991844, 0.19200000911951065, 1.0240000486373901, 0.0, 0.0, 0.0, 0.0, 0.0, 1.7632262328590128E9, 0.0, 2025-11-15 12:03:52.859
72.0, 967.6280554356053, 32.63436701335013, -12.87273564748466, 7.438661011867225, -0.03200000151991844, 0.19200000911951065, 1.0240000486373901, 0.0, 0.0, 0.0, 0.0, 0.0, 1.763226232859764E9, 0.0, 2025-11-15 12:03:52.859
72.0, 852.5662933988497, -40.67141201812774, -52.945763672702014, -35.00546358525753, -0.03200000151991844, 0.19200000911951065, 1.0240000486373901, 0.0, 0.0, 0.0, 0.0, 0.0, 1.763226232859764E9, 0.0, 2025-11-15 12:03:52.859
73.0, 755.3700334504247, -136.40911098383367, -151.15179660916328, -133.8024007147178, -0.03200000151991844, 0.19200000911951065, 1.0240000486373901, 0.0, 0.0, 0.0, 0.0, 0.0, 1.763226232871972E9, 0.0, 2025-11-15 12:03:52.871
73.0, 894.7074860995635, -21.627841443754733, -70.12312416918576, -49.57237391266972, -0.03200000151991844, 0.19200000911951065, 1.0240000486373901, 0.0, 0.0, 0.0, 0.0, 0.0, 1.763226232871972E9, 0.0, 2025-11-15 12:03:52.871
74.0, 933.6323648383841, 21.437106546014547, -3.332250860519707, 8.713966896757483, -0.03200000151991844, 0.19200000911951065, 1.0240000486373901, 0.0, 0.0, 0.0, 0.0, 0.0, 1.763226232887642E9, 0.0, 2025-11-15 12:03:52.887
74.0, 753.8366744685918, -136.9214772777632, -145.79251997265965, -123.0576681420207, -0.03200000151991844, 0.19200000911951065, 1.0240000486373901, 0.0, 0.0, 0.0, 0.0, 0.0, 1.763226232887642E9, 0.0, 2025-11-15 12:03:52.887
75.0, 820.1451006829739, -87.50243926327676, -115.17769893538207, -96.44454005733132, -0.03200000151991844, 0.19200000911951065, 1.0240000486373901, 0.0, 0.0, 0.0, 0.0, 0.0, 1.763226232888328E9, 0.0, 2025-11-15 12:03:52.888
75.0, 973.5109180659056, 56.70810302812606, 14.06576373334974, 33.40104650426656, -0.03200000151991844, 0.19200000911951065, 1.0240000486373901, 0.0, 0.0, 0.0, 0.0, 0.0, 1.763226232888328E9, 0.0, 2025-11-15 12:03:52.888
76.0, 793.1093639032915, -102.22268548887223, -113.9809309495613, -103.01928417943418, -0.03200000151991844, 0.19200000911951065, 1.0240000486373901, 0.0, 0.0, 0.0, 0.0, 0.0, 1.7632262329020295E9, 0.0, 2025-11-15 12:03:52.902
76.0, 770.8906182665378, -128.69743727520108, -147.7709270492196, -135.12258539907634, -0.03200000151991844, 0.19200000911951065, 1.0240000486373901, 0.0, 0.0, 0.0, 0.0, 0.0, 1.7632262329020295E9, 0.0, 2025-11-15 12:03:52.902
77.0, 943.3710643230006, 21.74377834238112, -21.564263144508004, 2.8460638662800193, -0.03200000151991844, 0.19200000911951065, 1.0240000486373901, 0.0, 0.0, 0.0, 0.0, 0.0, 1.7632262329176347E9, 0.0, 2025-11-15 12:03:52.917
77.0, 848.4150044480339, -50.41385140269995, -65.01442082971334, -46.55427464842796, -0.03200000151991844, 0.19200000911951065, 1.0240000486373901, 0.0, 0.0, 0.0, 0.0, 0.0, 1.7632262329176347E9, 0.0, 2025-11-15 12:03:52.917
78.0, 743.0096640968695, -156.7429470429197, -174.28681773506105, -164.12550955545157, -0.03200000151991844, 0.19200000911951065, 1.0240000486373901, 0.0, 0.0, 0.0, 0.0, 0.0, 1.763226232918322E9, 0.0, 2025-11-15 12:03:52.918
78.0, 880.2078939713538, -34.455698291771114, -73.74708722624928, -49.81920730974525, -0.03200000151991844, 0.19200000911951065, 1.0240000486373901, 0.0, 0.0, 0.0, 0.0, 0.0, 1.763226232918322E9, 0.0, 2025-11-15 12:03:52.918
79.0, 916.7093175388873, 9.993012681603432, -10.808310871943831, 6.642062321305275, -0.03200000151991844, 0.19200000911951065, 1.0240000486373901, 0.0, 0.0, 0.0, 0.0, 0.0, 1.7632262329319625E9, 0.0, 2025-11-15 12:03:52.931
79.0, 753.2719495752826, -140.4369832361117, -153.61639067996293, -138.64183125738055, -0.03200000151991844, 0.19200000911951065, 1.0240000486373901, 0.0, 0.0, 0.0, 0.0, 0.0, 1.7632262329319625E9, 0.0, 2025-11-15 12:03:52.931
80.0, 833.67605872266, -84.71621379628778, -117.41789900884032, -100.88754120469093, -0.03200000151991844, 0.19200000911951065, 1.0240000486373901, 0.0, 0.0, 0.0, 0.0, 0.0, 1.7632262329476564E9, 0.0, 2025-11-15 12:03:52.947
80.0, 965.0587441660464, 44.32903417479247, 10.43806077633053, 36.96891106199473, -0.03200000151991844, 0.19200000911951065, 1.0240000486373901, 0.0, 0.0, 0.0, 0.0, 0.0, 1.7632262329476564E9, 0.0, 2025-11-15 12:03:52.947
81.0, 782.2262550322339, -110.93291248567402, -118.61466699466109, -105.06874935515225, -0.03200000151991844, 0.19200000911951065, 1.0240000486373901, 0.0, 0.0, 0.0, 0.0, 0.0, 1.7632262329483373E9, 0.0, 2025-11-15 12:03:52.948
81.0, 768.6167590934783, -139.29631374962628, -159.14396281447262, -136.70830298028886, -0.03200000151991844, 0.19200000911951065, 1.0240000486373901, 0.0, 0.0, 0.0, 0.0, 0.0, 1.7632262329483373E9, 0.0, 2025-11-15 12:03:52.948
82.0, 953.7642462998629, 24.253251212649047, -21.945732939988375, 5.0114659406244755, -0.03200000151991844, 0.19200000911951065, 1.0240000486373901, 0.0, 0.0, 0.0, 0.0, 0.0, 1.7632262329619825E9, 0.0, 2025-11-15 12:03:52.961
82.0, 850.7300025206059, -54.43798375502229, -62.594705558381975, -44.127079577185214, -0.03200000151991844, 0.19200000911951065, 1.0240000486373901, 0.0, 0.0, 0.0, 0.0, 0.0, 1.7632262329619825E9, 0.0, 2025-11-15 12:03:52.961
83.0, 751.2224843995646, -146.3983837654814, -159.23372041340917, -144.70794898550957, -0.03200000151991844, 0.19200000911951065, 1.0240000486373901, 0.0, 0.0, 0.0, 0.0, 0.0, 1.763226232977668E9, 0.0, 2025-11-15 12:03:52.977
83.0, 889.8605757569894, -32.72786451224238, -71.53680635243654, -52.9869025722146, -0.03200000151991844, 0.19200000911951065, 1.0240000486373901, 0.0, 0.0, 0.0, 0.0, 0.0, 1.763226232977668E9, 0.0, 2025-11-15 12:03:52.977
84.0, 931.7661547604948, 21.137914549559355, 1.5520584816113114, 13.68803383782506, -0.03200000151991844, 0.19200000911951065, 1.0240000486373901, 0.0, 0.0, 0.0, 0.0, 0.0, 1.763226232978331E9, 0.0, 2025-11-15 12:03:52.978
84.0, 760.299221592024, -132.3176604323089, -142.82677930779755, -124.84534032084048, -0.03200000151991844, 0.19200000911951065, 1.0240000486373901, 0.0, 0.0, 0.0, 0.0, 0.0, 1.763226232978331E9, 0.0, 2025-11-15 12:03:52.978
85.0, 825.1715262234211, -85.1163830915466, -114.78500944003463, -96.85592905245721, -0.03200000151991844, 0.19200000911951065, 1.0240000486373901, 0.0, 0.0, 0.0, 0.0, 0.0, 1.7632262329919505E9, 0.0, 2025-11-15 12:03:52.991
85.0, 972.8190365741029, 54.03407455980778, 15.385948417708278, 33.52072330284864, -0.03200000151991844, 0.19200000911951065, 1.0240000486373901, 0.0, 0.0, 0.0, 0.0, 0.0, 1.7632262329919505E9, 0.0, 2025-11-15 12:03:52.991
86.0, 814.6025689486414, -89.51824533939362, -99.27938422374427, -93.60969589091837, -0.03200000151991844, 0.19200000911951065, 1.0240000486373901, 0.0, 0.0, 0.0, 0.0, 0.0, 1.7632262330076308E9, 0.0, 2025-11-15 12:03:53.007
86.0, 756.8697333326563, -131.6594380401075, -150.78902631346136, -131.7678951388225, -0.03200000151991844, 0.19200000911951065, 1.0240000486373901, 0.0, 0.0, 0.0, 0.0, 0.0, 1.7632262330076308E9, 0.0, 2025-11-15 12:03:53.007
87.0, 955.1629688832909, 31.32540202885866, -14.020884933881462, 4.899268941953778, -0.03200000151991844, 0.19200000911951065, 1.0240000486373901, 0.0, 0.0, 0.0, 0.0, 0.0, 1.763226233008319E9, 0.0, 2025-11-15 12:03:53.008
87.0, 855.7788674607873, -42.30574829876423, -53.44691026676446, -40.6863716179505, -0.03200000151991844, 0.19200000911951065, 1.0240000486373901, 0.0, 0.0, 0.0, 0.0, 0.0, 1.763226233008319E9, 0.0, 2025-11-15 12:03:53.008
88.0, 738.9780519446358, -151.50708710495383, -168.7816850002855, -148.79939953703433, -0.03200000151991844, 0.19200000911951065, 1.0240000486373901, 0.0, 0.0, 0.0, 0.0, 0.0, 1.7632262330219765E9, 0.0, 2025-11-15 12:03:53.021
88.0, 897.1571205705404, -27.937052669003606, -72.16510954499245, -55.27198144514114, -0.03200000151991844, 0.19200000911951065, 1.0240000486373901, 0.0, 0.0, 0.0, 0.0, 0.0, 1.7632262330219765E9, 0.0, 2025-11-15 12:03:53.021
89.0, 932.8769050473347, 21.010757951065898, 1.933528277091682, 18.53494418039918, -0.03200000151991844, 0.19200000911951065, 1.0240000486373901, 0.0, 0.0, 0.0, 0.0, 0.0, 1.7632262330376143E9, 0.0, 2025-11-15 12:03:53.037
89.0, 751.3533808980137, -136.3230932848528, -146.27870696689934, -132.41489783115685, -0.03200000151991844, 0.19200000911951065, 1.0240000486373901, 0.0, 0.0, 0.0, 0.0, 0.0, 1.7632262330376143E9, 0.0, 2025-11-15 12:03:53.037
90.0, 812.1978132771328, -97.5665100440383, -130.62348575238138, -113.74905715230852, -0.03200000151991844, 0.19200000911951065, 1.0240000486373901, 0.0, 0.0, 0.0, 0.0, 0.0, 1.7632262330383165E9, 0.0, 2025-11-15 12:03:53.038
90.0, 966.7080400465056, 47.18631774093956, 9.409588288515806, 28.898206957615912, -0.03200000151991844, 0.19200000911951065, 1.0240000486373901, 0.0, 0.0, 0.0, 0.0, 0.0, 1.7632262330383165E9, 0.0, 2025-11-15 12:03:53.038
91.0, 788.6214839564636, -105.70453234761953, -106.16454004216939, -96.1565677607432, -0.03200000151991844, 0.19200000911951065, 1.0240000486373901, 0.0, 0.0, 0.0, 0.0, 0.0, 1.7632262330519266E9, 0.0, 2025-11-15 12:03:53.051
91.0, 772.057467052713, -130.33551345579326, -155.8191917538643, -141.42805672436953, -0.03200000151991844, 0.19200000911951065, 1.0240000486373901, 0.0, 0.0, 0.0, 0.0, 0.0, 1.7632262330519266E9, 0.0, 2025-11-15 12:03:53.051
92.0, 952.3318646168336, 30.62230083718896, -18.650881079025567, -3.855836854316294, -0.03200000151991844, 0.19200000911951065, 1.0240000486373901, 0.0, 0.0, 0.0, 0.0, 0.0, 1.763226233067674E9, 0.0, 2025-11-15 12:03:53.067
92.0, 857.0317339459434, -48.491542825475335, -57.310226920992136, -46.65899184718728, -0.03200000151991844, 0.19200000911951065, 1.0240000486373901, 0.0, 0.0, 0.0, 0.0, 0.0, 1.763226233067674E9, 0.0, 2025-11-15 12:03:53.067
93.0, 750.7624767050147, -148.56378583982587, -168.6395688019693, -148.09255844540894, -0.03200000151991844, 0.19200000911951065, 1.0240000486373901, 0.0, 0.0, 0.0, 0.0, 0.0, 1.7632262330683234E9, 0.0, 2025-11-15 12:03:53.068
93.0, 887.6502948831767, -29.979038044810295, -72.34836464282125, -52.20526348147541, -0.03200000151991844, 0.19200000911951065, 1.0240000486373901, 0.0, 0.0, 0.0, 0.0, 0.0, 1.7632262330683234E9, 0.0, 2025-11-15 12:03:53.068
94.0, 934.5075014280155, 22.229965336620808, 1.323924584314227, 16.05165060982108, -0.03200000151991844, 0.19200000911951065, 1.0240000486373901, 0.0, 0.0, 0.0, 0.0, 0.0, 1.763226233082002E9, 0.0, 2025-11-15 12:03:53.082
94.0, 760.8153277859092, -136.839199478738, -151.02090011071414, -129.44167736638337, -0.03200000151991844, 0.19200000911951065, 1.0240000486373901, 0.0, 0.0, 0.0, 0.0, 0.0, 1.763226233082002E9, 0.0, 2025-11-15 12:03:53.082
95.0, 806.2289329478517, -99.70947271864861, -134.63265850488096, -114.53069624304771, -0.03200000151991844, 0.19200000911951065, 1.0240000486373901, 0.0, 0.0, 0.0, 0.0, 0.0, 1.7632262330976684E9, 0.0, 2025-11-15 12:03:53.097
95.0, 972.0112181836739, 47.717383534647524, 2.741346667520702, 26.22043858934194, -0.03200000151991844, 0.19200000911951065, 1.0240000486373901, 0.0, 0.0, 0.0, 0.0, 0.0, 1.7632262330976684E9, 0.0, 2025-11-15 12:03:53.097
96.0, 776.5490868994966, -113.37506715673953, -120.23404367547482, -108.82360891066492, -0.03200000151991844, 0.19200000911951065, 1.0240000486373901, 0.0, 0.0, 0.0, 0.0, 0.0, 1.76322623309839E9, 0.0, 2025-11-15 12:03:53.098
96.0, 770.4193908721209, -134.44192360714078, -160.03031910397112, -140.68755653314292, -0.03200000151991844, 0.19200000911951065, 1.0240000486373901, 0.0, 0.0, 0.0, 0.0, 0.0, 1.76322623309839E9, 0.0, 2025-11-15 12:03:53.098
97.0, 954.5907641900703, 30.678399336524308, -20.202939560636878, -0.7928587906062603, -0.03200000151991844, 0.19200000911951065, 1.0240000486373901, 0.0, 0.0, 0.0, 0.0, 0.0, 1.763226233112017E9, 0.0, 2025-11-15 12:03:53.112
97.0, 859.8067397130653, -38.62568674236536, -50.163278105668724, -44.81522116903216, -0.03200000151991844, 0.19200000911951065, 1.0240000486373901, 0.0, 0.0, 0.0, 0.0, 0.0, 1.763226233112017E9, 0.0, 2025-11-15 12:03:53.112
98.0, 750.4221458090469, -143.2905269023031, -162.94744106940925, -151.98953419923782, -0.03200000151991844, 0.19200000911951065, 1.0240000486373901, 0.0, 0.0, 0.0, 0.0, 0.0, 1.7632262331276746E9, 0.0, 2025-11-15 12:03:53.127
98.0, 892.736558822915, -24.294390112161636, -72.3670641425997, -53.9143977612257, -0.03200000151991844, 0.19200000911951065, 1.0240000486373901, 0.0, 0.0, 0.0, 0.0, 0.0, 1.7632262331276746E9, 0.0, 2025-11-15 12:03:53.127
99.0, 932.2336422549561, 19.963585963472724, -7.879969206638634, 6.522385522723198, -0.03200000151991844, 0.19200000911951065, 1.0240000486373901, 0.0, 0.0, 0.0, 0.0, 0.0, 1.7632262331283813E9, 0.0, 2025-11-15 12:03:53.128
99.0, 764.0166821479797, -133.510688518174, -145.94211597088724, -137.6170986695215, -0.03200000151991844, 0.19200000911951065, 1.0240000486373901, 0.0, 0.0, 0.0, 0.0, 0.0, 1.7632262331283813E9, 0.0, 2025-11-15 12:03:53.128
100.0, 812.014558179304, -99.14100792538375, -135.18242379836738, -121.43455156125128, -0.03200000151991844, 0.19200000911951065, 1.0240000486373901, 0.0, 0.0, 0.0, 0.0, 0.0, 1.7632262331433735E9, 0.0, 2025-11-15 12:03:53.143
100.0, 978.1783132106066, 60.111411987803876, 15.27001151908189, 34.93814538605511, -0.03200000151991844, 0.19200000911951065, 1.0240000486373901, 0.0, 0.0, 0.0, 0.0, 0.0, 1.7632262331433735E9, 0.0, 2025-11-15 12:03:53.143
0.0, -193.8932432527654, -106.02616374380887, -121.92260850546882, -107.83253542240709, -0.03200000151991844, 0.19200000911951065, 1.0240000486373901, 0.0, 0.0, 0.0, 0.0, 0.0, 1.7632262331440368E9, 0.0, 2025-11-15 12:03:53.144
1.0, -207.07265069661662, -126.90228529646993, -155.3535742093809, -147.0715657575056, -0.03200000151991844, 0.19200000911951065, 1.0240000486373901, 0.0, 0.0, 0.0, 0.0, 0.0, 1.7632262331569722E9, 0.0, 2025-11-15 12:03:53.156
1.0, -18.447056531440467, 40.61531351879239, -5.712697182316333, 9.144055391661823, -0.03200000151991844, 0.19200000911951065, 1.0240000486373901, 0.0, 0.0, 0.0, 0.0, 0.0, 1.7632262331569722E9, 0.0, 2025-11-15 12:03:53.156
2.0, -122.49481319868937, -37.39899955689907, -55.35238929418847, -48.02779523096979, -0.03200000151991844, 0.19200000911951065, 1.0240000486373901, 0.0, 0.0, 0.0, 0.0, 0.0, 1.7632262331726785E9, 0.0, 2025-11-15 12:03:53.172
2.0, -218.32974956324324, -135.00290860049427, -154.1306269238703, -143.01003440562636, -0.03200000151991844, 0.19200000911951065, 1.0240000486373901, 0.0, 0.0, 0.0, 0.0, 0.0, 1.7632262331726785E9, 0.0, 2025-11-15 12:03:53.172
3.0, -83.82424765685573, -21.036937250755727, -68.21016534185037, -49.250742516480386, -0.03200000151991844, 0.19200000911951065, 1.0240000486373901, 0.0, 0.0, 0.0, 0.0, 0.0, 1.7632262331733923E9, 0.0, 2025-11-15 12:03:53.173
3.0, -42.53201224608347, 25.41262019891292, 1.8269411283545196, 17.450373193249106, -0.03200000151991844, 0.19200000911951065, 1.0240000486373901, 0.0, 0.0, 0.0, 0.0, 0.0, 1.7632262331733923E9, 0.0, 2025-11-15 12:03:53.173
4.0, -222.44363951450214, -133.63410521671176, -143.65516714798287, -132.19424373377115, -0.03200000151991844, 0.19200000911951065, 1.0240000486373901, 0.0, 0.0, 0.0, 0.0, 0.0, 1.7632262331869917E9, 0.0, 2025-11-15 12:03:53.186
4.0, -162.5454018241726, -87.71561356075108, -126.99017294542864, -108.54311641398817, -0.03200000151991844, 0.19200000911951065, 1.0240000486373901, 0.0, 0.0, 0.0, 0.0, 0.0, 1.7632262331869917E9, 0.0, 2025-11-15 12:03:53.186
5.0, -0.4992766440846026, 62.73682175669819, 18.36851863237098, 36.445325068198144, -0.03200000151991844, 0.19200000911951065, 1.0240000486373901, 0.0, 0.0, 0.0, 0.0, 0.0, 1.763226233202669E9, 0.0, 2025-11-15 12:03:53.202
5.0, -180.15659071551636, -100.97729880362749, -110.34013834269717, -103.88694096915424, -0.03200000151991844, 0.19200000911951065, 1.0240000486373901, 0.0, 0.0, 0.0, 0.0, 0.0, 1.763226233202669E9, 0.0, 2025-11-15 12:03:53.202
6.0, -207.4840396917425, -128.3571063792333, -150.95919176144525, -135.5077950945124, -0.03200000151991844, 0.19200000911951065, 1.0240000486373901, 0.0, 0.0, 0.0, 0.0, 0.0, 1.763226233203389E9, 0.0, 2025-11-15 12:03:53.203
6.0, -26.121331240516156, 37.574774854816496, -13.274774892721325, 3.825917654670775, -0.03200000151991844, 0.19200000911951065, 1.0240000486373901, 0.0, 0.0, 0.0, 0.0, 0.0, 1.763226233203389E9, 0.0, 2025-11-15 12:03:53.203
7.0, -130.27754500648007, -45.222870264202356, -58.43406685767695, -43.7605693815276, -0.03200000151991844, 0.19200000911951065, 1.0240000486373901, 0.0, 0.0, 0.0, 0.0, 0.0, 1.7632262332169805E9, 0.0, 2025-11-15 12:03:53.216
7.0, -234.10090767638758, -143.810372996144, -160.33886085031554, -141.13260462787002, -0.03200000151991844, 0.19200000911951065, 1.0240000486373901, 0.0, 0.0, 0.0, 0.0, 0.0, 1.7632262332169805E9, 0.0, 2025-11-15 12:03:53.216
8.0, -89.47149658994749, -26.665486684069037, -77.93764512659982, -54.157491258345544, -0.03200000151991844, 0.19200000911951065, 1.0240000486373901, 0.0, 0.0, 0.0, 0.0, 0.0, 1.763226233232664E9, 0.0, 2025-11-15 12:03:53.232
8.0, -39.816844878252596, 27.39476717542857, -1.80824162857607, 11.818083859980106, -0.03200000151991844, 0.19200000911951065, 1.0240000486373901, 0.0, 0.0, 0.0, 0.0, 0.0, 1.763226233232664E9, 0.0, 2025-11-15 12:03:53.232
9.0, -225.9404459730722, -136.71952268015593, -148.4983375906013, -134.70745650399476, -0.03200000151991844, 0.19200000911951065, 1.0240000486373901, 0.0, 0.0, 0.0, 0.0, 0.0, 1.763226233233361E9, 0.0, 2025-11-15 12:03:53.233
9.0, -157.5788146830164, -83.86725650634617, -120.45656772283837, -103.49799137376249, -0.03200000151991844, 0.19200000911951065, 1.0240000486373901, 0.0, 0.0, 0.0, 0.0, 0.0, 1.763226233233361E9, 0.0, 2025-11-15 12:03:53.233
10.0, 5.981969979126006, 62.613405058160424, 23.89235086692497, 37.88518655113876, -0.03200000151991844, 0.19200000911951065, 1.0240000486373901, 0.0, 0.0, 0.0, 0.0, 0.0, 1.7632262332469416E9, 0.0, 2025-11-15 12:03:53.246
10.0, -182.01532099349424, -97.5291110444814, -108.21213526790962, -94.92614067532122, -0.03200000151991844, 0.19200000911951065, 1.0240000486373901, 0.0, 0.0, 0.0, 0.0, 0.0, 1.7632262332469416E9, 0.0, 2025-11-15 12:03:53.246
11.0, -206.81459759967402, -122.37700635008514, -149.5716888778843, -135.1038858992979, -0.03200000151991844, 0.19200000911951065, 1.0240000486373901, 0.0, 0.0, 0.0, 0.0, 0.0, 1.763226233262719E9, 0.0, 2025-11-15 12:03:53.262
11.0, -9.546094636898488, 47.87071943283081, -2.410365521442145, 16.391981505788863, -0.03200000151991844, 0.19200000911951065, 1.0240000486373901, 0.0, 0.0, 0.0, 0.0, 0.0, 1.763226233262719E9, 0.0, 2025-11-15 12:03:53.262
12.0, -111.79869932541624, -25.880107693374157, -44.76847241958603, -30.450265439227223, -0.03200000151991844, 0.19200000911951065, 1.0240000486373901, 0.0, 0.0, 0.0, 0.0, 0.0, 1.763226233263389E9, 0.0, 2025-11-15 12:03:53.263
12.0, -211.54557104362175, -119.77403598092496, -136.16414753673598, -113.43864545598626, -0.03200000151991844, 0.19200000911951065, 1.0240000486373901, 0.0, 0.0, 0.0, 0.0, 0.0, 1.763226233263389E9, 0.0, 2025-11-15 12:03:53.263
13.0, -77.72821072908118, -6.679461320862174, -49.140415467787534, -31.3478414285928, -0.03200000151991844, 0.19200000911951065, 1.0240000486373901, 0.0, 0.0, 0.0, 0.0, 0.0, 1.763226233276989E9, 0.0, 2025-11-15 12:03:53.276
13.0, -32.32582526700571, 52.37729887943715, 28.585925311315805, 38.12454014830291, -0.03200000151991844, 0.19200000911951065, 1.0240000486373901, 0.0, 0.0, 0.0, 0.0, 0.0, 1.763226233276989E9, 0.0, 2025-11-15 12:03:53.276
14.0, -196.05490542715415, -98.8231164291501, -107.74838767340407, -92.27455160673708, -0.03200000151991844, 0.19200000911951065, 1.0240000486373901, 0.0, 0.0, 0.0, 0.0, 0.0, 1.7632262332927265E9, 0.0, 2025-11-15 12:03:53.292
14.0, -148.53947649011388, -62.34413226135075, -93.8396997381933, -74.21457472071052, -0.03200000151991844, 0.19200000911951065, 1.0240000486373901, 0.0, 0.0, 0.0, 0.0, 0.0, 1.7632262332927265E9, 0.0, 2025-11-15 12:03:53.292
15.0, 12.66517119994387, 85.62874938547611, 51.481592840049416, 80.15353585034609, -0.03200000151991844, 0.19200000911951065, 1.0240000486373901, 0.0, 0.0, 0.0, 0.0, 0.0, 1.763226233293384E9, 0.0, 2025-11-15 12:03:53.293
15.0, -170.73952262708917, -73.17488253302872, -83.45025766128674, -72.2586070438847, -0.03200000151991844, 0.19200000911951065, 1.0240000486373901, 0.0, 0.0, 0.0, 0.0, 0.0, 1.763226233293384E9, 0.0, 2025-11-15 12:03:53.293
16.0, -181.92556339455768, -93.9724661866203, -117.554405357223, -110.7197381881997, -0.03200000151991844, 0.19200000911951065, 1.0240000486373901, 0.0, 0.0, 0.0, 0.0, 0.0, 1.7632262333069923E9, 0.0, 2025-11-15 12:03:53.306
16.0, -4.2055175001733005, 62.6582838576287, 14.523901477921754, 27.095575178973377, -0.03200000151991844, 0.19200000911951065, 1.0240000486373901, 0.0, 0.0, 0.0, 0.0, 0.0, 1.7632262333069923E9, 0.0, 2025-11-15 12:03:53.306
17.0, -107.1425238805823, -16.91930739954114, -29.326425502542406, -19.559676768258214, -0.03200000151991844, 0.19200000911951065, 1.0240000486373901, 0.0, 0.0, 0.0, 0.0, 0.0, 1.7632262333226423E9, 0.0, 2025-11-15 12:03:53.322
17.0, -220.84296233346686, -121.66268545854837, -143.35597515152767, -123.11002674140036, -0.03200000151991844, 0.19200000911951065, 1.0240000486373901, 0.0, 0.0, 0.0, 0.0, 0.0, 1.7632262333226423E9, 0.0, 2025-11-15 12:03:53.322
18.0, -68.68513263622299, -12.46134665235877, -60.5284108328633, -50.78036159835756, -0.03200000151991844, 0.19200000911951065, 1.0240000486373901, 0.0, 0.0, 0.0, 0.0, 0.0, 1.763226233323366E9, 0.0, 2025-11-15 12:03:53.323
18.0, -36.75012691458687, 40.080507825128734, 17.46720274304971, 37.12598686013371, -0.03200000151991844, 0.19200000911951065, 1.0240000486373901, 0.0, 0.0, 0.0, 0.0, 0.0, 1.763226233323366E9, 0.0, 2025-11-15 12:03:53.323
19.0, -216.94598657963797, -124.58728722389787, -135.07209674967453, -116.22113102301955, -0.03200000151991844, 0.19200000911951065, 1.0240000486373901, 0.0, 0.0, 0.0, 0.0, 0.0, 1.7632262333370173E9, 0.0, 2025-11-15 12:03:53.337
19.0, -168.52176195336506, -93.79669088870287, -124.17776817874983, -112.35407446883619, -0.03200000151991844, 0.19200000911951065, 1.0240000486373901, 0.0, 0.0, 0.0, 0.0, 0.0, 1.7632262333370173E9, 0.0, 2025-11-15 12:03:53.337
20.0, 6.397098874207586, 65.86337811965495, 27.736968021374196, 37.978684050031006, -0.03200000151991844, 0.19200000911951065, 1.0240000486373901, 0.0, 0.0, 0.0, 0.0, 0.0, 1.7632262333527577E9, 0.0, 2025-11-15 12:03:53.352
20.0, -189.34178500669077, -95.25151197146624, -106.34218529006466, -93.10106949694455, -0.03200000151991844, 0.19200000911951065, 1.0240000486373901, 0.0, 0.0, 0.0, 0.0, 0.0, 1.7632262333527577E9, 0.0, 2025-11-15 12:03:53.352
21.0, -212.10655603697523, -124.38907252624631, -152.26441684598103, -135.29462079703808, -0.03200000151991844, 0.19200000911951065, 1.0240000486373901, 0.0, 0.0, 0.0, 0.0, 0.0, 1.7632262333533685E9, 0.0, 2025-11-15 12:03:53.353
21.0, -14.078853383194655, 41.44557130895555, -9.994882631581277, 5.961400529369712, -0.03200000151991844, 0.19200000911951065, 1.0240000486373901, 0.0, 0.0, 0.0, 0.0, 0.0, 1.7632262333533685E9, 0.0, 2025-11-15 12:03:53.353
22.0, -131.05918409721926, -44.112119977362454, -60.318976435344666, -43.11356668919325, -0.03200000151991844, 0.19200000911951065, 1.0240000486373901, 0.0, 0.0, 0.0, 0.0, 0.0, 1.7632262333670924E9, 0.0, 2025-11-15 12:03:53.367
22.0, -235.40239286096767, -145.35121177788824, -164.15355880511925, -140.27242763806134, -0.03200000151991844, 0.19200000911951065, 1.0240000486373901, 0.0, 0.0, 0.0, 0.0, 0.0, 1.7632262333670924E9, 0.0, 2025-11-15 12:03:53.367
23.0, -95.85550581431016, -29.474151550792158, -73.6853788769804, -56.158337734639645, -0.03200000151991844, 0.19200000911951065, 1.0240000486373901, 0.0, 0.0, 0.0, 0.0, 0.0, 1.763226233382661E9, 0.0, 2025-11-15 12:03:53.382
23.0, -48.51959207514301, 28.015590568073094, 2.3654867219738662, 17.880461688153446, -0.03200000151991844, 0.19200000911951065, 1.0240000486373901, 0.0, 0.0, 0.0, 0.0, 0.0, 1.763226233382661E9, 0.0, 2025-11-15 12:03:53.382
24.0, -229.4260327317752, -139.30005364958197, -150.29722946928814, -137.0261944765225, -0.03200000151991844, 0.19200000911951065, 1.0240000486373901, 0.0, 0.0, 0.0, 0.0, 0.0, 1.763226233383366E9, 0.0, 2025-11-15 12:03:53.383
24.0, -167.7251632628031, -95.70029996614903, -133.860369164031, -105.02013065572828, -0.03200000151991844, 0.19200000911951065, 1.0240000486373901, 0.0, 0.0, 0.0, 0.0, 0.0, 1.763226233383366E9, 0.0, 2025-11-15 12:03:53.383
25.0, -14.909111173357815, 49.42277791444212, 4.478530196938664, 25.622054596431553, -0.03200000151991844, 0.19200000911951065, 1.0240000486373901, 0.0, 0.0, 0.0, 0.0, 0.0, 1.7632262333970375E9, 0.0, 2025-11-15 12:03:53.397
25.0, -195.38172343512997, -104.56386286113411, -117.54318565735593, -100.54721030872315, -0.03200000151991844, 0.19200000911951065, 1.0240000486373901, 0.0, 0.0, 0.0, 0.0, 0.0, 1.7632262333970375E9, 0.0, 2025-11-15 12:03:53.397
26.0, -224.0891954950057, -139.2140359506011, -162.14149262895808, -145.66910327412188, -0.03200000151991844, 0.19200000911951065, 1.0240000486373901, 0.0, 0.0, 0.0, 0.0, 0.0, 1.7632262334127624E9, 0.0, 2025-11-15 12:03:53.412
26.0, -37.2213543090038, 18.1198152853176, -26.966548630502075, -1.6679953802376986, -0.03200000151991844, 0.19200000911951065, 1.0240000486373901, 0.0, 0.0, 0.0, 0.0, 0.0, 1.7632262334127624E9, 0.0, 2025-11-15 12:03:53.412
27.0, -140.76796438219026, -57.66551741678268, -70.0501961200498, -52.6914504757151, -0.03200000151991844, 0.19200000911951065, 1.0240000486373901, 0.0, 0.0, 0.0, 0.0, 0.0, 1.7632262334133797E9, 0.0, 2025-11-15 12:03:53.413
27.0, -251.4316040710546, -154.50648686941713, -172.79272770276293, -158.88590971753, -0.03200000151991844, 0.19200000911951065, 1.0240000486373901, 0.0, 0.0, 0.0, 0.0, 0.0, 1.7632262334133797E9, 0.0, 2025-11-15 12:03:53.413
28.0, -95.35435922024772, -42.103793701156974, -86.74136962229386, -64.78628693241626, -0.03200000151991844, 0.19200000911951065, 1.0240000486373901, 0.0, 0.0, 0.0, 0.0, 0.0, 1.7632262334270115E9, 0.0, 2025-11-15 12:03:53.427
28.0, -56.795990677084774, 15.539284315891564, -16.109619059134275, 1.2416467852890491, -0.03200000151991844, 0.19200000911951065, 1.0240000486373901, 0.0, 0.0, 0.0, 0.0, 0.0, 1.7632262334270115E9, 0.0, 2025-11-15 12:03:53.427
29.0, -230.95191191369668, -139.7376219443977, -154.7215311168693, -141.0690263286233, -0.03200000151991844, 0.19200000911951065, 1.0240000486373901, 0.0, 0.0, 0.0, 0.0, 0.0, 1.7632262334426477E9, 0.0, 2025-11-15 12:03:53.442
29.0, -169.0640474469401, -93.4526200927794, -130.68893400160596, -108.50197751447558, -0.03200000151991844, 0.19200000911951065, 1.0240000486373901, 0.0, 0.0, 0.0, 0.0, 0.0, 1.7632262334426477E9, 0.0, 2025-11-15 12:03:53.442
30.0, -0.6974913417361677, 54.44546355493367, 7.186217764858156, 31.931265821680427, -0.03200000151991844, 0.19200000911951065, 1.0240000486373901, 0.0, 0.0, 0.0, 0.0, 0.0, 1.7632262334433634E9, 0.0, 2025-11-15 12:03:53.443
30.0, -199.43577498709783, -107.7203384237364, -117.82367815403268, -105.89526724535972, -0.03200000151991844, 0.19200000911951065, 1.0240000486373901, 0.0, 0.0, 0.0, 0.0, 0.0, 1.7632262334433634E9, 0.0, 2025-11-15 12:03:53.443
31.0, -230.7200381164439, -146.08797206915915, -169.37071924330667, -147.30717945471406, -0.03200000151991844, 0.19200000911951065, 1.0240000486373901, 0.0, 0.0, 0.0, 0.0, 0.0, 1.763226233457032E9, 0.0, 2025-11-15 12:03:53.457
31.0, -34.12845704564825, 22.95924582798034, -23.690396269317716, -0.7816390907391906, -0.03200000151991844, 0.19200000911951065, 1.0240000486373901, 0.0, 0.0, 0.0, 0.0, 0.0, 1.763226233457032E9, 0.0, 2025-11-15 12:03:53.457
32.0, -135.54332414409146, -49.93140430841595, -62.031850615050644, -46.17654475290328, -0.03200000151991844, 0.19200000911951065, 1.0240000486373901, 0.0, 0.0, 0.0, 0.0, 0.0, 1.7632262334726653E9, 0.0, 2025-11-15 12:03:53.472
32.0, -242.82983417296782, -158.5156596219167, -169.12014594627544, -149.37908403016627, -0.03200000151991844, 0.19200000911951065, 1.0240000486373901, 0.0, 0.0, 0.0, 0.0, 0.0, 1.7632262334726653E9, 0.0, 2025-11-15 12:03:53.472
33.0, -102.00764124142006, -42.904132291674614, -91.16567126987502, -70.19792216829956, -0.03200000151991844, 0.19200000911951065, 1.0240000486373901, 0.0, 0.0, 0.0, 0.0, 0.0, 1.7632262334733536E9, 0.0, 2025-11-15 12:03:53.473
33.0, -53.471219616476446, 12.992412446066737, -22.28045398602262, -4.050311652012169, -0.03200000151991844, 0.19200000911951065, 1.0240000486373901, 0.0, 0.0, 0.0, 0.0, 0.0, 1.7632262334733536E9, 0.0, 2025-11-15 12:03:53.473
34.0, -226.63606736483052, -139.60672544594854, -161.71514403400943, -145.35869157779962, -0.03200000151991844, 0.19200000911951065, 1.0240000486373901, 0.0, 0.0, 0.0, 0.0, 0.0, 1.763226233487028E9, 0.0, 2025-11-15 12:03:53.487
34.0, -181.56653299881145, -107.46228532679379, -150.26731026964262, -128.82459387369454, -0.03200000151991844, 0.19200000911951065, 1.0240000486373901, 0.0, 0.0, 0.0, 0.0, 0.0, 1.763226233487028E9, 0.0, 2025-11-15 12:03:53.487
35.0, -16.891258149873465, 41.281015710905194, -1.3070950345136225, 17.536390892229974, -0.03200000151991844, 0.19200000911951065, 1.0240000486373901, 0.0, 0.0, 0.0, 0.0, 0.0, 1.7632262335190525E9, 0.0, 2025-11-15 12:03:53.519
35.0, -199.8209846825339, -112.52236996684223, -121.27934571309015, -102.94074628036469, -0.03200000151991844, 0.19200000911951065, 1.0240000486373901, 0.0, 0.0, 0.0, 0.0, 0.0, 1.7632262335190525E9, 0.0, 2025-11-15 12:03:53.519
36.0, -222.05842981906608, -141.79082702007145, -168.51428215345368, -142.98385510593653, -0.03200000151991844, 0.19200000911951065, 1.0240000486373901, 0.0, 0.0, 0.0, 0.0, 0.0, 1.763226233519745E9, 0.0, 2025-11-15 12:03:53.519
36.0, -33.7395074502565, 22.17760673724115, -32.43428236572072, -9.66016158554703, -0.03200000151991844, 0.19200000911951065, 1.0240000486373901, 0.0, 0.0, 0.0, 0.0, 0.0, 1.763226233519745E9, 0.0, 2025-11-15 12:03:53.519
37.0, -123.82995748287067, -47.08160054218024, -65.65581367211416, -51.292727892287076, -0.03200000151991844, 0.19200000911951065, 1.0240000486373901, 0.0, 0.0, 0.0, 0.0, 0.0, 1.7632262335204916E9, 0.0, 2025-11-15 12:03:53.520
37.0, -252.90512465359643, -163.32143106497824, -187.55785272782668, -162.23312017787248, -0.03200000151991844, 0.19200000911951065, 1.0240000486373901, 0.0, 0.0, 0.0, 0.0, 0.0, 1.7632262335204916E9, 0.0, 2025-11-15 12:03:53.520
38.0, -103.46994212409481, -43.15096568875015, -96.27811450930312, -73.8518044250086, -0.03200000151991844, 0.19200000911951065, 1.0240000486373901, 0.0, 0.0, 0.0, 0.0, 0.0, 1.7632262335213203E9, 0.0, 2025-11-15 12:03:53.521
38.0, -51.33573674177751, 15.434567117132246, -15.52619466604665, -3.541685258038342, -0.03200000151991844, 0.19200000911951065, 1.0240000486373901, 0.0, 0.0, 0.0, 0.0, 0.0, 1.7632262335213203E9, 0.0, 2025-11-15 12:03:53.521
39.0, -236.00825665378943, -147.64377045072615, -163.52151571260765, -148.35435144230723, -0.03200000151991844, 0.19200000911951065, 1.0240000486373901, 0.0, 0.0, 0.0, 0.0, 0.0, 1.7632262335319579E9, 0.0, 2025-11-15 12:03:53.531
39.0, -180.5492802108638, -104.99021145608276, -143.32605595188215, -116.83821451570839, -0.03200000151991844, 0.19200000911951065, 1.0240000486373901, 0.0, 0.0, 0.0, 0.0, 0.0, 1.7632262335319579E9, 0.0, 2025-11-15 12:03:53.531
40.0, -3.738030005712062, 56.64078482892364, 11.131812218111008, 36.411665968596935, -0.03200000151991844, 0.19200000911951065, 1.0240000486373901, 0.0, 0.0, 0.0, 0.0, 0.0, 1.7632262335469782E9, 0.0, 2025-11-15 12:03:53.546
40.0, -205.58417051425204, -110.69355888850987, -127.41652154037729, -114.29134264588356, -0.03200000151991844, 0.19200000911951065, 1.0240000486373901, 0.0, 0.0, 0.0, 0.0, 0.0, 1.7632262335469782E9, 0.0, 2025-11-15 12:03:53.546
41.0, -226.5724890655838, -142.7744207084179, -177.1796303507872, -153.38077698275447, -0.03200000151991844, 0.19200000911951065, 1.0240000486373901, 0.0, 0.0, 0.0, 0.0, 0.0, 1.763226233562632E9, 0.0, 2025-11-15 12:03:53.562
41.0, -39.72708727931604, 18.93137357570231, -40.0000999760814, -9.357229689136147, -0.03200000151991844, 0.19200000911951065, 1.0240000486373901, 0.0, 0.0, 0.0, 0.0, 0.0, 1.763226233562632E9, 0.0, 2025-11-15 12:03:53.562
42.0, -132.70474007772282, -53.60772596485913, -74.66149276541546, -56.25931503344327, -0.03200000151991844, 0.19200000911951065, 1.0240000486373901, 0.0, 0.0, 0.0, 0.0, 0.0, 1.7632262335633395E9, 0.0, 2025-11-15 12:03:53.563
42.0, -241.00476299459115, -158.21272772550583, -180.53058071108535, -162.90630216989666, -0.03200000151991844, 0.19200000911951065, 1.0240000486373901, 0.0, 0.0, 0.0, 0.0, 0.0, 1.7632262335633395E9, 0.0, 2025-11-15 12:03:53.563
43.0, -113.7771064019762, -48.64487872365862, -90.01004218356684, -66.24858781509101, -0.03200000151991844, 0.19200000911951065, 1.0240000486373901, 0.0, 0.0, 0.0, 0.0, 0.0, 1.7632262335769837E9, 0.0, 2025-11-15 12:03:53.576
43.0, -50.52791835134849, 17.121261997148395, -13.91803768509999, 2.1467025745660067, -0.03200000151991844, 0.19200000911951065, 1.0240000486373901, 0.0, 0.0, 0.0, 0.0, 0.0, 1.7632262335769837E9, 0.0, 2025-11-15 12:03:53.576
44.0, -241.29273529117927, -147.01172735821456, -166.15440528141335, -149.59973812755197, -0.03200000151991844, 0.19200000911951065, 1.0240000486373901, 0.0, 0.0, 0.0, 0.0, 0.0, 1.7632262335926998E9, 0.0, 2025-11-15 12:03:53.592
44.0, -182.3631316893734, -108.39726031571627, -145.19226602977142, -127.79238148592412, -0.03200000151991844, 0.19200000911951065, 1.0240000486373901, 0.0, 0.0, 0.0, 0.0, 0.0, 1.7632262335926998E9, 0.0, 2025-11-15 12:03:53.592
45.0, -18.417137331794947, 46.64777214732021, -3.663232006598264, 12.427687552757561, -0.03200000151991844, 0.19200000911951065, 1.0240000486373901, 0.0, 0.0, 0.0, 0.0, 0.0, 1.7632262335933988E9, 0.0, 2025-11-15 12:03:53.593
45.0, -203.66560183698311, -104.71345885936171, -123.32507098885253, -109.87826069816947, -0.03200000151991844, 0.19200000911951065, 1.0240000486373901, 0.0, 0.0, 0.0, 0.0, 0.0, 1.7632262335933988E9, 0.0, 2025-11-15 12:03:53.593
46.0, -223.15048060612753, -138.93354345392436, -171.0237550237216, -146.49936106428504, -0.03200000151991844, 0.19200000911951065, 1.0240000486373901, 0.0, 0.0, 0.0, 0.0, 0.0, 1.7632262336069822E9, 0.0, 2025-11-15 12:03:53.606
46.0, -40.73312036739662, 21.493205045349896, -34.88391683669761, -11.604909562505782, -0.03200000151991844, 0.19200000911951065, 1.0240000486373901, 0.0, 0.0, 0.0, 0.0, 0.0, 1.7632262336069822E9, 0.0, 2025-11-15 12:03:53.606
47.0, -134.70558655401692, -50.33905340358615, -71.90144659811631, -58.80244700331241, -0.03200000151991844, 0.19200000911951065, 1.0240000486373901, 0.0, 0.0, 0.0, 0.0, 0.0, 1.7632262336227927E9, 0.0, 2025-11-15 12:03:53.622
47.0, -246.2518426324241, -163.6655018609017, -181.77970729628578, -160.1088570030406, -0.03200000151991844, 0.19200000911951065, 1.0240000486373901, 0.0, 0.0, 0.0, 0.0, 0.0, 1.7632262336227927E9, 0.0, 2025-11-15 12:03:53.622
48.0, -114.33809139532968, -53.86951896175742, -99.3635319727473, -77.25511338468641, -0.03200000151991844, 0.19200000911951065, 1.0240000486373901, 0.0, 0.0, 0.0, 0.0, 0.0, 1.763226233623404E9, 0.0, 2025-11-15 12:03:53.623
48.0, -57.36445547034964, 12.917614446952939, -15.612212365027517, -5.018945740535855, -0.03200000151991844, 0.19200000911951065, 1.0240000486373901, 0.0, 0.0, 0.0, 0.0, 0.0, 1.763226233623404E9, 0.0, 2025-11-15 12:03:53.623
49.0, -236.97315084235743, -146.44700246490538, -161.21399743994698, -144.96974198240787, -0.03200000151991844, 0.19200000911951065, 1.0240000486373901, 0.0, 0.0, 0.0, 0.0, 0.0, 1.7632262336369908E9, 0.0, 2025-11-15 12:03:53.636
49.0, -176.81312015512958, -105.1959059536457, -142.95580585626885, -118.88019989151508, -0.03200000151991844, 0.19200000911951065, 1.0240000486373901, 0.0, 0.0, 0.0, 0.0, 0.0, 1.7632262336369908E9, 0.0, 2025-11-15 12:03:53.636
50.0, -7.702323958743364, 48.70097722299397, 0.9555444386787713, 18.17591378465295, -0.03200000151991844, 0.19200000911951065, 1.0240000486373901, 0.0, 0.0, 0.0, 0.0, 0.0, 1.7632262336527035E9, 0.0, 2025-11-15 12:03:53.652
50.0, -198.5980373970233, -112.41391286812723, -126.51894555101171, -109.3509348044172, -0.03200000151991844, 0.19200000911951065, 1.0240000486373901, 0.0, 0.0, 0.0, 0.0, 0.0, 1.7632262336527035E9, 0.0, 2025-11-15 12:03:53.652
51.0, -221.3441089275293, -140.45942263584584, -169.97284313617274, -154.8168985657394, -0.03200000151991844, 0.19200000911951065, 1.0240000486373901, 0.0, 0.0, 0.0, 0.0, 0.0, 1.7632262336534073E9, 0.0, 2025-11-15 12:03:53.653
51.0, -47.72299338458106, 20.360015358775854, -39.28577908454463, -19.099669073708355, -0.03200000151991844, 0.19200000911951065, 1.0240000486373901, 0.0, 0.0, 0.0, 0.0, 0.0, 1.7632262336534073E9, 0.0, 2025-11-15 12:03:53.653
52.0, -129.42484781658277, -44.59830697160214, -66.91615995718166, -51.07955359481275, -0.03200000151991844, 0.19200000911951065, 1.0240000486373901, 0.0, 0.0, 0.0, 0.0, 0.0, 1.7632262336669593E9, 0.0, 2025-11-15 12:03:53.666
52.0, -239.78181570908055, -148.78443993721157, -170.64228522824124, -153.0030470872298, -0.03200000151991844, 0.19200000911951065, 1.0240000486373901, 0.0, 0.0, 0.0, 0.0, 0.0, 1.7632262336669593E9, 0.0, 2025-11-15 12:03:53.666
53.0, -108.51132726436481, -44.082200777716935, -94.19499023398384, -70.68784906249493, -0.03200000151991844, 0.19200000911951065, 1.0240000486373901, 0.0, 0.0, 0.0, 0.0, 0.0, 1.7632262336826813E9, 0.0, 2025-11-15 12:03:53.682
53.0, -56.2686647833325, 17.229719095863402, -16.26295495731756, -2.180361674167216, -0.03200000151991844, 0.19200000911951065, 1.0240000486373901, 0.0, 0.0, 0.0, 0.0, 0.0, 1.7632262336826813E9, 0.0, 2025-11-15 12:03:53.682
54.0, -218.33348946319893, -127.68766428716481, -147.30156960478052, -131.3565061436966, -0.03200000151991844, 0.19200000911951065, 1.0240000486373901, 0.0, 0.0, 0.0, 0.0, 0.0, 1.7632262336834123E9, 0.0, 2025-11-15 12:03:53.683
54.0, -179.81999971950427, -96.84096945263445, -141.26163117634133, -125.3539667148143, -0.03200000151991844, 0.19200000911951065, 1.0240000486373901, 0.0, 0.0, 0.0, 0.0, 0.0, 1.7632262336834123E9, 0.0, 2025-11-15 12:03:53.683
55.0, -15.649611364584416, 46.66647164709866, -4.579507495742291, 8.717706796713173, -0.03200000151991844, 0.19200000911951065, 1.0240000486373901, 0.0, 0.0, 0.0, 0.0, 0.0, 1.763226233696967E9, 0.0, 2025-11-15 12:03:53.696
55.0, -192.9283490641974, -100.68558660708368, -113.89678320055827, -99.6010156199336, -0.03200000151991844, 0.19200000911951065, 1.0240000486373901, 0.0, 0.0, 0.0, 0.0, 0.0, 1.763226233696967E9, 0.0, 2025-11-15 12:03:53.696
56.0, -219.02911085495725, -139.3673718487844, -169.6549516399391, -155.88277005311102, -0.03200000151991844, 0.19200000911951065, 1.0240000486373901, 0.0, 0.0, 0.0, 0.0, 0.0, 1.7632262337133412E9, 0.0, 2025-11-15 12:03:53.713
56.0, -28.72430160967633, 22.50297803338617, -34.82781833736226, -18.718199278227985, -0.03200000151991844, 0.19200000911951065, 1.0240000486373901, 0.0, 0.0, 0.0, 0.0, 0.0, 1.7632262337133412E9, 0.0, 2025-11-15 12:03:53.713
57.0, -129.7128201131709, -46.69265094678849, -62.398360810708255, -47.668764835223556, -0.03200000151991844, 0.19200000911951065, 1.0240000486373901, 0.0, 0.0, 0.0, 0.0, 0.0, 1.7632262337140398E9, 0.0, 2025-11-15 12:03:53.714
57.0, -233.8353747795336, -144.85754498373717, -168.45818365411833, -150.69178891461343, -0.03200000151991844, 0.19200000911951065, 1.0240000486373901, 0.0, 0.0, 0.0, 0.0, 0.0, 1.7632262337140398E9, 0.0, 2025-11-15 12:03:53.714
58.0, -105.78120029671118, -39.71773752942681, -90.73932267492637, -70.96460165921599, -0.03200000151991844, 0.19200000911951065, 1.0240000486373901, 0.0, 0.0, 0.0, 0.0, 0.0, 1.7632262337433815E9, 0.0, 2025-11-15 12:03:53.743
58.0, -55.539384291972965, 15.28871101886034, -15.309280468616635, -0.13837629836052656, -0.03200000151991844, 0.19200000911951065, 1.0240000486373901, 0.0, 0.0, 0.0, 0.0, 0.0, 1.7632262337433815E9, 0.0, 2025-11-15 12:03:53.743
59.0, -225.1251477827318, -140.75487473234534, -153.3489878331311, -136.68212368059903, -0.03200000151991844, 0.19200000911951065, 1.0240000486373901, 0.0, 0.0, 0.0, 0.0, 0.0, 1.7632262337440448E9, 0.0, 2025-11-15 12:03:53.744
59.0, -172.60573270497844, -103.1950594773516, -138.83443610509858, -125.34274701494724, -0.03200000151991844, 0.19200000911951065, 1.0240000486373901, 0.0, 0.0, 0.0, 0.0, 0.0, 1.7632262337440448E9, 0.0, 2025-11-15 12:03:53.744
60.0, -25.08911885274574, 47.55282793659717, -0.37959984550252557, 19.65691416710615, -0.03200000151991844, 0.19200000911951065, 1.0240000486373901, 0.0, 0.0, 0.0, 0.0, 0.0, 1.763226233744805E9, 0.0, 2025-11-15 12:03:53.744
60.0, -191.86247757682577, -100.0834627142176, -116.25292017264292, -107.10325493104756, -0.03200000151991844, 0.19200000911951065, 1.0240000486373901, 0.0, 0.0, 0.0, 0.0, 0.0, 1.763226233744805E9, 0.0, 2025-11-15 12:03:53.744
61.0, -215.17327400064096, -131.96984973642975, -160.6455326466821, -145.53072697576135, -0.03200000151991844, 0.19200000911951065, 1.0240000486373901, 0.0, 0.0, 0.0, 0.0, 0.0, 1.7632262337570372E9, 0.0, 2025-11-15 12:03:53.757
61.0, -41.11833006283268, 16.11148900911212, -36.93712191237137, -12.726879549212754, -0.03200000151991844, 0.19200000911951065, 1.0240000486373901, 0.0, 0.0, 0.0, 0.0, 0.0, 1.7632262337570372E9, 0.0, 2025-11-15 12:03:53.757
62.0, -125.96170045761392, -45.82499415706843, -68.7524508354254, -57.14567132294178, -0.03200000151991844, 0.19200000911951065, 1.0240000486373901, 0.0, 0.0, 0.0, 0.0, 0.0, 1.7632262337726789E9, 0.0, 2025-11-15 12:03:53.772
62.0, -218.6401612595655, -144.80144648440182, -162.8371140207164, -144.55835298728198, -0.03200000151991844, 0.19200000911951065, 1.0240000486373901, 0.0, 0.0, 0.0, 0.0, 0.0, 1.7632262337726789E9, 0.0, 2025-11-15 12:03:53.772
63.0, -104.00848771771416, -33.7189380005002, -86.41973822610453, -67.16486330423504, -0.03200000151991844, 0.19200000911951065, 1.0240000486373901, 0.0, 0.0, 0.0, 0.0, 0.0, 1.763226233773378E9, 0.0, 2025-11-15 12:03:53.773
63.0, -45.897922206204385, 21.414667146280408, -8.693397447001189, 6.140915727242827, -0.03200000151991844, 0.19200000911951065, 1.0240000486373901, 0.0, 0.0, 0.0, 0.0, 0.0, 1.763226233773378E9, 0.0, 2025-11-15 12:03:53.773
64.0, -219.24976495234296, -131.31162734422833, -143.10914175445214, -132.8375065261498, -0.03200000151991844, 0.19200000911951065, 1.0240000486373901, 0.0, 0.0, 0.0, 0.0, 0.0, 1.763226233786991E9, 0.0, 2025-11-15 12:03:53.786
