%OpenBCI Raw EXG Data
%Number of channels = 4
%Sample Rate = 200 Hz
%Board = OpenBCI_GUI$BoardGanglionBLE
Sample Index, EXG Channel 0, EXG Channel 1, EXG Channel 2, EXG Channel 3, Accel Channel 0, Accel Channel 1, Accel Channel 2, Other, Other, Other, Other, Other, Timestamp, Marker Channel, Timestamp (Formatted)
0.0, -43.95130427926779, 10.374482477083802, -55.81613688869402, -36.94086181232706, 0.0, 0.0, 0.0, 0.0, 0.0, 0.0, 0.0, 0.0, 1.7632260934885235E9, 0.0, 2025-11-15 12:01:33.488
1.0, -67.27332040295005, 8.504532499238849, -26.78329353267327, -5.566841084044427, 0.0, 0.12800000607967377, 0.0, 0.0, 0.0, 0.0, 0.0, 0.0, 1.763226093501964E9, 0.0, 2025-11-15 12:01:33.501
1.0, -243.1570754190907, -148.70964193809777, -169.3258404438384, -134.4176142574288, 0.0, 0.12800000607967377, 0.0, 0.0, 0.0, 0.0, 0.0, 0.0, 1.763226093501964E9, 0.0, 2025-11-15 12:01:33.501
2.0, -131.51732184179127, -68.47382828872651, -117.49830685788766, -80.63037309469655, -0.01600000075995922, 0.12800000607967377, 0.0, 0.0, 0.0, 0.0, 0.0, 0.0, 1.7632260935188088E9, 0.0, 2025-11-15 12:01:33.518
2.0, 12.184594055637717, 64.13180444017053, 13.166317794006318, 36.275159620214254, -0.01600000075995922, 0.12800000607967377, 0.0, 0.0, 0.0, 0.0, 0.0, 0.0, 1.7632260935188088E9, 0.0, 2025-11-15 12:01:33.518
3.0, -211.67085769213736, -114.67281244136393, -131.6014695907943, -88.8768524969928, -0.01600000075995922, 0.12800000607967377, 0.0, 0.0, 0.0, 0.0, 0.0, 0.0, 1.76322609351941E9, 0.0, 2025-11-15 12:01:33.519
3.0, -200.88498621992767, -118.41645229700953, -152.85158113902435, -113.94914179993793, -0.01600000075995922, 0.12800000607967377, 0.0, 0.0, 0.0, 0.0, 0.0, 0.0, 1.76322609351941E9, 0.0, 2025-11-15 12:01:33.519
4.0, 11.67596766166389, 54.2472488572821, -7.698584058787674, 9.991142731625587, -0.01600000075995922, 0.12800000607967377, 0.0, 0.0, 0.0, 0.0, 0.0, 0.0, 1.7632260935318108E9, 0.0, 2025-11-15 12:01:33.531
4.0, -154.95153496414423, -68.55610608775169, -86.1355058294721, -55.44962669303641, -0.01600000075995922, 0.12800000607967377, 0.0, 0.0, 0.0, 0.0, 0.0, 0.0, 1.7632260935318108E9, 0.0, 2025-11-15 12:01:33.531
5.0, -221.11784498021007, -138.31645996123552, -165.51114248903468, -123.62426298530772, -0.01600000075995922, 0.12800000607967377, 0.0, 0.0, 0.0, 0.0, 0.0, 0.0, 1.7632260935474803E9, 0.0, 2025-11-15 12:01:33.547
5.0, -54.23228925745934, -0.44130819477140903, -62.009411215316504, -36.667849115561694, -0.01600000075995922, 0.12800000607967377, 0.0, 0.0, 0.0, 0.0, 0.0, 0.0, 1.7632260935474803E9, 0.0, 2025-11-15 12:01:33.547
6.0, -74.83913801331073, 1.8250711783766747, -32.01167367072776, -7.272235463839024, -0.01600000075995922, 0.12800000607967377, 0.0, 0.0, 0.0, 0.0, 0.0, 0.0, 1.7632260935481932E9, 0.0, 2025-11-15 12:01:33.548
6.0, -226.9633086109534, -135.11510559916496, -148.57687548967078, -120.34063082421198, -0.01600000075995922, 0.12800000607967377, 0.0, 0.0, 0.0, 0.0, 0.0, 0.0, 1.7632260935481932E9, 0.0, 2025-11-15 12:01:33.548
7.0, -136.23707558587193, -69.143270380795, -111.27511333161965, -78.53228921955451, -0.01600000075995922, 0.12800000607967377, 0.0, 0.0, 0.0, 0.0, 0.0, 0.0, 1.7632260935618567E9, 0.0, 2025-11-15 12:01:33.561
7.0, -0.07105809915810823, 56.86517882626504, 10.424971126485616, 33.552512452472, -0.01600000075995922, 0.12800000607967377, 0.0, 0.0, 0.0, 0.0, 0.0, 0.0, 1.7632260935618567E9, 0.0, 2025-11-15 12:01:33.561
8.0, -207.18297774530947, -116.28096942231059, -124.57045767409727, -94.13141193473712, -0.01600000075995922, 0.12800000607967377, 0.0, 0.0, 0.0, 0.0, 0.0, 0.0, 1.7632260935775235E9, 0.0, 2025-11-15 12:01:33.577
8.0, -183.9394995206967, -112.02870317269117, -146.2768370169215, -107.845625072252, -0.01600000075995922, 0.12800000607967377, 0.0, 0.0, 0.0, 0.0, 0.0, 0.0, 1.7632260935775235E9, 0.0, 2025-11-15 12:01:33.577
9.0, -0.0523585993796587, 51.285248092375696, -4.691704494412988, 18.622831829357892, -0.01600000075995922, 0.12800000607967377, 0.0, 0.0, 0.0, 0.0, 0.0, 0.0, 1.7632260935781915E9, 0.0, 2025-11-15 12:01:33.578
9.0, -152.56173889245838, -65.20889562740922, -78.74920341698453, -47.28916498972103, -0.01600000075995922, 0.12800000607967377, 0.0, 0.0, 0.0, 0.0, 0.0, 0.0, 1.7632260935781915E9, 0.0, 2025-11-15 12:01:33.578
10.0, -220.51946098729968, -130.25323565676808, -153.0535357366316, -108.37295096600428, -0.01600000075995922, 0.12800000607967377, 0.5280000250786543, 0.0, 0.0, 0.0, 0.0, 0.0, 1.7632260935918205E9, 0.0, 2025-11-15 12:01:33.591
10.0, -50.941177296452224, 5.123662939295173, -53.39268171740696, -24.976921854075044, -0.01600000075995922, 0.12800000607967377, 0.5280000250786543, 0.0, 0.0, 0.0, 0.0, 0.0, 1.7632260935918205E9, 0.0, 2025-11-15 12:01:33.591
11.0, -61.45029617194086, 11.496452463790774, -23.409903772640973, 1.209857635665685, -0.01600000075995922, 0.17600000835955143, 0.5280000250786543, 0.0, 0.0, 0.0, 0.0, 0.0, 1.7632260936074584E9, 0.0, 2025-11-15 12:01:33.607
11.0, -218.60463220998645, -126.21414370462298, -152.20831834664568, -119.86940342979506, -0.01600000075995922, 0.17600000835955143, 0.5280000250786543, 0.0, 0.0, 0.0, 0.0, 0.0, 1.7632260936074584E9, 0.0, 2025-11-15 12:01:33.607
12.0, -137.4001844720915, -62.83031925559044, -113.82572510140017, -84.35905335051939, -0.03200000151991844, 0.17600000835955143, 0.5280000250786543, 0.0, 0.0, 0.0, 0.0, 0.0, 1.7632260936081867E9, 0.0, 2025-11-15 12:01:33.608
12.0, -4.499099646694958, 60.597598982043564, 8.095013454090804, 34.28553284378722, -0.03200000151991844, 0.17600000835955143, 0.5280000250786543, 0.0, 0.0, 0.0, 0.0, 0.0, 1.7632260936081867E9, 0.0, 2025-11-15 12:01:33.608
13.0, -204.33691387902945, -111.680892476812, -125.60640996182337, -90.5411079772748, -0.03200000151991844, 0.17600000835955143, 0.5280000250786543, 0.0, 0.0, 0.0, 0.0, 0.0, 1.7632260936218643E9, 0.0, 2025-11-15 12:01:33.621
13.0, -184.70991891156882, -108.29628301691264, -138.69231990678236, -101.68600984523073, -0.03200000151991844, 0.17600000835955143, 0.5280000250786543, 0.0, 0.0, 0.0, 0.0, 0.0, 1.7632260936218643E9, 0.0, 2025-11-15 12:01:33.621
14.0, -9.66390148550272, 46.99558284319937, -14.422924179118127, 6.292381675448269, -0.03200000151991844, 0.17600000835955143, 0.5280000250786543, 0.0, 0.0, 0.0, 0.0, 0.0, 1.7632260936374629E9, 0.0, 2025-11-15 12:01:33.637
14.0, -150.00364732276648, -61.50639467127621, -80.77996909292415, -53.878868711646646, -0.03200000151991844, 0.17600000835955143, 0.5280000250786543, 0.0, 0.0, 0.0, 0.0, 0.0, 1.7632260936374629E9, 0.0, 2025-11-15 12:01:33.637
15.0, -204.90163877233863, -119.351427285932, -144.3507885397412, -116.19308177335188, -0.03200000151991844, 0.17600000835955143, 0.5280000250786543, 0.0, 0.0, 0.0, 0.0, 0.0, 1.7632260936381762E9, 0.0, 2025-11-15 12:01:33.638
15.0, -60.63125808164477, 2.8834628658369184, -58.22089256020263, -32.72973446222022, -0.03200000151991844, 0.17600000835955143, 0.5280000250786543, 0.0, 0.0, 0.0, 0.0, 0.0, 1.7632260936381762E9, 0.0, 2025-11-15 12:01:33.638
16.0, -66.35704491380602, 9.544224686920643, -30.081885293591768, -5.196590988431126, -0.03200000151991844, 0.17600000835955143, 0.5280000250786543, 0.0, 0.0, 0.0, 0.0, 0.0, 1.7632260936518052E9, 0.0, 2025-11-15 12:01:33.651
16.0, -215.8071870431304, -124.11605982948095, -148.40857999166474, -114.12865699781105, -0.03200000151991844, 0.17600000835955143, 0.5280000250786543, 0.0, 0.0, 0.0, 0.0, 0.0, 1.7632260936518052E9, 0.0, 2025-11-15 12:01:33.651
17.0, -139.30379354953766, -71.13289715722203, -120.35933032399043, -91.53966126544401, -0.03200000151991844, 0.17600000835955143, 0.5280000250786543, 0.0, 0.0, 0.0, 0.0, 0.0, 1.7632260936674569E9, 0.0, 2025-11-15 12:01:33.667
17.0, -10.666194673627615, 50.37271250318736, -3.251843011472374, 16.72670255182311, -0.03200000151991844, 0.17600000835955143, 0.5280000250786543, 0.0, 0.0, 0.0, 0.0, 0.0, 1.7632260936674569E9, 0.0, 2025-11-15 12:01:33.667
18.0, -198.95893774274737, -98.92783362790942, -122.704247596208, -92.37365895556286, -0.03200000151991844, 0.17600000835955143, 0.5280000250786543, 0.0, 0.0, 0.0, 0.0, 0.0, 1.76322609366826E9, 0.0, 2025-11-15 12:01:33.668
18.0, -191.3482413329184, -112.91505946218967, -145.07258923118934, -111.80617912532762, -0.03200000151991844, 0.17600000835955143, 0.5280000250786543, 0.0, 0.0, 0.0, 0.0, 0.0, 1.76322609366826E9, 0.0, 2025-11-15 12:01:33.668
19.0, -3.62770295701921, 46.434597849845886, -14.875452073756605, 9.916344732511789, -0.03200000151991844, 0.17600000835955143, 0.5280000250786543, 0.0, 0.0, 0.0, 0.0, 0.0, 1.7632260936818E9, 0.0, 2025-11-15 12:01:33.681
19.0, -135.37315869610757, -52.467056478373706, -73.24407068220899, -45.912881806027144, -0.03200000151991844, 0.17600000835955143, 0.5280000250786543, 0.0, 0.0, 0.0, 0.0, 0.0, 1.7632260936818E9, 0.0, 2025-11-15 12:01:33.681
20.0, -219.3974910005927, -125.2829086156562, -157.48531718412414, -123.47840688703582, -0.03200000151991844, 0.17600000835955143, 0.7680000364780426, 0.0, 0.0, 0.0, 0.0, 0.0, 1.7632260936974792E9, 0.0, 2025-11-15 12:01:33.697
20.0, -71.4021699540317, -13.635675238445401, -75.0541822607629, -46.649642097298056, -0.03200000151991844, 0.17600000835955143, 0.7680000364780426, 0.0, 0.0, 0.0, 0.0, 0.0, 1.7632260936974792E9, 0.0, 2025-11-15 12:01:33.697
21.0, -71.39095025416464, 3.829657554626465, -32.550219264347106, -4.2466563996858895, -0.03200000151991844, 0.20800000987946987, 0.7680000364780426, 0.0, 0.0, 0.0, 0.0, 0.0, 1.7632260936981697E9, 0.0, 2025-11-15 12:01:33.698
21.0, -222.67364336177707, -128.97418987192214, -151.11252765962854, -110.22420144407079, -0.03200000151991844, 0.20800000987946987, 0.7680000364780426, 0.0, 0.0, 0.0, 0.0, 0.0, 1.7632260936981697E9, 0.0, 2025-11-15 12:01:33.698
22.0, -137.2094495743513, -69.31530577875674, -118.12287015048787, -82.16373207652941, -0.03200000151991844, 0.20800000987946987, 0.7680000364780426, 0.0, 0.0, 0.0, 0.0, 0.0, 1.7632260937118237E9, 0.0, 2025-11-15 12:01:33.711
22.0, -5.198460938408971, 49.306841015815735, -1.5389688317663968, 21.57735279435292, -0.03200000151991844, 0.20800000987946987, 0.7680000364780426, 0.0, 0.0, 0.0, 0.0, 0.0, 1.7632260937118237E9, 0.0, 2025-11-15 12:01:33.711
23.0, -200.7204306218773, -105.61103484872729, -121.7430933075957, -85.66801833501086, -0.03200000151991844, 0.20800000987946987, 0.7680000364780426, 0.0, 0.0, 0.0, 0.0, 0.0, 1.7632260937274804E9, 0.0, 2025-11-15 12:01:33.727
23.0, -190.15521324705333, -107.89237382169813, -145.7906500226818, -107.26594057912007, -0.03200000151991844, 0.20800000987946987, 0.7680000364780426, 0.0, 0.0, 0.0, 0.0, 0.0, 1.7632260937274804E9, 0.0, 2025-11-15 12:01:33.727
24.0, -8.598029998131096, 49.748149210587144, -12.814767198171467, 13.525348189752549, -0.03200000151991844, 0.20800000987946987, 0.7680000364780426, 0.0, 0.0, 0.0, 0.0, 0.0, 1.7632260937281668E9, 0.0, 2025-11-15 12:01:33.728
24.0, -141.02414752915502, -49.96506340801716, -72.30909569328651, -42.12436315091327, -0.03200000151991844, 0.20800000987946987, 0.7680000364780426, 0.0, 0.0, 0.0, 0.0, 0.0, 1.7632260937281668E9, 0.0, 2025-11-15 12:01:33.728
25.0, -218.60089231003076, -131.26674854476005, -156.66253919387236, -116.31649847188964, -0.03200000151991844, 0.20800000987946987, 0.7680000364780426, 0.0, 0.0, 0.0, 0.0, 0.0, 1.7632260937418172E9, 0.0, 2025-11-15 12:01:33.741
25.0, -59.54294719453901, -4.450480947270989, -62.353482011239976, -37.28119270829484, -0.03200000151991844, 0.20800000987946987, 0.7680000364780426, 0.0, 0.0, 0.0, 0.0, 0.0, 1.7632260937418172E9, 0.0, 2025-11-15 12:01:33.741
26.0, -69.30034617893398, 6.488726423121989, -27.98754131840542, 6.427018073853105, -0.03200000151991844, 0.20800000987946987, 0.7680000364780426, 0.0, 0.0, 0.0, 0.0, 0.0, 1.7632260937574556E9, 0.0, 2025-11-15 12:01:33.757
26.0, -219.60692539811134, -130.18591745756567, -153.5397227308713, -111.59300482785329, -0.03200000151991844, 0.20800000987946987, 0.7680000364780426, 0.0, 0.0, 0.0, 0.0, 0.0, 1.7632260937574556E9, 0.0, 2025-11-15 12:01:33.757
27.0, -140.08543264027685, -74.17717572115362, -123.72150038415566, -82.14877247670665, -0.03200000151991844, 0.20800000987946987, 0.7680000364780426, 0.0, 0.0, 0.0, 0.0, 0.0, 1.763226093758172E9, 0.0, 2025-11-15 12:01:33.758
27.0, -4.8095113430172205, 54.32578675635159, 2.7245171177200973, 35.20928813284263, -0.03200000151991844, 0.20800000987946987, 0.7680000364780426, 0.0, 0.0, 0.0, 0.0, 0.0, 1.763226093758172E9, 0.0, 2025-11-15 12:01:33.758
28.0, -195.40977268479764, -100.59956890810281, -129.05085782101378, -92.09316645888612, -0.03200000151991844, 0.20800000987946987, 0.7680000364780426, 0.0, 0.0, 0.0, 0.0, 0.0, 1.763226093771833E9, 0.0, 2025-11-15 12:01:33.771
28.0, -179.05893007852137, -105.57363584917039, -141.44114637421444, -99.13165817549452, -0.03200000151991844, 0.20800000987946987, 0.7680000364780426, 0.0, 0.0, 0.0, 0.0, 0.0, 1.763226093771833E9, 0.0, 2025-11-15 12:01:33.771
29.0, -3.2013543620705605, 50.57466710079461, -14.146171582397074, 20.238468610215932, -0.03200000151991844, 0.20800000987946987, 0.7680000364780426, 0.0, 0.0, 0.0, 0.0, 0.0, 1.7632260937874646E9, 0.0, 2025-11-15 12:01:33.787
29.0, -150.00738722272217, -57.86373211443424, -77.29812223417684, -42.88356284191832, -0.03200000151991844, 0.20800000987946987, 0.7680000364780426, 0.0, 0.0, 0.0, 0.0, 0.0, 1.7632260937874646E9, 0.0, 2025-11-15 12:01:33.787
30.0, -208.8360135257244, -128.20003058109432, -150.36454766849056, -110.84128493675962, -0.03200000151991844, 0.20800000987946987, 0.8960000425577164, 0.0, 0.0, 0.0, 0.0, 0.0, 1.7632260937881794E9, 0.0, 2025-11-15 12:01:33.788
30.0, -58.110565511509776, 0.8601769898086786, -57.70852626627311, -25.354651749599725, -0.03200000151991844, 0.20800000987946987, 0.8960000425577164, 0.0, 0.0, 0.0, 0.0, 0.0, 1.7632260937881794E9, 0.0, 2025-11-15 12:01:33.788
31.0, -57.22046932205558, 12.203293555416167, -22.75168138043955, 6.9431242677383125, -0.03200000151991844, 0.2240000106394291, 0.8960000425577164, 0.0, 0.0, 0.0, 0.0, 0.0, 1.7632260938018565E9, 0.0, 2025-11-15 12:01:33.801
31.0, -219.98091539368033, -129.52395516540855, -149.95315867336467, -112.48310101730749, -0.03200000151991844, 0.2240000106394291, 0.8960000425577164, 0.0, 0.0, 0.0, 0.0, 0.0, 1.7632260938018565E9, 0.0, 2025-11-15 12:01:33.801
32.0, -147.38945725373924, -78.56781826913357, -122.92116179363802, -85.16687174094841, -0.03200000151991844, 0.2240000106394291, 0.8960000425577164, 0.0, 0.0, 0.0, 0.0, 0.0, 1.7632260938174987E9, 0.0, 2025-11-15 12:01:33.817
32.0, -9.731219684705138, 50.3951519029215, -2.20841092383489, 22.942416278179735, -0.03200000151991844, 0.2240000106394291, 0.8960000425577164, 0.0, 0.0, 0.0, 0.0, 0.0, 1.7632260938174987E9, 0.0, 2025-11-15 12:01:33.817
33.0, -196.056775377132, -111.37422068044543, -130.94698709854856, -95.15614452259615, -0.03200000151991844, 0.2240000106394291, 0.8960000425577164, 0.0, 0.0, 0.0, 0.0, 0.0, 1.7632260938181944E9, 0.0, 2025-11-15 12:01:33.818
33.0, -187.7878565751016, -114.4222391443327, -146.5648093135096, -111.12177743343636, -0.03200000151991844, 0.2240000106394291, 0.8960000425577164, 0.0, 0.0, 0.0, 0.0, 0.0, 1.7632260938181944E9, 0.0, 2025-11-15 12:01:33.818
34.0, 0.9162754891440272, 52.889665173366666, -8.966410143766552, 16.75662175146863, -0.03200000151991844, 0.2240000106394291, 0.8960000425577164, 0.0, 0.0, 0.0, 0.0, 0.0, 1.7632260938318224E9, 0.0, 2025-11-15 12:01:33.831
34.0, -143.55979969911277, -55.11116574704647, -78.89131961530074, -52.96259322250262, -0.03200000151991844, 0.2240000106394291, 0.8960000425577164, 0.0, 0.0, 0.0, 0.0, 0.0, 1.7632260938318224E9, 0.0, 2025-11-15 12:01:33.831
35.0, -206.85386654920876, -123.67475163470954, -148.81622908683494, -107.07894558133557, -0.03200000151991844, 0.2240000106394291, 0.8960000425577164, 0.0, 0.0, 0.0, 0.0, 0.0, 1.7632260938474789E9, 0.0, 2025-11-15 12:01:33.847
35.0, -72.254867143929, -12.925094246864319, -60.10954203782603, -34.3304116432555, -0.03200000151991844, 0.2240000106394291, 0.8960000425577164, 0.0, 0.0, 0.0, 0.0, 0.0, 1.7632260938474789E9, 0.0, 2025-11-15 12:01:33.847
36.0, -65.48190832417458, 4.226086949929595, -33.040146158542484, -0.31976144621148705, -0.03200000151991844, 0.2240000106394291, 0.8960000425577164, 0.0, 0.0, 0.0, 0.0, 0.0, 1.7632260938481698E9, 0.0, 2025-11-15 12:01:33.848
36.0, -223.8105729483068, -126.79756809771061, -146.26561731705442, -111.21527493232861, -0.03200000151991844, 0.2240000106394291, 0.8960000425577164, 0.0, 0.0, 0.0, 0.0, 0.0, 1.7632260938481698E9, 0.0, 2025-11-15 12:01:33.848
37.0, -145.08567888103426, -72.5914581399411, -123.2240936900489, -87.29113491578028, -0.03200000151991844, 0.2240000106394291, 0.8960000425577164, 0.0, 0.0, 0.0, 0.0, 0.0, 1.7632260938618276E9, 0.0, 2025-11-15 12:01:33.861
37.0, -6.537345122545958, 51.10199299454689, -3.1920046121813357, 24.157883763778955, -0.03200000151991844, 0.2240000106394291, 0.8960000425577164, 0.0, 0.0, 0.0, 0.0, 0.0, 1.7632260938618276E9, 0.0, 2025-11-15 12:01:33.861
38.0, -200.8700266201049, -110.00167739670724, -130.0755904088728, -93.54798754164949, -0.03200000151991844, 0.2240000106394291, 0.8960000425577164, 0.0, 0.0, 0.0, 0.0, 0.0, 1.7632260938774571E9, 0.0, 2025-11-15 12:01:33.877
38.0, -197.89306625537574, -115.38339343294501, -151.9016465502791, -116.47357427002862, -0.03200000151991844, 0.2240000106394291, 0.8960000425577164, 0.0, 0.0, 0.0, 0.0, 0.0, 1.7632260938774571E9, 0.0, 2025-11-15 12:01:33.877
39.0, -1.365063483826816, 59.93189678993076, -7.03288186667487, 14.882931873667985, -0.03200000151991844, 0.2240000106394291, 0.8960000425577164, 0.0, 0.0, 0.0, 0.0, 0.0, 1.7632260938781776E9, 0.0, 2025-11-15 12:01:33.878
39.0, -139.5431471467018, -53.63016536459327, -83.8354673567228, -55.44962669303641, -0.03200000151991844, 0.2240000106394291, 0.8960000425577164, 0.0, 0.0, 0.0, 0.0, 0.0, 1.7632260938781776E9, 0.0, 2025-11-15 12:01:33.878
40.0, -211.11735249869525, -126.77138879802078, -156.97295089019462, -113.5901114041917, -0.03200000151991844, 0.2240000106394291, 0.944000044837594, 0.0, 0.0, 0.0, 0.0, 0.0, 1.7632260938918693E9, 0.0, 2025-11-15 12:01:33.891
40.0, -72.3670641425997, -17.906640987843275, -72.61950738960877, -40.18335507391021, -0.03200000151991844, 0.2240000106394291, 0.944000044837594, 0.0, 0.0, 0.0, 0.0, 0.0, 1.7632260938918693E9, 0.0, 2025-11-15 12:01:33.891
41.0, -61.6971295690164, 7.992166205309331, -28.238114615436643, -2.582400919403881, -0.03200000151991844, 0.2400000113993883, 0.944000044837594, 0.0, 0.0, 0.0, 0.0, 0.0, 1.7632260939074714E9, 0.0, 2025-11-15 12:01:33.907
41.0, -219.8051400957629, -130.93015754874796, -157.2758827866055, -118.95312794065103, -0.03200000151991844, 0.2400000113993883, 0.944000044837594, 0.0, 0.0, 0.0, 0.0, 0.0, 1.7632260939074714E9, 0.0, 2025-11-15 12:01:33.907
42.0, -153.5939512802288, -84.25620610173792, -126.13373585557565, -90.3204538798891, -0.03200000151991844, 0.2400000113993883, 0.944000044837594, 0.0, 0.0, 0.0, 0.0, 0.0, 1.763226093908174E9, 0.0, 2025-11-15 12:01:33.908
42.0, -8.272658701986074, 50.892558597028255, -3.218183911871165, 28.642023810651153, -0.03200000151991844, 0.2400000113993883, 0.944000044837594, 0.0, 0.0, 0.0, 0.0, 0.0, 1.763226093908174E9, 0.0, 2025-11-15 12:01:33.908
43.0, -205.59726016409695, -113.2740898579359, -130.3411233057268, -94.12393213482574, -0.03200000151991844, 0.2400000113993883, 0.944000044837594, 0.0, 0.0, 0.0, 0.0, 0.0, 1.7632260939218576E9, 0.0, 2025-11-15 12:01:33.921
43.0, -196.41580577287823, -116.63625991810113, -151.7595303519629, -112.82343191327527, -0.03200000151991844, 0.2400000113993883, 0.944000044837594, 0.0, 0.0, 0.0, 0.0, 0.0, 1.7632260939218576E9, 0.0, 2025-11-15 12:01:33.921
44.0, -6.241893026046455, 47.82584063336253, -15.275621369015425, 12.156544805970043, -0.03200000151991844, 0.2400000113993883, 0.944000044837594, 0.0, 0.0, 0.0, 0.0, 0.0, 1.7632260939374611E9, 0.0, 2025-11-15 12:01:33.937
44.0, -147.1463637566194, -64.65539043396711, -86.50949582504109, -59.64579444332048, -0.03200000151991844, 0.2400000113993883, 0.944000044837594, 0.0, 0.0, 0.0, 0.0, 0.0, 1.7632260939374611E9, 0.0, 2025-11-15 12:01:33.937
45.0, -218.90382420644164, -134.09411291126162, -165.4999227891676, -129.25655231857672, -0.03200000151991844, 0.2400000113993883, 0.944000044837594, 0.0, 0.0, 0.0, 0.0, 0.0, 1.7632260939381635E9, 0.0, 2025-11-15 12:01:33.938
45.0, -62.635844457894564, -9.783578284084797, -73.51334347901866, -41.78777215490118, -0.03200000151991844, 0.2400000113993883, 0.944000044837594, 0.0, 0.0, 0.0, 0.0, 0.0, 1.7632260939381635E9, 0.0, 2025-11-15 12:01:33.938
46.0, -74.72320111468434, -1.6156367808580399, -40.56108496943489, -10.507248925510794, -0.03200000151991844, 0.2400000113993883, 0.944000044837594, 0.0, 0.0, 0.0, 0.0, 0.0, 1.763226093951888E9, 0.0, 2025-11-15 12:01:33.951
46.0, -223.57121935114264, -132.86368582583964, -158.11362037668005, -123.96085398131981, -0.03200000151991844, 0.2400000113993883, 0.944000044837594, 0.0, 0.0, 0.0, 0.0, 0.0, 1.763226093951888E9, 0.0, 2025-11-15 12:01:33.951
47.0, -149.2930663311854, -80.84167744219303, -129.17801441950724, -86.64787212340161, -0.03200000151991844, 0.2400000113993883, 0.944000044837594, 0.0, 0.0, 0.0, 0.0, 0.0, 1.763226093967458E9, 0.0, 2025-11-15 12:01:33.967
47.0, -16.810850300826132, 39.620500130578876, -12.500615601893514, 16.427510555367917, -0.03200000151991844, 0.2400000113993883, 0.944000044837594, 0.0, 0.0, 0.0, 0.0, 0.0, 1.763226093967458E9, 0.0, 2025-11-15 12:01:33.967
48.0, -204.1349592814222, -115.90323952678591, -134.46249305689707, -99.40467087225989, -0.03200000151991844, 0.2400000113993883, 0.944000044837594, 0.0, 0.0, 0.0, 0.0, 0.0, 1.7632260939681804E9, 0.0, 2025-11-15 12:01:33.968
48.0, -198.60364724695683, -124.32923412695527, -154.44851842010394, -112.19138882076368, -0.03200000151991844, 0.2400000113993883, 0.944000044837594, 0.0, 0.0, 0.0, 0.0, 0.0, 1.7632260939681804E9, 0.0, 2025-11-15 12:01:33.968
49.0, -14.305117330513895, 36.16109267156571, -22.605825282167643, 4.414951897691935, -0.03200000151991844, 0.2400000113993883, 0.944000044837594, 0.0, 0.0, 0.0, 0.0, 0.0, 1.7632260939818447E9, 0.0, 2025-11-15 12:01:33.981
49.0, -140.33600593730807, -55.731989139690995, -79.45978440856561, -43.3360907365568, -0.03200000151991844, 0.2400000113993883, 0.944000044837594, 0.0, 0.0, 0.0, 0.0, 0.0, 1.7632260939818447E9, 0.0, 2025-11-15 12:01:33.981
50.0, -212.56095388159156, -123.89166583213955, -154.8000690159388, -112.90196981234476, -0.03200000151991844, 0.2400000113993883, 0.9760000463575125, 0.0, 0.0, 0.0, 0.0, 0.0, 1.763226093997458E9, 0.0, 2025-11-15 12:01:33.997
50.0, -78.73611376713961, -18.998691774904728, -76.32574824569747, -36.46963441791013, -0.03200000151991844, 0.2400000113993883, 0.9760000463575125, 0.0, 0.0, 0.0, 0.0, 0.0, 1.763226093997458E9, 0.0, 2025-11-15 12:01:33.997
51.0, -70.17548276856542, 3.051758363842964, -35.063432034570724, -4.145679100882262, -0.03200000151991844, 0.2400000113993883, 0.9760000463575125, 0.0, 0.0, 0.0, 0.0, 0.0, 1.7632260939981618E9, 0.0, 2025-11-15 12:01:33.998
51.0, -219.20301620289683, -129.3220005678013, -154.3475411213003, -110.05964584602043, -0.03200000151991844, 0.2400000113993883, 0.9760000463575125, 0.0, 0.0, 0.0, 0.0, 0.0, 1.7632260939981618E9, 0.0, 2025-11-15 12:01:33.998
52.0, -143.00255460571498, -72.33340504299849, -122.70050769625232, -77.60479403054342, -0.03200000151991844, 0.2400000113993883, 0.9760000463575125, 0.0, 0.0, 0.0, 0.0, 0.0, 1.7632260940118852E9, 0.0, 2025-11-15 12:01:34.011
52.0, -10.576437074691057, 45.90353205613792, -3.936244703363627, 32.75591376191005, -0.03200000151991844, 0.2400000113993883, 0.9760000463575125, 0.0, 0.0, 0.0, 0.0, 0.0, 1.7632260940118852E9, 0.0, 2025-11-15 12:01:34.011
53.0, -186.29937639273703, -101.83373589348048, -119.25231993710622, -86.1317659295164, -0.03200000151991844, 0.2400000113993883, 0.9760000463575125, 0.0, 0.0, 0.0, 0.0, 0.0, 1.7632260940275767E9, 0.0, 2025-11-15 12:01:34.027
53.0, -181.2692109523341, -102.36106178723276, -138.01539801480249, -99.61410526977852, -0.03200000151991844, 0.2400000113993883, 0.9760000463575125, 0.0, 0.0, 0.0, 0.0, 0.0, 1.7632260940275767E9, 0.0, 2025-11-15 12:01:34.027
54.0, -9.783578284084797, 41.04166211374104, -14.647318176459521, 10.477329725865275, -0.03200000151991844, 0.2400000113993883, 0.9760000463575125, 0.0, 0.0, 0.0, 0.0, 0.0, 1.7632260940282357E9, 0.0, 2025-11-15 12:01:34.028
54.0, -115.32355503365397, -36.32564826961607, -56.02557128621265, -34.554805640596896, -0.03200000151991844, 0.2400000113993883, 0.9760000463575125, 0.0, 0.0, 0.0, 0.0, 0.0, 1.7632260940282357E9, 0.0, 2025-11-15 12:01:34.028
55.0, -180.4239935623482, -100.8651018049568, -120.56502482155338, -89.71085018711165, -0.03200000151991844, 0.2400000113993883, 0.9760000463575125, 0.0, 0.0, 0.0, 0.0, 0.0, 1.7632260940581613E9, 0.0, 2025-11-15 12:01:34.058
55.0, -57.59445931762457, 9.525525187142193, -47.55095798661932, -13.158837994094938, -0.03200000151991844, 0.2400000113993883, 0.9760000463575125, 0.0, 0.0, 0.0, 0.0, 0.0, 1.7632260940581613E9, 0.0, 2025-11-15 12:01:34.058
56.0, -46.95818384364247, 28.18014616612345, -6.026848778594285, 27.98380141844973, -0.03200000151991844, 0.2400000113993883, 0.9760000463575125, 0.0, 0.0, 0.0, 0.0, 0.0, 1.7632260940588677E9, 0.0, 2025-11-15 12:01:34.058
56.0, -178.20249298866838, -83.54936501011252, -108.8479182603769, -81.2437166874297, -0.03200000151991844, 0.2400000113993883, 0.9760000463575125, 0.0, 0.0, 0.0, 0.0, 0.0, 1.7632260940588677E9, 0.0, 2025-11-15 12:01:34.058
57.0, -110.27842999342829, -34.003170397132635, -76.58006144268438, -49.955713658127934, -0.03200000151991844, 0.2400000113993883, 0.9760000463575125, 0.0, 0.0, 0.0, 0.0, 0.0, 1.7632260940596368E9, 0.0, 2025-11-15 12:01:34.059
57.0, 2.5094728702679276, 67.85300489608198, 16.820200050715357, 40.02627927577123, -0.03200000151991844, 0.2400000113993883, 0.9760000463575125, 0.0, 0.0, 0.0, 0.0, 0.0, 1.7632260940596368E9, 0.0, 2025-11-15 12:01:34.059
58.0, -134.96550960093737, -44.97603686712682, -72.60080788983032, -43.76617923146114, -0.03200000151991844, 0.2400000113993883, 0.9760000463575125, 0.0, 0.0, 0.0, 0.0, 0.0, 1.7632260940718486E9, 0.0, 2025-11-15 12:01:34.071
58.0, -151.82123870123178, -64.43473633658141, -102.17219683947042, -69.6799460244365, -0.03200000151991844, 0.2400000113993883, 0.9760000463575125, 0.0, 0.0, 0.0, 0.0, 0.0, 1.7632260940718486E9, 0.0, 2025-11-15 12:01:34.071
59.0, -7.072150816209614, 53.91813766118139, -6.969303567428142, 23.15933047560975, -0.03200000151991844, 0.2400000113993883, 0.9760000463575125, 0.0, 0.0, 0.0, 0.0, 0.0, 1.7632260940874898E9, 0.0, 2025-11-15 12:01:34.087
59.0, -101.81129649374634, -15.060577121563256, -36.14052322180942, -4.841300492640585, -0.03200000151991844, 0.2400000113993883, 0.9760000463575125, 0.0, 0.0, 0.0, 0.0, 0.0, 1.7632260940874898E9, 0.0, 2025-11-15 12:01:34.087
60.0, -162.8576834704727, -74.89523651264608, -104.9584223064594, -74.4595381678082, -0.03200000151991844, 0.2400000113993883, 1.008000047877431, 0.0, 0.0, 0.0, 0.0, 0.0, 1.7632260940882044E9, 0.0, 2025-11-15 12:01:34.088
60.0, -45.99328965507448, 17.065163497813046, -39.12496338644996, -9.284301640000194, -0.03200000151991844, 0.2400000113993883, 1.008000047877431, 0.0, 0.0, 0.0, 0.0, 0.0, 1.7632260940882044E9, 0.0, 2025-11-15 12:01:34.088
61.0, -49.351719815284014, 30.685879136435688, -10.619445924181491, 18.64527122909203, -0.03200000151991844, 0.2400000113993883, 1.008000047877431, 0.0, 0.0, 0.0, 0.0, 0.0, 1.7632260941018672E9, 0.0, 2025-11-15 12:01:34.101
61.0, -170.34870308171958, -77.56178518105298, -98.49213528307155, -68.92822613334283, -0.03200000151991844, 0.2400000113993883, 1.008000047877431, 0.0, 0.0, 0.0, 0.0, 0.0, 1.7632260941018672E9, 0.0, 2025-11-15 12:01:34.101
62.0, -115.83592132758349, -37.10354746039957, -80.40223919739947, -52.47266632830724, -0.03200000151991844, 0.2400000113993883, 1.008000047877431, 0.0, 0.0, 0.0, 0.0, 0.0, 1.763226094117486E9, 0.0, 2025-11-15 12:01:34.117
62.0, -15.109195820987225, 56.962416225112975, 8.192250852938741, 38.661215791944414, -0.03200000151991844, 0.2400000113993883, 1.008000047877431, 0.0, 0.0, 0.0, 0.0, 0.0, 1.763226094117486E9, 0.0, 2025-11-15 12:01:34.117
63.0, -157.61060383263975, -61.9177836664021, -89.6884107873775, -58.99505185103044, -0.03200000151991844, 0.2400000113993883, 1.008000047877431, 0.0, 0.0, 0.0, 0.0, 0.0, 1.7632260941182024E9, 0.0, 2025-11-15 12:01:34.118
63.0, -157.3001921363175, -72.42316264193505, -108.08871856937185, -70.98891100892797, -0.03200000151991844, 0.2400000113993883, 1.008000047877431, 0.0, 0.0, 0.0, 0.0, 0.0, 1.7632260941182024E9, 0.0, 2025-11-15 12:01:34.118
64.0, -18.57982297986746, 45.34254706278443, -12.30988070415333, 17.609318941365927, -0.03200000151991844, 0.2400000113993883, 1.008000047877431, 0.0, 0.0, 0.0, 0.0, 0.0, 1.7632260941318607E9, 0.0, 2025-11-15 12:01:34.131
64.0, -118.52864929568022, -25.906286993063986, -52.65218152618036, -21.98874178947881, -0.03200000151991844, 0.2400000113993883, 1.008000047877431, 0.0, 0.0, 0.0, 0.0, 0.0, 1.7632260941318607E9, 0.0, 2025-11-15 12:01:34.131
65.0, -170.25146568287164, -86.040138380602, -113.73596750246361, -76.2397305467166, -0.03200000151991844, 0.2400000113993883, 1.008000047877431, 0.0, 0.0, 0.0, 0.0, 0.0, 1.7632260941474884E9, 0.0, 2025-11-15 12:01:34.147
65.0, -63.825132643803954, 3.0367987640202045, -48.48219307558611, -16.31531355669722, -0.03200000151991844, 0.2400000113993883, 1.008000047877431, 0.0, 0.0, 0.0, 0.0, 0.0, 1.7632260941474884E9, 0.0, 2025-11-15 12:01:34.147
66.0, -58.75382830388844, 18.243231983855367, -14.422924179118127, 16.027341260109097, -0.03200000151991844, 0.2400000113993883, 1.008000047877431, 0.0, 0.0, 0.0, 0.0, 0.0, 1.7632260941482043E9, 0.0, 2025-11-15 12:01:34.148
66.0, -188.868687662296, -95.82745656464249, -119.98160042846575, -75.55532885482535, -0.03200000151991844, 0.2400000113993883, 1.008000047877431, 0.0, 0.0, 0.0, 0.0, 0.0, 1.7632260941482043E9, 0.0, 2025-11-15 12:01:34.148
67.0, -130.49632915388793, -57.02973442431539, -98.51083478285, -62.428280010353774, -0.03200000151991844, 0.2400000113993883, 1.008000047877431, 0.0, 0.0, 0.0, 0.0, 0.0, 1.7632260941619601E9, 0.0, 2025-11-15 12:01:34.161
67.0, -21.635321243666112, 43.07616768963635, -2.9152520154602826, 26.087672140914947, -0.03200000151991844, 0.2400000113993883, 1.008000047877431, 0.0, 0.0, 0.0, 0.0, 0.0, 1.7632260941619601E9, 0.0, 2025-11-15 12:01:34.161
68.0, -175.58456301968545, -83.87099640630186, -97.68805679259822, -67.50706415018067, -0.03200000151991844, 0.2400000113993883, 1.008000047877431, 0.0, 0.0, 0.0, 0.0, 0.0, 1.7632260941774802E9, 0.0, 2025-11-15 12:01:34.177
68.0, -167.79435141198337, -91.563970615156, -126.17487475508824, -100.15639076335356, -0.03200000151991844, 0.2400000113993883, 1.008000047877431, 0.0, 0.0, 0.0, 0.0, 0.0, 1.7632260941774802E9, 0.0, 2025-11-15 12:01:34.177
69.0, -31.02994993235916, 24.92269330471754, -31.383370478171855, -2.937691415194422, -0.03200000151991844, 0.2400000113993883, 1.008000047877431, 0.0, 0.0, 0.0, 0.0, 0.0, 1.7632260941781955E9, 0.0, 2025-11-15 12:01:34.178
69.0, -128.75353577453643, -42.1299730008468, -67.73145814752206, -38.208687897305936, -0.03200000151991844, 0.2400000113993883, 1.008000047877431, 0.0, 0.0, 0.0, 0.0, 0.0, 1.7632260941781955E9, 0.0, 2025-11-15 12:01:34.178
70.0, -192.96761801373214, -108.85352811031044, -141.048456878867, -105.86721799569204, -0.03200000151991844, 0.2400000113993883, 1.008000047877431, 0.0, 0.0, 0.0, 0.0, 0.0, 1.7632260941919E9, 0.0, 2025-11-15 12:01:34.191
70.0, -91.31339731812477, -23.37063482310623, -80.20776439970359, -47.453720587771386, -0.03200000151991844, 0.2400000113993883, 1.008000047877431, 0.0, 0.0, 0.0, 0.0, 0.0, 1.7632260941919E9, 0.0, 2025-11-15 12:01:34.191
71.0, -72.94300873577595, 0.5385455936193466, -34.603424340020865, -5.301308187190443, -0.03200000151991844, 0.2400000113993883, 1.008000047877431, 0.0, 0.0, 0.0, 0.0, 0.0, 1.7632260942074845E9, 0.0, 2025-11-15 12:01:34.207
71.0, -197.74721015710384, -108.25888401735574, -134.4176142574288, -99.30743347341195, -0.03200000151991844, 0.2400000113993883, 1.008000047877431, 0.0, 0.0, 0.0, 0.0, 0.0, 1.7632260942074845E9, 0.0, 2025-11-15 12:01:34.207
72.0, -141.506594623439, -72.72235463839024, -114.16979589732364, -80.5742745953612, -0.03200000151991844, 0.2400000113993883, 1.008000047877431, 0.0, 0.0, 0.0, 0.0, 0.0, 1.7632260942082036E9, 0.0, 2025-11-15 12:01:34.208
72.0, -23.70348591916263, 32.780223111622036, -11.356206215452403, 18.33859943272546, -0.03200000151991844, 0.2400000113993883, 1.008000047877431, 0.0, 0.0, 0.0, 0.0, 0.0, 1.7632260942082036E9, 0.0, 2025-11-15 12:01:34.208
73.0, -177.83224289305508, -87.55105796270072, -108.6609232625924, -77.95634462637827, -0.03200000151991844, 0.2400000113993883, 1.008000047877431, 0.0, 0.0, 0.0, 0.0, 0.0, 1.7632260942218833E9, 0.0, 2025-11-15 12:01:34.221
73.0, -181.7553979465738, -103.901900568977, -136.21276623615995, -101.44665624806657, -0.03200000151991844, 0.2400000113993883, 1.008000047877431, 0.0, 0.0, 0.0, 0.0, 0.0, 1.7632260942218833E9, 0.0, 2025-11-15 12:01:34.221
74.0, -30.24831084161997, 24.245771412737668, -29.782693297136575, -7.02914196671918, -0.03200000151991844, 0.2400000113993883, 1.008000047877431, 0.0, 0.0, 0.0, 0.0, 0.0, 1.763226094237484E9, 0.0, 2025-11-15 12:01:34.237
74.0, -139.5057481471449, -55.84792603831738, -77.05876863701269, -55.24767209542915, -0.03200000151991844, 0.2400000113993883, 1.008000047877431, 0.0, 0.0, 0.0, 0.0, 0.0, 1.763226094237484E9, 0.0, 2025-11-15 12:01:34.237
75.0, -194.15316629968584, -114.74013064056635, -141.35886857518926, -114.7382606905885, -0.03200000151991844, 0.2400000113993883, 1.008000047877431, 0.0, 0.0, 0.0, 0.0, 0.0, 1.7632260942382004E9, 0.0, 2025-11-15 12:01:34.238
75.0, -92.65976130217314, -36.65101956576109, -83.28570206323639, -60.64808763144538, -0.03200000151991844, 0.2400000113993883, 1.008000047877431, 0.0, 0.0, 0.0, 0.0, 0.0, 1.7632260942382004E9, 0.0, 2025-11-15 12:01:34.238
76.0, -65.93443621881306, -2.41223547141999, -36.0358060230501, -3.3154213107191026, -0.03200000151991844, 0.2400000113993883, 1.008000047877431, 0.0, 0.0, 0.0, 0.0, 0.0, 1.763226094251871E9, 0.0, 2025-11-15 12:01:34.251
76.0, -208.503162429668, -119.48606368433684, -144.52282393770292, -110.39249694207683, -0.03200000151991844, 0.2400000113993883, 1.008000047877431, 0.0, 0.0, 0.0, 0.0, 0.0, 1.763226094251871E9, 0.0, 2025-11-15 12:01:34.251
77.0, -146.0730124693364, -84.04303180426359, -128.5983299263753, -91.31526726810262, -0.03200000151991844, 0.2400000113993883, 1.008000047877431, 0.0, 0.0, 0.0, 0.0, 0.0, 1.7632260942674804E9, 0.0, 2025-11-15 12:01:34.267
77.0, -29.73594454769045, 22.443139634095132, -28.073559017386287, 6.24750287597999, -0.03200000151991844, 0.2400000113993883, 1.008000047877431, 0.0, 0.0, 0.0, 0.0, 0.0, 1.7632260942674804E9, 0.0, 2025-11-15 12:01:34.267
78.0, -177.47321249730885, -90.81599062401801, -119.27475933684036, -91.57332036504522, -0.03200000151991844, 0.2400000113993883, 1.008000047877431, 0.0, 0.0, 0.0, 0.0, 0.0, 1.7632260942681975E9, 0.0, 2025-11-15 12:01:34.268
78.0, -179.1973063768819, -109.90070009790361, -145.09876853087917, -117.44968815846369, -0.03200000151991844, 0.2400000113993883, 1.008000047877431, 0.0, 0.0, 0.0, 0.0, 0.0, 1.7632260942681975E9, 0.0, 2025-11-15 12:01:34.268
79.0, -34.13406689558178, 15.29993071872741, -49.155375067610294, -24.928303154651076, -0.03200000151991844, 0.2400000113993883, 1.008000047877431, 0.0, 0.0, 0.0, 0.0, 0.0, 1.7632260942818446E9, 0.0, 2025-11-15 12:01:34.281
79.0, -133.9145977133885, -53.88073866162449, -84.55352814821526, -60.70792603073642, -0.03200000151991844, 0.2400000113993883, 1.008000047877431, 0.0, 0.0, 0.0, 0.0, 0.0, 1.7632260942818446E9, 0.0, 2025-11-15 12:01:34.281
80.0, -201.1654787166044, -120.40981897339225, -149.72502477606758, -117.17667546169832, -0.03200000151991844, 0.2400000113993883, 1.008000047877431, 0.0, 0.0, 0.0, 0.0, 0.0, 1.7632260942975297E9, 0.0, 2025-11-15 12:01:34.297
80.0, -80.32183134835213, -19.544717168435454, -77.57113493094221, -49.79863785998896, -0.03200000151991844, 0.2400000113993883, 1.008000047877431, 0.0, 0.0, 0.0, 0.0, 0.0, 1.7632260942975297E9, 0.0, 2025-11-15 12:01:34.297
81.0, -71.8883569482714, -5.748226231895387, -39.29325888445601, -13.790881086606532, -0.03200000151991844, 0.2400000113993883, 1.008000047877431, 0.0, 0.0, 0.0, 0.0, 0.0, 1.7632260942981997E9, 0.0, 2025-11-15 12:01:34.298
81.0, -199.89391273166984, -124.16467852890491, -145.72707172343507, -110.04094634624198, -0.03200000151991844, 0.2400000113993883, 1.008000047877431, 0.0, 0.0, 0.0, 0.0, 0.0, 1.7632260942981997E9, 0.0, 2025-11-15 12:01:34.298
82.0, -147.78214674908668, -84.92564819380641, -125.34835686488077, -90.8776989732869, -0.03200000151991844, 0.2400000113993883, 1.008000047877431, 0.0, 0.0, 0.0, 0.0, 0.0, 1.7632260943118515E9, 0.0, 2025-11-15 12:01:34.311
82.0, -26.388734087347984, 21.429626746103168, -24.37105806125328, 4.478530196938664, -0.03200000151991844, 0.2400000113993883, 1.008000047877431, 0.0, 0.0, 0.0, 0.0, 0.0, 1.7632260943118515E9, 0.0, 2025-11-15 12:01:34.311
83.0, -179.6012155720964, -101.7514580944553, -119.93298172904179, -94.20247003389522, -0.03200000151991844, 0.2400000113993883, 1.008000047877431, 0.0, 0.0, 0.0, 0.0, 0.0, 1.7632260943274949E9, 0.0, 2025-11-15 12:01:34.327
83.0, -181.46368575002998, -115.34225453343242, -152.63466694159433, -121.1521891145967, -0.03200000151991844, 0.2400000113993883, 1.008000047877431, 0.0, 0.0, 0.0, 0.0, 0.0, 1.7632260943274949E9, 0.0, 2025-11-15 12:01:34.327
84.0, -28.890727157704532, 21.870934940874577, -39.91782217705622, -19.96919581340626, -0.03200000151991844, 0.2400000113993883, 1.008000047877431, 0.0, 0.0, 0.0, 0.0, 0.0, 1.7632260943281915E9, 0.0, 2025-11-15 12:01:34.328
84.0, -127.60912638809532, -50.76166209857911, -86.30006142752245, -56.736152277793735, -0.03200000151991844, 0.2400000113993883, 1.008000047877431, 0.0, 0.0, 0.0, 0.0, 0.0, 1.7632260943281915E9, 0.0, 2025-11-15 12:01:34.328
85.0, -192.07752182427794, -115.13656003586948, -150.14015367114916, -121.52991901012138, -0.03200000151991844, 0.2400000113993883, 1.008000047877431, 0.0, 0.0, 0.0, 0.0, 0.0, 1.7632260943418472E9, 0.0, 2025-11-15 12:01:34.341
85.0, -75.72923420276493, -25.35652169957757, -81.8720198799856, -60.49475173326209, -0.03200000151991844, 0.2400000113993883, 1.008000047877431, 0.0, 0.0, 0.0, 0.0, 0.0, 1.7632260943418472E9, 0.0, 2025-11-15 12:01:34.341
86.0, -65.24629462696612, -0.14585609827190638, -39.78318577865139, -17.418584043625742, -0.03200000151991844, 0.2400000113993883, 1.008000047877431, 0.0, 0.0, 0.0, 0.0, 0.0, 1.7632260943574753E9, 0.0, 2025-11-15 12:01:34.357
86.0, -194.54959569498897, -112.91879936214536, -136.17162733664736, -109.57719875173643, -0.03200000151991844, 0.2400000113993883, 1.008000047877431, 0.0, 0.0, 0.0, 0.0, 0.0, 1.7632260943574753E9, 0.0, 2025-11-15 12:01:34.357
87.0, -140.45568273589015, -83.47456701099873, -124.26004597777501, -97.27292789751664, -0.03200000151991844, 0.2400000113993883, 1.008000047877431, 0.0, 0.0, 0.0, 0.0, 0.0, 1.7632260943581867E9, 0.0, 2025-11-15 12:01:34.358
87.0, -34.796029187738895, 21.500684845261276, -30.01082719443366, -3.0349288140423596, -0.03200000151991844, 0.2400000113993883, 1.008000047877431, 0.0, 0.0, 0.0, 0.0, 0.0, 1.7632260943581867E9, 0.0, 2025-11-15 12:01:34.358
88.0, -179.50397817324847, -92.18853390775621, -121.01007291628048, -85.26036923984066, -0.03200000151991844, 0.2400000113993883, 1.008000047877431, 0.0, 0.0, 0.0, 0.0, 0.0, 1.7632260943718417E9, 0.0, 2025-11-15 12:01:34.371
88.0, -187.52606357820332, -115.19639843516052, -153.39760653255507, -115.72185437893495, -0.03200000151991844, 0.2400000113993883, 1.008000047877431, 0.0, 0.0, 0.0, 0.0, 0.0, 1.7632260943718417E9, 0.0, 2025-11-15 12:01:34.371
89.0, -36.31068866979331, 8.960800293833017, -51.68354743765667, -15.193343569990247, -0.03200000151991844, 0.2400000113993883, 1.008000047877431, 0.0, 0.0, 0.0, 0.0, 0.0, 1.7632260943874764E9, 0.0, 2025-11-15 12:01:34.387
89.0, -126.06828760635108, -55.10742584709078, -82.97903026686981, -50.60645625041798, -0.03200000151991844, 0.2400000113993883, 1.008000047877431, 0.0, 0.0, 0.0, 0.0, 0.0, 1.7632260943874764E9, 0.0, 2025-11-15 12:01:34.387
90.0, -193.83901470340788, -121.81976125668734, -157.96028447849676, -127.94384743412957, -0.03200000151991844, 0.2400000113993883, 1.008000047877431, 0.0, 0.0, 0.0, 0.0, 0.0, 1.7632260943881876E9, 0.0, 2025-11-15 12:01:34.388
90.0, -87.55105796270072, -32.89989991020411, -89.29198139207438, -60.56206993246451, -0.03200000151991844, 0.2400000113993883, 1.008000047877431, 0.0, 0.0, 0.0, 0.0, 0.0, 1.7632260943881876E9, 0.0, 2025-11-15 12:01:34.388
91.0, -61.87290486693382, 0.38894959539175034, -39.21472098538652, -8.22217005258426, -0.03200000151991844, 0.2400000113993883, 1.008000047877431, 0.0, 0.0, 0.0, 0.0, 0.0, 1.7632260944019148E9, 0.0, 2025-11-15 12:01:34.401
91.0, -207.44103084225208, -117.27204291056842, -144.81453613424674, -111.75008062599227, -0.03200000151991844, 0.2400000113993883, 1.008000047877431, 0.0, 0.0, 0.0, 0.0, 0.0, 1.7632260944019148E9, 0.0, 2025-11-15 12:01:34.401
92.0, -149.52868002839386, -86.76941887196153, -132.0839166850783, -89.3555596913211, -0.03200000151991844, 0.2400000113993883, 1.008000047877431, 0.0, 0.0, 0.0, 0.0, 0.0, 1.76322609441747E9, 0.0, 2025-11-15 12:01:34.417
92.0, -29.522770250216126, 26.231658289209008, -27.392897225450724, 3.7679492053575814, -0.03200000151991844, 0.2400000113993883, 1.008000047877431, 0.0, 0.0, 0.0, 0.0, 0.0, 1.76322609441747E9, 0.0, 2025-11-15 12:01:34.417
93.0, -176.5980759076774, -95.72273936588317, -121.44016141118482, -84.56100794812664, -0.03200000151991844, 0.2400000113993883, 1.008000047877431, 0.0, 0.0, 0.0, 0.0, 0.0, 1.763226094418184E9, 0.0, 2025-11-15 12:01:34.418
93.0, -179.35064227506518, -113.75279705226421, -144.6013618367724, -106.6226777867414, -0.03200000151991844, 0.2400000113993883, 1.008000047877431, 0.0, 0.0, 0.0, 0.0, 0.0, 1.763226094418184E9, 0.0, 2025-11-15 12:01:34.418
94.0, -36.2770295701921, 11.612389362417161, -48.58317037438974, -18.821046527009457, -0.03200000151991844, 0.2400000113993883, 1.008000047877431, 0.0, 0.0, 0.0, 0.0, 0.0, 1.7632260944318895E9, 0.0, 2025-11-15 12:01:34.431
94.0, -134.22500940971076, -59.12781829945743, -82.68357817037031, -52.47266632830724, -0.03200000151991844, 0.2400000113993883, 1.008000047877431, 0.0, 0.0, 0.0, 0.0, 0.0, 1.7632260944318895E9, 0.0, 2025-11-15 12:01:34.431
95.0, -197.6911116577685, -120.02834917791188, -147.21181200584397, -114.68964199116454, -0.03200000151991844, 0.2400000113993883, 1.008000047877431, 0.0, 0.0, 0.0, 0.0, 0.0, 1.7632260944474902E9, 0.0, 2025-11-15 12:01:34.447
95.0, -87.70439386088401, -28.22502496559173, -82.8331741685979, -53.43008071696386, -0.03200000151991844, 0.2400000113993883, 1.008000047877431, 0.0, 0.0, 0.0, 0.0, 0.0, 1.7632260944474902E9, 0.0, 2025-11-15 12:01:34.447
96.0, -60.09645238798112, 2.531912270002067, -36.75386681454256, -8.072574054356664, -0.03200000151991844, 0.2400000113993883, 1.008000047877431, 0.0, 0.0, 0.0, 0.0, 0.0, 1.7632260944481857E9, 0.0, 2025-11-15 12:01:34.448
96.0, -201.19165801629424, -122.06285475380719, -145.6485338243656, -103.50360122369602, -0.03200000151991844, 0.2400000113993883, 1.008000047877431, 0.0, 0.0, 0.0, 0.0, 0.0, 1.7632260944481857E9, 0.0, 2025-11-15 12:01:34.448
97.0, -142.11993821617216, -79.0353057635948, -121.62715640896931, -88.26724880421534, -0.03200000151991844, 0.2400000113993883, 1.008000047877431, 0.0, 0.0, 0.0, 0.0, 0.0, 1.7632260944618976E9, 0.0, 2025-11-15 12:01:34.461
97.0, -28.59153516124934, 23.72218541894108, -26.71597533347085, 2.818014616612345, -0.03200000151991844, 0.2400000113993883, 1.008000047877431, 0.0, 0.0, 0.0, 0.0, 0.0, 1.7632260944618976E9, 0.0, 2025-11-15 12:01:34.461
98.0, -178.33338948711753, -96.6764138545841, -115.58721798053011, -79.92353200307116, -0.03200000151991844, 0.2400000113993883, 1.008000047877431, 0.0, 0.0, 0.0, 0.0, 0.0, 1.7632260944774723E9, 0.0, 2025-11-15 12:01:34.477
98.0, -183.02696393150836, -107.22667162958533, -140.70438608294353, -93.88083863770589, -0.03200000151991844, 0.2400000113993883, 1.008000047877431, 0.0, 0.0, 0.0, 0.0, 0.0, 1.7632260944774723E9, 0.0, 2025-11-15 12:01:34.477
99.0, -34.018129996955395, 20.45725275762379, -37.15029620984569, -6.9431242677383125, -0.03200000151991844, 0.2400000113993883, 1.008000047877431, 0.0, 0.0, 0.0, 0.0, 0.0, 1.7632260944781864E9, 0.0, 2025-11-15 12:01:34.478
99.0, -137.6208385694772, -60.174990287050605, -85.53712183656171, -46.61598299769685, -0.03200000151991844, 0.2400000113993883, 1.008000047877431, 0.0, 0.0, 0.0, 0.0, 0.0, 1.7632260944781864E9, 0.0, 2025-11-15 12:01:34.478
100.0, -199.71065763384104, -117.24960351083428, -147.25295090535656, -109.1807693564333, -0.03200000151991844, 0.2400000113993883, 1.008000047877431, 0.0, 0.0, 0.0, 0.0, 0.0, 1.763226094492502E9, 0.0, 2025-11-15 12:01:34.492
100.0, -84.88076939433813, -32.417452815920115, -84.04116185428575, -47.95486718183383, -0.03200000151991844, 0.2400000113993883, 1.008000047877431, 0.0, 0.0, 0.0, 0.0, 0.0, 1.763226094492502E9, 0.0, 2025-11-15 12:01:34.492
0.0, -56.4350903313607, 1.4623008826747537, -30.61482103727758, 3.975513652898371, -0.03200000151991844, 0.2400000113993883, 1.008000047877431, 0.0, 0.0, 0.0, 0.0, 0.0, 1.7632260944931936E9, 0.0, 2025-11-15 12:01:34.493
1.0, -196.18393197562546, -114.25020374637097, -133.9893957125023, -90.6701345257461, -0.03200000151991844, 0.2400000113993883, 1.008000047877431, 0.0, 0.0, 0.0, 0.0, 0.0, 1.7632260945068629E9, 0.0, 2025-11-15 12:01:34.506
1.0, -152.50564039312303, -87.08731036819518, -129.29582126811147, -86.7806385718286, -0.03200000151991844, 0.2400000113993883, 1.008000047877431, 0.0, 0.0, 0.0, 0.0, 0.0, 1.7632260945068629E9, 0.0, 2025-11-15 12:01:34.506
2.0, -22.424440134316683, 28.337221964262426, -20.408634058199823, 14.47715272847563, -0.03200000151991844, 0.2400000113993883, 1.008000047877431, 0.0, 0.0, 0.0, 0.0, 0.0, 1.7632260945226324E9, 0.0, 2025-11-15 12:01:34.522
2.0, -174.5673102317378, -96.25006525963545, -118.10978050064296, -78.17512877378613, -0.03200000151991844, 0.2400000113993883, 1.008000047877431, 0.0, 0.0, 0.0, 0.0, 0.0, 1.7632260945226324E9, 0.0, 2025-11-15 12:01:34.522
3.0, -179.51145797315985, -105.98502484429628, -141.92546341847628, -101.93097329232842, -0.03200000151991844, 0.2400000113993883, 1.008000047877431, 0.0, 0.0, 0.0, 0.0, 0.0, 1.7632260945232563E9, 0.0, 2025-11-15 12:01:34.523
3.0, -19.466179269365966, 21.27255094796419, -32.18183911871165, -3.7174605559557676, -0.03200000151991844, 0.2400000113993883, 1.008000047877431, 0.0, 0.0, 0.0, 0.0, 0.0, 1.7632260945232563E9, 0.0, 2025-11-15 12:01:34.523
4.0, -134.61021910514683, -54.767094951123, -77.06811838690192, -42.1299730008468, -0.03200000151991844, 0.2400000113993883, 1.008000047877431, 0.0, 0.0, 0.0, 0.0, 0.0, 1.763226094536833E9, 0.0, 2025-11-15 12:01:34.536
4.0, -204.86797967273742, -124.44517102558166, -148.99013443477452, -105.36794135160744, -0.03200000151991844, 0.2400000113993883, 1.008000047877431, 0.0, 0.0, 0.0, 0.0, 0.0, 1.763226094536833E9, 0.0, 2025-11-15 12:01:34.536
5.0, -84.58531729783863, -28.666333160363138, -75.09345121029764, -37.38030005712062, -0.03200000151991844, 0.2400000113993883, 1.008000047877431, 0.0, 0.0, 0.0, 0.0, 0.0, 1.7632260945525308E9, 0.0, 2025-11-15 12:01:34.552
5.0, -68.82163898460567, -5.594890333712101, -35.74596377648413, -5.1722816387191415, -0.03200000151991844, 0.2400000113993883, 1.008000047877431, 0.0, 0.0, 0.0, 0.0, 0.0, 1.7632260945525308E9, 0.0, 2025-11-15 12:01:34.552
6.0, -204.66976497508585, -120.5407154718414, -139.27387434989214, -102.94448618032038, -0.03200000151991844, 0.2400000113993883, 1.008000047877431, 0.0, 0.0, 0.0, 0.0, 0.0, 1.7632260945532277E9, 0.0, 2025-11-15 12:01:34.553
6.0, -152.5879181921482, -88.09334345627576, -130.70202365145087, -88.31773745361716, -0.03200000151991844, 0.2400000113993883, 1.008000047877431, 0.0, 0.0, 0.0, 0.0, 0.0, 1.7632260945532277E9, 0.0, 2025-11-15 12:01:34.553
7.0, -23.430473222397268, 29.42553285136819, -18.14973448496312, 16.83702960051596, -0.03200000151991844, 0.2400000113993883, 1.008000047877431, 0.0, 0.0, 0.0, 0.0, 0.0, 1.76322609456685E9, 0.0, 2025-11-15 12:01:34.566
7.0, -178.35582888685167, -102.14414758980274, -117.2795227104798, -82.58447082154453, -0.03200000151991844, 0.2400000113993883, 1.008000047877431, 0.0, 0.0, 0.0, 0.0, 0.0, 1.76322609456685E9, 0.0, 2025-11-15 12:01:34.566
8.0, -187.0548361837864, -121.06430146563798, -149.68575582653284, -110.96657158527523, -0.03200000151991844, 0.2400000113993883, 1.008000047877431, 0.0, 0.0, 0.0, 0.0, 0.0, 1.763226094582526E9, 0.0, 2025-11-15 12:01:34.582
8.0, -31.73305112402886, 10.49041937571019, -43.00136969052255, -10.643755273893476, -0.03200000151991844, 0.2400000113993883, 1.008000047877431, 0.0, 0.0, 0.0, 0.0, 0.0, 1.763226094582526E9, 0.0, 2025-11-15 12:01:34.582
9.0, -129.10882627032697, -57.22794912196696, -77.93951507657766, -47.01802224293351, -0.03200000151991844, 0.2400000113993883, 1.008000047877431, 0.0, 0.0, 0.0, 0.0, 0.0, 1.763226094583248E9, 0.0, 2025-11-15 12:01:34.583
9.0, -204.44911087770015, -127.6914041871205, -150.42999591771513, -113.719137952663, -0.03200000151991844, 0.2400000113993883, 1.008000047877431, 0.0, 0.0, 0.0, 0.0, 0.0, 1.763226094583248E9, 0.0, 2025-11-15 12:01:34.583
10.0, -91.57519031502306, -41.95793760288507, -91.11144272051752, -62.65454395767301, -0.03200000151991844, 0.2400000113993883, 1.008000047877431, 0.0, 0.0, 0.0, 0.0, 0.0, 1.763226094596881E9, 0.0, 2025-11-15 12:01:34.596
10.0, -64.2178221391514, -0.602123892866075, -38.73414384108037, -9.465686787851155, -0.03200000151991844, 0.2400000113993883, 1.008000047877431, 0.0, 0.0, 0.0, 0.0, 0.0, 1.763226094596881E9, 0.0, 2025-11-15 12:01:34.596
11.0, -205.82539406139404, -125.96731030754745, -150.65812981501222, -114.96452463790774, -0.03200000151991844, 0.2400000113993883, 1.008000047877431, 0.0, 0.0, 0.0, 0.0, 0.0, 1.763226094612528E9, 0.0, 2025-11-15 12:01:34.612
11.0, -141.7309886207804, -79.76832615491003, -123.5401152363047, -88.45985365193337, -0.03200000151991844, 0.2400000113993883, 1.008000047877431, 0.0, 0.0, 0.0, 0.0, 0.0, 1.763226094612528E9, 0.0, 2025-11-15 12:01:34.612
12.0, -19.828949565067887, 37.679492053575814, -10.651235073804855, 16.03295111004263, -0.03200000151991844, 0.2400000113993883, 1.008000047877431, 0.0, 0.0, 0.0, 0.0, 0.0, 1.7632260946132224E9, 0.0, 2025-11-15 12:01:34.613
12.0, -177.50687159691006, -94.14076168462634, -112.45505176763982, -76.87738348916173, -0.03200000151991844, 0.2400000113993883, 1.008000047877431, 0.0, 0.0, 0.0, 0.0, 0.0, 1.7632260946132224E9, 0.0, 2025-11-15 12:01:34.613
13.0, -176.28766421135515, -102.92578668054193, -136.85041917860508, -99.44393982179463, -0.03200000151991844, 0.2400000113993883, 1.008000047877431, 0.0, 0.0, 0.0, 0.0, 0.0, 1.7632260946269112E9, 0.0, 2025-11-15 12:01:34.626
13.0, -13.964786434546113, 40.12164672464132, -22.701192731037736, 9.806017683818936, -0.03200000151991844, 0.2400000113993883, 1.008000047877431, 0.0, 0.0, 0.0, 0.0, 0.0, 1.7632260946269112E9, 0.0, 2025-11-15 12:01:34.626
14.0, -114.50451694335788, -36.56874176673591, -61.809326567687094, -34.32106189336628, -0.03200000151991844, 0.2400000113993883, 1.008000047877431, 0.0, 0.0, 0.0, 0.0, 0.0, 1.7632260946582005E9, 0.0, 2025-11-15 12:01:34.658
14.0, -186.0862020952627, -106.85642153397202, -134.9916889006272, -100.09094251412898, -0.03200000151991844, 0.2400000113993883, 1.008000047877431, 0.0, 0.0, 0.0, 0.0, 0.0, 1.7632260946582005E9, 0.0, 2025-11-15 12:01:34.658
15.0, -69.7005154741928, -12.928834146820009, -71.11419765744358, -38.850080739706755, -0.03200000151991844, 0.2400000113993883, 1.008000047877431, 0.0, 0.0, 0.0, 0.0, 0.0, 1.7632260946589017E9, 0.0, 2025-11-15 12:01:34.658
15.0, -44.22805687598884, 23.31827622372657, -16.06661020964384, 15.28871101886034, -0.03200000151991844, 0.2400000113993883, 1.008000047877431, 0.0, 0.0, 0.0, 0.0, 0.0, 1.7632260946589017E9, 0.0, 2025-11-15 12:01:34.658
16.0, -181.1607538536191, -91.79958431236446, -117.19350501149893, -84.72743349615484, -0.03200000151991844, 0.2400000113993883, 1.008000047877431, 0.0, 0.0, 0.0, 0.0, 0.0, 1.7632260946596415E9, 0.0, 2025-11-15 12:01:34.659
16.0, -124.2095573283732, -68.16715649235994, -106.25803754106164, -71.8846170483157, -0.03200000151991844, 0.2400000113993883, 1.008000047877431, 0.0, 0.0, 0.0, 0.0, 0.0, 1.7632260946596415E9, 0.0, 2025-11-15 12:01:34.659
17.0, -6.877676018513739, 46.3560599507764, -8.02582530491054, 23.987718315795064, -0.03200000151991844, 0.2400000113993883, 1.008000047877431, 0.0, 0.0, 0.0, 0.0, 0.0, 1.763226094672558E9, 0.0, 2025-11-15 12:01:34.672
17.0, -162.28921867720783, -75.05231231078506, -97.7497651418671, -62.04494026489556, -0.03200000151991844, 0.2400000113993883, 1.008000047877431, 0.0, 0.0, 0.0, 0.0, 0.0, 1.763226094672558E9, 0.0, 2025-11-15 12:01:34.672
18.0, -171.5305114677176, -98.96149272751063, -138.660530757159, -98.56132343225181, -0.03200000151991844, 0.2400000113993883, 1.008000047877431, 0.0, 0.0, 0.0, 0.0, 0.0, 1.7632260946732135E9, 0.0, 2025-11-15 12:01:34.673
18.0, -16.788410901091993, 29.275936853140593, -32.421192715875804, -2.9171219654381275, -0.03200000151991844, 0.2400000113993883, 1.008000047877431, 0.0, 0.0, 0.0, 0.0, 0.0, 1.7632260946732135E9, 0.0, 2025-11-15 12:01:34.673
19.0, -115.30859543383121, -35.36075408104807, -58.75382830388844, -26.99833778012544, -0.03200000151991844, 0.2400000113993883, 1.008000047877431, 0.0, 0.0, 0.0, 0.0, 0.0, 1.7632260946868656E9, 0.0, 2025-11-15 12:01:34.686
19.0, -187.98981117270887, -114.5007770434022, -140.00689474120736, -104.39182746317238, -0.03200000151991844, 0.2400000113993883, 1.008000047877431, 0.0, 0.0, 0.0, 0.0, 0.0, 1.7632260946868656E9, 0.0, 2025-11-15 12:01:34.686
20.0, -76.26777979638427, -22.013051139190793, -76.71282789111137, -44.037321978248656, -0.03200000151991844, 0.2400000113993883, 1.0240000486373901, 0.0, 0.0, 0.0, 0.0, 0.0, 1.7632260947025836E9, 0.0, 2025-11-15 12:01:34.702
20.0, -59.25497489795089, 5.830504030920565, -32.58574831392616, 1.4810003824532032, -0.03200000151991844, 0.2400000113993883, 1.0240000486373901, 0.0, 0.0, 0.0, 0.0, 0.0, 1.7632260947025836E9, 0.0, 2025-11-15 12:01:34.702
21.0, -198.19973805174232, -118.99613679014146, -143.92630989477038, -104.93037305679172, -0.03200000151991844, 0.2400000113993883, 1.0240000486373901, 0.0, 0.0, 0.0, 0.0, 0.0, 1.7632260947032504E9, 0.0, 2025-11-15 12:01:34.703
21.0, -143.00255460571498, -82.38999602384865, -123.22222374007106, -83.17911491449922, -0.03200000151991844, 0.2400000113993883, 1.0240000486373901, 0.0, 0.0, 0.0, 0.0, 0.0, 1.7632260947032504E9, 0.0, 2025-11-15 12:01:34.703
22.0, -16.10026930924505, 32.9784378092736, -12.984932646155357, 23.419253522530198, -0.03200000151991844, 0.2400000113993883, 1.0240000486373901, 0.0, 0.0, 0.0, 0.0, 0.0, 1.7632260947168355E9, 0.0, 2025-11-15 12:01:34.716
22.0, -175.12829522509128, -92.62236230261624, -112.60464776586741, -68.1409771926701, -0.03200000151991844, 0.2400000113993883, 1.0240000486373901, 0.0, 0.0, 0.0, 0.0, 0.0, 1.7632260947168355E9, 0.0, 2025-11-15 12:01:34.716
23.0, -184.43690621480346, -114.77752964012325, -144.1806230917573, -103.70742577128112, -0.03200000151991844, 0.2400000113993883, 1.0240000486373901, 0.0, 0.0, 0.0, 0.0, 0.0, 1.763226094732612E9, 0.0, 2025-11-15 12:01:34.732
23.0, -30.835475134663284, 16.89312809985131, -38.73414384108037, -1.7951519787311554, -0.03200000151991844, 0.2400000113993883, 1.0240000486373901, 0.0, 0.0, 0.0, 0.0, 0.0, 1.763226094732612E9, 0.0, 2025-11-15 12:01:34.732
24.0, -139.90965734235942, -66.38322421349585, -88.84132344741374, -50.26051550451666, -0.03200000151991844, 0.2400000113993883, 1.0240000486373901, 0.0, 0.0, 0.0, 0.0, 0.0, 1.7632260947332373E9, 0.0, 2025-11-15 12:01:34.733
24.0, -209.42317781876773, -136.62602518126369, -161.889049381949, -116.10893402434886, -0.03200000151991844, 0.2400000113993883, 1.0240000486373901, 0.0, 0.0, 0.0, 0.0, 0.0, 1.7632260947332373E9, 0.0, 2025-11-15 12:01:34.733
25.0, -95.69282016623765, -49.47513651382178, -97.58146964386106, -49.295621315948665, -0.03200000151991844, 0.2400000113993883, 1.0240000486373901, 0.0, 0.0, 0.0, 0.0, 0.0, 1.7632260947468352E9, 0.0, 2025-11-15 12:01:34.746
25.0, -76.35379749536514, -21.863455140963197, -48.21105032879859, 0.564724893309176, -0.03200000151991844, 0.2400000113993883, 1.0240000486373901, 0.0, 0.0, 0.0, 0.0, 0.0, 1.7632260947468352E9, 0.0, 2025-11-15 12:01:34.746
26.0, -215.20132325030863, -143.84029219578952, -160.4117888994515, -109.2387378057465, -0.03200000151991844, 0.2400000113993883, 1.0240000486373901, 0.0, 0.0, 0.0, 0.0, 0.0, 1.763226094762508E9, 0.0, 2025-11-15 12:01:34.762
26.0, -167.9738666098565, -113.93605215009302, -147.8120659487322, -101.11193520203233, -0.03200000151991844, 0.2400000113993883, 1.0240000486373901, 0.0, 0.0, 0.0, 0.0, 0.0, 1.763226094762508E9, 0.0, 2025-11-15 12:01:34.762
27.0, -39.13431313633919, 4.461700647138059, -43.60723348334432, -2.902162365615368, -0.03200000151991844, 0.2400000113993883, 1.0240000486373901, 0.0, 0.0, 0.0, 0.0, 0.0, 1.763226094763214E9, 0.0, 2025-11-15 12:01:34.763
27.0, -203.59641368780285, -126.15056540537626, -144.6630701860413, -94.33149658236653, -0.03200000151991844, 0.2400000113993883, 1.0240000486373901, 0.0, 0.0, 0.0, 0.0, 0.0, 1.763226094763214E9, 0.0, 2025-11-15 12:01:34.763
28.0, -213.83251986652613, -147.13140415679663, -179.4179604742676, -125.25298941601068, -0.03200000151991844, 0.2400000113993883, 1.0240000486373901, 0.0, 0.0, 0.0, 0.0, 0.0, 1.7632260947769012E9, 0.0, 2025-11-15 12:01:34.776
28.0, -63.10707185231149, -22.98542512767017, -81.25680633727461, -34.9792842855677, -0.03200000151991844, 0.2400000113993883, 1.0240000486373901, 0.0, 0.0, 0.0, 0.0, 0.0, 1.7632260947769012E9, 0.0, 2025-11-15 12:01:34.776
29.0, -152.27750649582595, -82.83504411857575, -105.48013835027814, -53.82838006224483, -0.03200000151991844, 0.2400000113993883, 1.0240000486373901, 0.0, 0.0, 0.0, 0.0, 0.0, 1.763226094792497E9, 0.0, 2025-11-15 12:01:34.792
29.0, -232.05331245064735, -166.04781813267618, -186.2320581935346, -139.31127334944904, -0.03200000151991844, 0.2400000113993883, 1.0240000486373901, 0.0, 0.0, 0.0, 0.0, 0.0, 1.763226094792497E9, 0.0, 2025-11-15 12:01:34.792
30.0, -111.40039998013526, -69.19188908021897, -118.5398689955473, -67.71462859772146, -0.03200000151991844, 0.2400000113993883, 1.0240000486373901, 0.0, 0.0, 0.0, 0.0, 0.0, 1.7632260947931972E9, 0.0, 2025-11-15 12:01:34.793
30.0, -83.19781441427767, -33.11307420767844, -65.14905722811818, -21.055636750534177, -0.03200000151991844, 0.2400000113993883, 1.0240000486373901, 0.0, 0.0, 0.0, 0.0, 0.0, 1.7632260947931972E9, 0.0, 2025-11-15 12:01:34.793
31.0, -231.01362026296556, -153.72484777867794, -178.28851068764925, -130.36917255539447, -0.03200000151991844, 0.2400000113993883, 1.0240000486373901, 0.0, 0.0, 0.0, 0.0, 0.0, 1.7632260948068573E9, 0.0, 2025-11-15 12:01:34.806
31.0, -172.55150415562093, -118.60344729479402, -156.69806824345142, -104.96777205634862, -0.03200000151991844, 0.2400000113993883, 1.0240000486373901, 0.0, 0.0, 0.0, 0.0, 0.0, 1.7632260948068573E9, 0.0, 2025-11-15 12:01:34.806
32.0, -39.253989934921265, -4.353243548423052, -55.17100414633751, -5.086263939738274, -0.03200000151991844, 0.2400000113993883, 1.0240000486373901, 0.0, 0.0, 0.0, 0.0, 0.0, 1.7632260948224902E9, 0.0, 2025-11-15 12:01:34.822
32.0, -203.22242369223386, -135.41803749557585, -154.7794995661825, -99.22702562436461, -0.03200000151991844, 0.2400000113993883, 1.0240000486373901, 0.0, 0.0, 0.0, 0.0, 0.0, 1.7632260948224902E9, 0.0, 2025-11-15 12:01:34.822
33.0, -211.132312098518, -154.2633933722973, -182.66793353576213, -126.21414370462298, -0.03200000151991844, 0.2400000113993883, 1.0240000486373901, 0.0, 0.0, 0.0, 0.0, 0.0, 1.763226094823206E9, 0.0, 2025-11-15 12:01:34.823
33.0, -55.03262784797698, -18.340469382703304, -74.47636771760881, -24.21585221309215, -0.03200000151991844, 0.2400000113993883, 1.0240000486373901, 0.0, 0.0, 0.0, 0.0, 0.0, 1.763226094823206E9, 0.0, 2025-11-15 12:01:34.823
34.0, -156.20440144930035, -94.02856468595564, -112.82156196329743, -67.44535580091178, -0.03200000151991844, 0.2400000113993883, 1.0240000486373901, 0.0, 0.0, 0.0, 0.0, 0.0, 1.7632260948368523E9, 0.0, 2025-11-15 12:01:34.836
34.0, -220.37360488902777, -154.19981507305056, -178.7559981821105, -125.840153709054, -0.03200000151991844, 0.2400000113993883, 1.0240000486373901, 0.0, 0.0, 0.0, 0.0, 0.0, 1.7632260948368523E9, 0.0, 2025-11-15 12:01:34.836
35.0, -111.01145038474351, -66.4019237132743, -116.68113871756941, -71.41338965389878, -0.03200000151991844, 0.2400000113993883, 1.0240000486373901, 0.0, 0.0, 0.0, 0.0, 0.0, 1.7632260948525257E9, 0.0, 2025-11-15 12:01:34.852
35.0, -71.76494024973363, -18.991211974993348, -49.662131511606276, -8.616729497909546, -0.03200000151991844, 0.2400000113993883, 1.0240000486373901, 0.0, 0.0, 0.0, 0.0, 0.0, 1.7632260948525257E9, 0.0, 2025-11-15 12:01:34.852
36.0, -225.19807583186775, -149.48754112888128, -166.40310862846673, -118.76426299288869, -0.03200000151991844, 0.2400000113993883, 1.0240000486373901, 0.0, 0.0, 0.0, 0.0, 0.0, 1.7632260948532045E9, 0.0, 2025-11-15 12:01:34.853
36.0, -164.66405514907092, -108.48327801469713, -149.2893264312297, -105.61103484872729, -0.03200000151991844, 0.2400000113993883, 1.0240000486373901, 0.0, 0.0, 0.0, 0.0, 0.0, 1.7632260948532045E9, 0.0, 2025-11-15 12:01:34.853
37.0, -35.40189298056066, 5.318137736991048, -35.974097673781216, 8.755105796270072, -0.03200000151991844, 0.2400000113993883, 1.0240000486373901, 0.0, 0.0, 0.0, 0.0, 0.0, 1.7632260948668504E9, 0.0, 2025-11-15 12:01:34.866
37.0, -196.89451296720654, -126.93594439607114, -139.12801825162023, -83.05569821596146, -0.03200000151991844, 0.2400000113993883, 1.0240000486373901, 0.0, 0.0, 0.0, 0.0, 0.0, 1.7632260948668504E9, 0.0, 2025-11-15 12:01:34.866
38.0, -210.11879921052605, -138.1070255637169, -163.6729816608131, -117.34310100972652, -0.03200000151991844, 0.2400000113993883, 1.0240000486373901, 0.0, 0.0, 0.0, 0.0, 0.0, 1.7632260948825312E9, 0.0, 2025-11-15 12:01:34.882
38.0, -52.19030388165265, -9.607802986167371, -65.24255472701043, -25.221885301172733, -0.03200000151991844, 0.2400000113993883, 1.0240000486373901, 0.0, 0.0, 0.0, 0.0, 0.0, 1.7632260948825312E9, 0.0, 2025-11-15 12:01:34.882
39.0, -142.8492187075317, -80.80801834259182, -99.17466702498496, -59.763601291924715, -0.03200000151991844, 0.2400000113993883, 1.0240000486373901, 0.0, 0.0, 0.0, 0.0, 0.0, 1.763226094883212E9, 0.0, 2025-11-15 12:01:34.883
39.0, -219.0272409049794, -146.72749496158212, -172.94419365096837, -127.56424758862704, -0.03200000151991844, 0.2400000113993883, 1.0240000486373901, 0.0, 0.0, 0.0, 0.0, 0.0, 1.763226094883212E9, 0.0, 2025-11-15 12:01:34.883
40.0, -104.52646386157721, -57.9534897133708, -107.14439383056015, -64.78254703246057, -0.03200000151991844, 0.2400000113993883, 1.008000047877431, 0.0, 0.0, 0.0, 0.0, 0.0, 1.76322609489685E9, 0.0, 2025-11-15 12:01:34.896
40.0, -84.63767589721829, -28.872027657926083, -64.04952664114535, -20.603108855895698, -0.03200000151991844, 0.2400000113993883, 1.008000047877431, 0.0, 0.0, 0.0, 0.0, 0.0, 1.76322609489685E9, 0.0, 2025-11-15 12:01:34.896
41.0, -217.13485152740031, -152.10173119790852, -167.9364676102996, -120.95584436692297, -0.03200000151991844, 0.2400000113993883, 1.008000047877431, 0.0, 0.0, 0.0, 0.0, 0.0, 1.763226094912532E9, 0.0, 2025-11-15 12:01:34.912
41.0, -155.5947977565229, -109.02930340822786, -145.98699477035552, -95.02711797412485, -0.03200000151991844, 0.2400000113993883, 1.008000047877431, 0.0, 0.0, 0.0, 0.0, 0.0, 1.763226094912532E9, 0.0, 2025-11-15 12:01:34.912
42.0, -34.60155439004302, 1.9185686772689223, -38.790242340415716, 6.82531741913408, -0.03200000151991844, 0.2400000113993883, 1.008000047877431, 0.0, 0.0, 0.0, 0.0, 0.0, 1.7632260949132094E9, 0.0, 2025-11-15 12:01:34.913
42.0, -193.59218130633235, -121.5766677595675, -136.53252768237144, -91.26851851865649, -0.03200000151991844, 0.2400000113993883, 1.008000047877431, 0.0, 0.0, 0.0, 0.0, 0.0, 1.7632260949132094E9, 0.0, 2025-11-15 12:01:34.913
43.0, -207.40363184269518, -144.52469388768077, -171.57539026718587, -122.84449384454638, -0.03200000151991844, 0.2400000113993883, 1.008000047877431, 0.0, 0.0, 0.0, 0.0, 0.0, 1.7632260949268744E9, 0.0, 2025-11-15 12:01:34.926
43.0, -42.96771059092134, 0.2543131969869137, -56.996075324714184, -20.05334356240928, -0.03200000151991844, 0.2400000113993883, 1.008000047877431, 0.0, 0.0, 0.0, 0.0, 0.0, 1.7632260949268744E9, 0.0, 2025-11-15 12:01:34.926
44.0, -138.8101267553866, -71.95193524751812, -96.339822858572, -62.979915253818035, -0.03200000151991844, 0.2400000113993883, 1.008000047877431, 0.0, 0.0, 0.0, 0.0, 0.0, 1.7632260949430196E9, 0.0, 2025-11-15 12:01:34.943
44.0, -217.56120012234896, -148.97891473490745, -171.94938026275486, -127.91953808441758, -0.03200000151991844, 0.2400000113993883, 1.008000047877431, 0.0, 0.0, 0.0, 0.0, 0.0, 1.7632260949430196E9, 0.0, 2025-11-15 12:01:34.943
45.0, -90.13906873203814, -50.870119197294116, -102.2713041882962, -59.5840860940516, -0.03200000151991844, 0.2400000113993883, 1.008000047877431, 0.0, 0.0, 0.0, 0.0, 0.0, 1.7632260949575024E9, 0.0, 2025-11-15 12:01:34.957
45.0, -77.78617917839438, -22.701192731037736, -55.67963054031134, -17.476552492938936, -0.03200000151991844, 0.2400000113993883, 1.008000047877431, 0.0, 0.0, 0.0, 0.0, 0.0, 1.7632260949575024E9, 0.0, 2025-11-15 12:01:34.957
46.0, -208.61161952838302, -135.99772198870778, -153.13768348563462, -108.8684877101332, -0.03200000151991844, 0.2400000113993883, 1.008000047877431, 0.0, 0.0, 0.0, 0.0, 0.0, 1.7632260949582126E9, 0.0, 2025-11-15 12:01:34.958
46.0, -149.30054613109678, -93.51993829198182, -129.82314716186374, -91.14884172007442, -0.03200000151991844, 0.2400000113993883, 1.008000047877431, 0.0, 0.0, 0.0, 0.0, 0.0, 1.7632260949582126E9, 0.0, 2025-11-15 12:01:34.958
47.0, -18.97625237517059, 22.47679873369634, -23.983978415839374, 11.309457466006279, -0.03200000151991844, 0.2400000113993883, 1.008000047877431, 0.0, 0.0, 0.0, 0.0, 0.0, 1.7632260949725645E9, 0.0, 2025-11-15 12:01:34.972
47.0, -186.239537993446, -110.59632148966193, -127.4296111902222, -84.90694869402796, -0.03200000151991844, 0.2400000113993883, 1.008000047877431, 0.0, 0.0, 0.0, 0.0, 0.0, 1.7632260949725645E9, 0.0, 2025-11-15 12:01:34.972
48.0, -206.7977680498734, -136.1360982870683, -164.0731509560719, -119.5384222837165, -0.03200000151991844, 0.2400000113993883, 1.008000047877431, 0.0, 0.0, 0.0, 0.0, 0.0, 1.7632260949732208E9, 0.0, 2025-11-15 12:01:34.973
48.0, -43.020069190301, 0.056098499335348606, -52.78494797460735, -12.05369755718857, -0.03200000151991844, 0.2400000113993883, 1.008000047877431, 0.0, 0.0, 0.0, 0.0, 0.0, 1.7632260949732208E9, 0.0, 2025-11-15 12:01:34.973
49.0, -135.25722179748118, -68.31675249058753, -85.95412068162113, -49.95384370815009, -0.03200000151991844, 0.2400000113993883, 1.008000047877431, 0.0, 0.0, 0.0, 0.0, 0.0, 1.763226094986879E9, 0.0, 2025-11-15 12:01:34.986
49.0, -205.12229286972433, -140.8483722312376, -159.67876850813627, -118.8727200916037, -0.03200000151991844, 0.2400000113993883, 1.008000047877431, 0.0, 0.0, 0.0, 0.0, 0.0, 1.763226094986879E9, 0.0, 2025-11-15 12:01:34.986
50.0, -79.94036155287176, -36.66223926562816, -83.69522110838443, -47.93803763203323, -0.03200000151991844, 0.2400000113993883, 1.008000047877431, 0.0, 0.0, 0.0, 0.0, 0.0, 1.763226095002523E9, 0.0, 2025-11-15 12:01:35.002
50.0, -73.73586752638221, -17.491512092761695, -49.41903801448643, -12.431427452713251, -0.03200000151991844, 0.2400000113993883, 1.008000047877431, 0.0, 0.0, 0.0, 0.0, 0.0, 1.763226095002523E9, 0.0, 2025-11-15 12:01:35.002
51.0, -203.02794889453799, -129.36687936726958, -149.91762962378561, -109.20507870614529, -0.03200000151991844, 0.2400000113993883, 1.008000047877431, 0.0, 0.0, 0.0, 0.0, 0.0, 1.7632260950032115E9, 0.0, 2025-11-15 12:01:35.003
51.0, -155.0001536635682, -97.9704192392528, -133.993135612458, -91.86690251156688, -0.03200000151991844, 0.2400000113993883, 1.008000047877431, 0.0, 0.0, 0.0, 0.0, 0.0, 1.7632260950032115E9, 0.0, 2025-11-15 12:01:35.003
52.0, -22.98168522771448, 16.54905730392784, -31.295482829213142, 4.6075567454099655, -0.03200000151991844, 0.2400000113993883, 1.008000047877431, 0.0, 0.0, 0.0, 0.0, 0.0, 1.7632260950168798E9, 0.0, 2025-11-15 12:01:35.016
52.0, -196.32604817394167, -121.05308176577091, -136.94017677754164, -95.16549427248538, -0.03200000151991844, 0.2400000113993883, 1.008000047877431, 0.0, 0.0, 0.0, 0.0, 0.0, 1.7632260950168798E9, 0.0, 2025-11-15 12:01:35.016
53.0, -202.7250169981271, -132.40741803124547, -169.21177349518985, -119.60948038287461, -0.03200000151991844, 0.2400000113993883, 1.008000047877431, 0.0, 0.0, 0.0, 0.0, 0.0, 1.7632260950324955E9, 0.0, 2025-11-15 12:01:35.032
53.0, -33.72641780041158, 2.41597537137568, -55.01392834819853, -22.11776833795011, -0.03200000151991844, 0.2400000113993883, 1.008000047877431, 0.0, 0.0, 0.0, 0.0, 0.0, 1.7632260950324955E9, 0.0, 2025-11-15 12:01:35.032
54.0, -135.8032471910119, -68.02878019399941, -89.09563664440066, -50.481169601902366, -0.03200000151991844, 0.2400000113993883, 1.008000047877431, 0.0, 0.0, 0.0, 0.0, 0.0, 1.7632260950331938E9, 0.0, 2025-11-15 12:01:35.033
54.0, -209.19504392147064, -137.20196977443993, -165.02682544477284, -116.47544422000647, -0.03200000151991844, 0.2400000113993883, 1.008000047877431, 0.0, 0.0, 0.0, 0.0, 0.0, 1.7632260950331938E9, 0.0, 2025-11-15 12:01:35.033
55.0, -88.76278554834425, -43.88024618010968, -97.42439384572208, -55.64971134066582, -0.03200000151991844, 0.2400000113993883, 1.008000047877431, 0.0, 0.0, 0.0, 0.0, 0.0, 1.7632260950469418E9, 0.0, 2025-11-15 12:01:35.046
55.0, -66.57021921128035, -11.623609062284231, -50.208156905137, -4.959107341244817, -0.03200000151991844, 0.2400000113993883, 1.008000047877431, 0.0, 0.0, 0.0, 0.0, 0.0, 1.7632260950469418E9, 0.0, 2025-11-15 12:01:35.046
56.0, -211.30434749647975, -137.35530567262322, -159.91064230538905, -116.86065391544253, -0.03200000151991844, 0.2400000113993883, 1.008000047877431, 0.0, 0.0, 0.0, 0.0, 0.0, 1.7632260950625768E9, 0.0, 2025-11-15 12:01:35.062
56.0, -151.79879930149764, -100.37143501080573, -141.0652864286676, -96.18648696038872, -0.03200000151991844, 0.2400000113993883, 1.008000047877431, 0.0, 0.0, 0.0, 0.0, 0.0, 1.7632260950625768E9, 0.0, 2025-11-15 12:01:35.062
57.0, -22.387041134759784, 17.484032292850316, -37.81786835193634, 1.7614928791299462, -0.03200000151991844, 0.2400000113993883, 1.008000047877431, 0.0, 0.0, 0.0, 0.0, 0.0, 1.763226095063268E9, 0.0, 2025-11-15 12:01:35.063
57.0, -192.80306241568178, -116.80081551615149, -137.47872237116098, -93.34790289402008, -0.03200000151991844, 0.2400000113993883, 1.008000047877431, 0.0, 0.0, 0.0, 0.0, 0.0, 1.763226095063268E9, 0.0, 2025-11-15 12:01:35.063
58.0, -194.0147900013253, -127.51562888920307, -156.16700244974345, -111.96512487344444, -0.03200000151991844, 0.2400000113993883, 1.008000047877431, 0.0, 0.0, 0.0, 0.0, 0.0, 1.763226095076844E9, 0.0, 2025-11-15 12:01:35.076
58.0, -22.746071530506015, 16.234905707649887, -43.610973383300006, -1.327664484269917, -0.03200000151991844, 0.2400000113993883, 1.008000047877431, 0.0, 0.0, 0.0, 0.0, 0.0, 1.763226095076844E9, 0.0, 2025-11-15 12:01:35.076
59.0, -126.00470930710435, -59.04554050043225, -92.62610220257193, -46.55801454838365, -0.03200000151991844, 0.2400000113993883, 1.008000047877431, 0.0, 0.0, 0.0, 0.0, 0.0, 1.7632260950925612E9, 0.0, 2025-11-15 12:01:35.092
59.0, -210.0253017116338, -145.33625217806548, -174.54487083200365, -119.9834703784436, -0.03200000151991844, 0.2400000113993883, 1.008000047877431, 0.0, 0.0, 0.0, 0.0, 0.0, 1.7632260950925612E9, 0.0, 2025-11-15 12:01:35.092
60.0, -99.6758136190474, -57.721615916118026, -103.3446554755792, -58.48455550707877, -0.03200000151991844, 0.2400000113993883, 1.008000047877431, 0.0, 0.0, 0.0, 0.0, 0.0, 1.7632260950932696E9, 0.0, 2025-11-15 12:01:35.093
60.0, -71.47322805318981, -19.507318168878555, -52.44087717868388, -6.686941120773554, -0.03200000151991844, 0.2400000113993883, 1.008000047877431, 0.0, 0.0, 0.0, 0.0, 0.0, 1.7632260950932696E9, 0.0, 2025-11-15 12:01:35.093
61.0, -217.06005352828652, -145.9907346703112, -164.66405514907092, -113.44612525589764, -0.03200000151991844, 0.2400000113993883, 1.008000047877431, 0.0, 0.0, 0.0, 0.0, 0.0, 1.7632260951068943E9, 0.0, 2025-11-15 12:01:35.106
61.0, -156.1109039504081, -105.55119644943625, -146.6975757619366, -97.1214619493112, -0.03200000151991844, 0.2400000113993883, 1.008000047877431, 0.0, 0.0, 0.0, 0.0, 0.0, 1.7632260951068943E9, 0.0, 2025-11-15 12:01:35.106
62.0, -22.94428622815758, 19.103408973664045, -34.3509810930118, 11.481492863968015, -0.03200000151991844, 0.2400000113993883, 1.008000047877431, 0.0, 0.0, 0.0, 0.0, 0.0, 1.7632260951226008E9, 0.0, 2025-11-15 12:01:35.122
62.0, -186.03758339583874, -116.00047692563385, -136.9513964774087, -87.45756046380848, -0.03200000151991844, 0.2400000113993883, 1.008000047877431, 0.0, 0.0, 0.0, 0.0, 0.0, 1.7632260951226008E9, 0.0, 2025-11-15 12:01:35.122
63.0, -195.63790658209473, -133.23767582140863, -165.24747954215854, -109.80346269905567, -0.03200000151991844, 0.2400000113993883, 1.008000047877431, 0.0, 0.0, 0.0, 0.0, 0.0, 1.7632260951232705E9, 0.0, 2025-11-15 12:01:35.123
63.0, -33.35616770479828, 1.7203539796173573, -58.03950741235167, -15.883355111815035, -0.03200000151991844, 0.2400000113993883, 1.008000047877431, 0.0, 0.0, 0.0, 0.0, 0.0, 1.7632260951232705E9, 0.0, 2025-11-15 12:01:35.123
64.0, -129.37061926722527, -67.60991139896214, -92.15113490819931, -43.40153898578137, -0.03200000151991844, 0.2400000113993883, 1.008000047877431, 0.0, 0.0, 0.0, 0.0, 0.0, 1.763226095136837E9, 0.0, 2025-11-15 12:01:35.136
64.0, -205.04001507069916, -140.7324353326112, -164.31998435314745, -113.24791055824608, -0.03200000151991844, 0.2400000113993883, 1.008000047877431, 0.0, 0.0, 0.0, 0.0, 0.0, 1.763226095136837E9, 0.0, 2025-11-15 12:01:35.136
65.0, -88.01854545716196, -44.56464787200093, -96.7512118536979, -49.280661716125906, -0.03200000151991844, 0.2400000113993883, 1.008000047877431, 0.0, 0.0, 0.0, 0.0, 0.0, 1.763226095152544E9, 0.0, 2025-11-15 12:01:35.152
65.0, -67.34811840206385, -10.43058097641915, -45.42108496185392, -5.093743739649653, -0.03200000151991844, 0.2400000113993883, 1.008000047877431, 0.0, 0.0, 0.0, 0.0, 0.0, 1.763226095152544E9, 0.0, 2025-11-15 12:01:35.152
66.0, -203.7235702862963, -133.19653692189604, -160.4791070986539, -113.99589054938406, -0.03200000151991844, 0.2400000113993883, 1.008000047877431, 0.0, 0.0, 0.0, 0.0, 0.0, 1.7632260951532402E9, 0.0, 2025-11-15 12:01:35.153
66.0, -158.078091327101, -97.25609834771603, -142.90905710682273, -95.28891097102314, -0.03200000151991844, 0.2400000113993883, 1.008000047877431, 0.0, 0.0, 0.0, 0.0, 0.0, 1.7632260951532402E9, 0.0, 2025-11-15 12:01:35.153
67.0, -17.599969191476703, 22.57403613254428, -33.36738740466535, 15.973112710751593, -0.03200000151991844, 0.2400000113993883, 1.008000047877431, 0.0, 0.0, 0.0, 0.0, 0.0, 1.763226095166862E9, 0.0, 2025-11-15 12:01:35.166
67.0, -175.77903781738132, -107.77643692307174, -131.81651383824646, -79.38685635942966, -0.03200000151991844, 0.2400000113993883, 1.008000047877431, 0.0, 0.0, 0.0, 0.0, 0.0, 1.763226095166862E9, 0.0, 2025-11-15 12:01:35.166
68.0, -192.77688311599195, -136.1734972866252, -169.85129638761282, -115.00566353742033, -0.03200000151991844, 0.2400000113993883, 1.008000047877431, 0.0, 0.0, 0.0, 0.0, 0.0, 1.763226095182619E9, 0.0, 2025-11-15 12:01:35.182
68.0, -29.100161555223167, 5.381716036237776, -57.48600221890956, -11.896621759049594, -0.03200000151991844, 0.2400000113993883, 1.008000047877431, 0.0, 0.0, 0.0, 0.0, 0.0, 1.763226095182619E9, 0.0, 2025-11-15 12:01:35.182
69.0, -135.14502479881048, -65.42954972479492, -90.10540963243693, -47.84828003309667, -0.03200000151991844, 0.2400000113993883, 1.008000047877431, 0.0, 0.0, 0.0, 0.0, 0.0, 1.763226095183261E9, 0.0, 2025-11-15 12:01:35.183
69.0, -212.22436288557947, -140.94934953004122, -167.75695241242647, -122.10025375336409, -0.03200000151991844, 0.2400000113993883, 1.008000047877431, 0.0, 0.0, 0.0, 0.0, 0.0, 1.763226095183261E9, 0.0, 2025-11-15 12:01:35.183
70.0, -90.92444772273302, -47.59022693615407, -98.98767202720046, -51.03841469530016, -0.03200000151991844, 0.2400000113993883, 1.008000047877431, 0.0, 0.0, 0.0, 0.0, 0.0, 1.7632260951968648E9, 0.0, 2025-11-15 12:01:35.196
70.0, -61.51387447118759, -11.380515565164387, -47.88941893260926, -2.775005767121911, -0.03200000151991844, 0.2400000113993883, 1.008000047877431, 0.0, 0.0, 0.0, 0.0, 0.0, 1.7632260951968648E9, 0.0, 2025-11-15 12:01:35.196
71.0, -202.86713319644332, -132.280261432752, -153.79964577779174, -109.72492479998618, -0.03200000151991844, 0.2400000113993883, 1.008000047877431, 0.0, 0.0, 0.0, 0.0, 0.0, 1.7632260952125409E9, 0.0, 2025-11-15 12:01:35.212
71.0, -154.4092494705692, -99.64589441940188, -137.19075007457286, -92.71959970146418, -0.03200000151991844, 0.2400000113993883, 1.008000047877431, 0.0, 0.0, 0.0, 0.0, 0.0, 1.7632260952125409E9, 0.0, 2025-11-15 12:01:35.212
72.0, -17.229719095863402, 21.455806045792997, -30.15481334272772, 11.032704869285226, -0.03200000151991844, 0.2400000113993883, 1.008000047877431, 0.0, 0.0, 0.0, 0.0, 0.0, 1.7632260952132556E9, 0.0, 2025-11-15 12:01:35.213
72.0, -189.2800766574219, -120.83990746829659, -139.76006134413183, -93.0449709976092, -0.03200000151991844, 0.2400000113993883, 1.008000047877431, 0.0, 0.0, 0.0, 0.0, 0.0, 1.7632260952132556E9, 0.0, 2025-11-15 12:01:35.213
73.0, -187.29044988099486, -124.48630992509425, -155.09739106241614, -105.92518644500524, -0.03200000151991844, 0.2400000113993883, 1.008000047877431, 0.0, 0.0, 0.0, 0.0, 0.0, 1.7632260952268653E9, 0.0, 2025-11-15 12:01:35.226
73.0, -31.02247013244778, 3.6314428569748998, -56.094759435392916, -12.723139649257064, -0.03200000151991844, 0.2400000113993883, 1.008000047877431, 0.0, 0.0, 0.0, 0.0, 0.0, 1.7632260952268653E9, 0.0, 2025-11-15 12:01:35.226
74.0, -123.40173893794417, -59.85335889086127, -81.62705643288791, -41.32963441032916, -0.03200000151991844, 0.2400000113993883, 1.008000047877431, 0.0, 0.0, 0.0, 0.0, 0.0, 1.7632260952425387E9, 0.0, 2025-11-15 12:01:35.242
74.0, -215.4331970475614, -139.66656384523958, -168.269318706356, -117.12244691234082, -0.03200000151991844, 0.2400000113993883, 1.008000047877431, 0.0, 0.0, 0.0, 0.0, 0.0, 1.7632260952425387E9, 0.0, 2025-11-15 12:01:35.242
75.0, -89.35368974134326, -41.52410920802504, -105.5324969496578, -66.42436311300844, -0.03200000151991844, 0.2400000113993883, 1.008000047877431, 0.0, 0.0, 0.0, 0.0, 0.0, 1.763226095243262E9, 0.0, 2025-11-15 12:01:35.243
75.0, -53.286094568669796, -0.2767525967210531, -44.18691797647625, -0.24309349711984396, -0.03200000151991844, 0.2400000113993883, 1.008000047877431, 0.0, 0.0, 0.0, 0.0, 0.0, 1.763226095243262E9, 0.0, 2025-11-15 12:01:35.243
76.0, -207.7701420383528, -130.97877624817193, -158.8485107179731, -111.71455157641321, -0.03200000151991844, 0.2400000113993883, 1.008000047877431, 0.0, 0.0, 0.0, 0.0, 0.0, 1.7632260952569168E9, 0.0, 2025-11-15 12:01:35.256
76.0, -154.05021907482296, -94.09962278511375, -140.85211213119328, -88.45237385202199, -0.03200000151991844, 0.2400000113993883, 1.008000047877431, 0.0, 0.0, 0.0, 0.0, 0.0, 1.7632260952569168E9, 0.0, 2025-11-15 12:01:35.256
77.0, -16.5266179041937, 24.859115005470812, -27.03573677968234, 9.514305487275124, -0.03200000151991844, 0.2400000113993883, 1.008000047877431, 0.0, 0.0, 0.0, 0.0, 0.0, 1.7632260952725472E9, 0.0, 2025-11-15 12:01:35.272
77.0, -180.50627136137336, -105.70453234761953, -126.28520180378109, -82.58821072150022, -0.03200000151991844, 0.2400000113993883, 1.008000047877431, 0.0, 0.0, 0.0, 0.0, 0.0, 1.7632260952725472E9, 0.0, 2025-11-15 12:01:35.272
78.0, -185.9814848965034, -123.7645092336461, -157.9995534280315, -105.48761815018952, -0.03200000151991844, 0.2400000113993883, 1.008000047877431, 0.0, 0.0, 0.0, 0.0, 0.0, 1.7632260952732513E9, 0.0, 2025-11-15 12:01:35.273
78.0, -29.39561365172267, 10.423101176507771, -48.442924126051366, -7.25166601408273, -0.03200000151991844, 0.2400000113993883, 1.008000047877431, 0.0, 0.0, 0.0, 0.0, 0.0, 1.7632260952732513E9, 0.0, 2025-11-15 12:01:35.273
79.0, -131.42382434289902, -64.475875236094, -91.90056161116809, -50.31661400385201, -0.03200000151991844, 0.2400000113993883, 1.008000047877431, 0.0, 0.0, 0.0, 0.0, 0.0, 1.7632260952869346E9, 0.0, 2025-11-15 12:01:35.286
79.0, -201.07198121771216, -127.95693708397448, -159.3309578122571, -116.52032301947474, -0.03200000151991844, 0.2400000113993883, 1.008000047877431, 0.0, 0.0, 0.0, 0.0, 0.0, 1.7632260952869346E9, 0.0, 2025-11-15 12:01:35.286
80.0, -88.80018454790115, -41.711104205809534, -94.26417838316411, -62.987395053729415, -0.03200000151991844, 0.2400000113993883, 1.008000047877431, 0.0, 0.0, 0.0, 0.0, 0.0, 1.7632260953025348E9, 0.0, 2025-11-15 12:01:35.302
80.0, -53.5441476656124, 5.557491334155202, -38.453651344403625, -8.265178902074695, -0.03200000151991844, 0.2400000113993883, 1.008000047877431, 0.0, 0.0, 0.0, 0.0, 0.0, 1.7632260953025348E9, 0.0, 2025-11-15 12:01:35.302
81.0, -205.30928786750883, -124.5050094248727, -153.68744877912104, -112.10350117180496, -0.03200000151991844, 0.2400000113993883, 1.008000047877431, 0.0, 0.0, 0.0, 0.0, 0.0, 1.763226095303248E9, 0.0, 2025-11-15 12:01:35.303
81.0, -146.13285086862743, -88.77774514816701, -134.71867620386183, -90.2662253305316, -0.03200000151991844, 0.2400000113993883, 1.008000047877431, 0.0, 0.0, 0.0, 0.0, 0.0, 1.763226095303248E9, 0.0, 2025-11-15 12:01:35.303
82.0, -14.536991127766669, 29.3843939518556, -26.313936088234186, 10.797091172076762, -0.03200000151991844, 0.2400000113993883, 1.008000047877431, 0.0, 0.0, 0.0, 0.0, 0.0, 1.7632260953169484E9, 0.0, 2025-11-15 12:01:35.316
82.0, -176.47465920913965, -104.95655235648155, -124.79672162141651, -79.95158125273883, -0.03200000151991844, 0.2400000113993883, 1.008000047877431, 0.0, 0.0, 0.0, 0.0, 0.0, 1.7632260953169484E9, 0.0, 2025-11-15 12:01:35.316
83.0, -191.92792582605034, -129.43793746642768, -160.4080489994958, -113.17685245908797, -0.03200000151991844, 0.2400000113993883, 1.008000047877431, 0.0, 0.0, 0.0, 0.0, 0.0, 1.763226095332568E9, 0.0, 2025-11-15 12:01:35.332
83.0, -24.53374370932579, 8.968280093744397, -54.093912959098816, -9.054297792725265, -0.03200000151991844, 0.2400000113993883, 1.008000047877431, 0.0, 0.0, 0.0, 0.0, 0.0, 1.763226095332568E9, 0.0, 2025-11-15 12:01:35.332
84.0, -121.85342035628855, -58.45837620738894, -84.09165050368756, -49.1722046174109, -0.03200000151991844, 0.2400000113993883, 1.008000047877431, 0.0, 0.0, 0.0, 0.0, 0.0, 1.7632260953332655E9, 0.0, 2025-11-15 12:01:35.333
84.0, -203.22616359218955, -138.75028835609555, -167.61483621411026, -124.87899942044169, -0.03200000151991844, 0.2400000113993883, 1.008000047877431, 0.0, 0.0, 0.0, 0.0, 0.0, 1.7632260953332655E9, 0.0, 2025-11-15 12:01:35.333
85.0, -94.4511733809486, -48.16243162937462, -99.6384146194905, -57.403724419884384, -0.03200000151991844, 0.2400000113993883, 1.008000047877431, 0.0, 0.0, 0.0, 0.0, 0.0, 1.7632260953468888E9, 0.0, 2025-11-15 12:01:35.346
85.0, -62.587225758470595, -9.67886108532548, -49.55367441289127, -6.129696027375758, -0.03200000151991844, 0.2400000113993883, 1.008000047877431, 0.0, 0.0, 0.0, 0.0, 0.0, 1.7632260953468888E9, 0.0, 2025-11-15 12:01:35.346
86.0, -205.47384346555918, -135.9154441896826, -162.42011517565697, -114.4970371434465, -0.03200000151991844, 0.2400000113993883, 1.008000047877431, 0.0, 0.0, 0.0, 0.0, 0.0, 1.7632260953625305E9, 0.0, 2025-11-15 12:01:35.362
86.0, -153.5939512802288, -97.66748734284192, -146.13659076858312, -89.28263164218515, -0.03200000151991844, 0.2400000113993883, 1.008000047877431, 0.0, 0.0, 0.0, 0.0, 0.0, 1.7632260953625305E9, 0.0, 2025-11-15 12:01:35.362
87.0, -21.186533248983324, 17.024024598300457, -38.782762540504336, 5.045125040225685, -0.03200000151991844, 0.2400000113993883, 1.008000047877431, 0.0, 0.0, 0.0, 0.0, 0.0, 1.7632260953632348E9, 0.0, 2025-11-15 12:01:35.363
87.0, -183.6477873241529, -108.29254311695695, -128.84703327342868, -85.75216608401388, -0.03200000151991844, 0.2400000113993883, 1.008000047877431, 0.0, 0.0, 0.0, 0.0, 0.0, 1.7632260953632348E9, 0.0, 2025-11-15 12:01:35.363
88.0, -190.23001124616712, -130.60852615255862, -166.1899343309924, -123.9851633310318, -0.03200000151991844, 0.2400000113993883, 1.008000047877431, 0.0, 0.0, 0.0, 0.0, 0.0, 1.7632260953768935E9, 0.0, 2025-11-15 12:01:35.376
88.0, -30.775636735372245, 4.263485949486494, -55.14482484664768, -25.521077297627926, -0.03200000151991844, 0.2400000113993883, 1.008000047877431, 0.0, 0.0, 0.0, 0.0, 0.0, 1.7632260953768935E9, 0.0, 2025-11-15 12:01:35.376
89.0, -128.40572507865727, -64.56563283503056, -86.01769898086786, -50.496129201725125, -0.03200000151991844, 0.2400000113993883, 1.008000047877431, 0.0, 0.0, 0.0, 0.0, 0.0, 1.7632260953926904E9, 0.0, 2025-11-15 12:01:35.392
89.0, -209.3932586191222, -146.93692935910076, -167.4876796156168, -126.2814619038254, -0.03200000151991844, 0.2400000113993883, 1.008000047877431, 0.0, 0.0, 0.0, 0.0, 0.0, 1.7632260953926904E9, 0.0, 2025-11-15 12:01:35.392
90.0, -93.53489789180458, -46.58793374802917, -98.4528663335368, -58.993181901052594, -0.03200000151991844, 0.2400000113993883, 1.008000047877431, 0.0, 0.0, 0.0, 0.0, 0.0, 1.7632260953932533E9, 0.0, 2025-11-15 12:01:35.393
90.0, -63.432443148456514, -6.9001154182478786, -44.852620168589056, 2.0270257759839296, -0.03200000151991844, 0.2400000113993883, 1.008000047877431, 0.0, 0.0, 0.0, 0.0, 0.0, 1.7632260953932533E9, 0.0, 2025-11-15 12:01:35.393
91.0, -210.5040089059621, -141.53651382308453, -164.09559035580605, -119.65809908229858, -0.03200000151991844, 0.2400000113993883, 1.008000047877431, 0.0, 0.0, 0.0, 0.0, 0.0, 1.7632260954068775E9, 0.0, 2025-11-15 12:01:35.406
91.0, -157.80507863033563, -104.0477566672489, -147.81954574864358, -102.57423608470708, -0.03200000151991844, 0.2400000113993883, 1.008000047877431, 0.0, 0.0, 0.0, 0.0, 0.0, 1.7632260954068775E9, 0.0, 2025-11-15 12:01:35.406
92.0, -19.458699469454587, 16.593936103396118, -37.91136585082859, 0.5048864940181375, -0.03200000151991844, 0.2400000113993883, 1.008000047877431, 0.0, 0.0, 0.0, 0.0, 0.0, 1.7632260954225636E9, 0.0, 2025-11-15 12:01:35.422
92.0, -182.52581733744591, -109.77354349941015, -130.6945438515395, -89.09937654435635, -0.03200000151991844, 0.2400000113993883, 1.008000047877431, 0.0, 0.0, 0.0, 0.0, 0.0, 1.7632260954225636E9, 0.0, 2025-11-15 12:01:35.422
93.0, -186.49011129047722, -124.93135801982135, -156.79904554225504, -111.09372818376869, -0.03200000151991844, 0.2400000113993883, 1.008000047877431, 0.0, 0.0, 0.0, 0.0, 0.0, 1.7632260954232495E9, 0.0, 2025-11-15 12:01:35.423
93.0, -35.27847628202289, 3.2050942620262504, -57.68795681651682, -26.355074987746775, -0.03200000151991844, 0.2400000113993883, 1.008000047877431, 0.0, 0.0, 0.0, 0.0, 0.0, 1.7632260954232495E9, 0.0, 2025-11-15 12:01:35.423
94.0, -126.10194670595229, -60.26100798603147, -87.8539898591116, -45.48092336114496, -0.03200000151991844, 0.2400000113993883, 1.008000047877431, 0.0, 0.0, 0.0, 0.0, 0.0, 1.7632260954368894E9, 0.0, 2025-11-15 12:01:35.436
94.0, -201.0570216178894, -141.08024602849036, -165.84212363511324, -116.18747192341834, -0.03200000151991844, 0.2400000113993883, 1.008000047877431, 0.0, 0.0, 0.0, 0.0, 0.0, 1.7632260954368894E9, 0.0, 2025-11-15 12:01:35.436
95.0, -99.6421545194462, -60.22734888643026, -112.12220067158341, -64.81620613206178, -0.03200000151991844, 0.2400000113993883, 1.008000047877431, 0.0, 0.0, 0.0, 0.0, 0.0, 1.7632260954525352E9, 0.0, 2025-11-15 12:01:35.452
95.0, -54.961569748818874, -16.09652940928936, -52.063147283159196, -9.521785287186503, -0.03200000151991844, 0.2400000113993883, 1.008000047877431, 0.0, 0.0, 0.0, 0.0, 0.0, 1.7632260954525352E9, 0.0, 2025-11-15 12:01:35.452
96.0, -207.68038443941623, -142.26579431444407, -163.17931486666203, -115.39835303276777, -0.03200000151991844, 0.2400000113993883, 1.008000047877431, 0.0, 0.0, 0.0, 0.0, 0.0, 1.7632260954532354E9, 0.0, 2025-11-15 12:01:35.453
96.0, -154.5177065692842, -106.36275473982096, -144.31151959020644, -105.39038075134158, -0.03200000151991844, 0.2400000113993883, 1.008000047877431, 0.0, 0.0, 0.0, 0.0, 0.0, 1.7632260954532354E9, 0.0, 2025-11-15 12:01:35.453
97.0, -16.96044629905373, 20.57692955620587, -26.833782182075083, 8.949580593965948, -0.03200000151991844, 0.2400000113993883, 1.008000047877431, 0.0, 0.0, 0.0, 0.0, 0.0, 1.7632260954669015E9, 0.0, 2025-11-15 12:01:35.466
97.0, -181.65068074781448, -104.76207755878568, -123.43539803754538, -78.26488637272269, -0.03200000151991844, 0.2400000113993883, 1.008000047877431, 0.0, 0.0, 0.0, 0.0, 0.0, 1.7632260954669015E9, 0.0, 2025-11-15 12:01:35.466
98.0, -199.17585194017738, -130.6534049520269, -162.13962267898023, -115.41331263259053, -0.03200000151991844, 0.2400000113993883, 1.008000047877431, 0.0, 0.0, 0.0, 0.0, 0.0, 1.7632260954825423E9, 0.0, 2025-11-15 12:01:35.482
98.0, -33.70771830063313, 5.677168132737279, -53.38707186747342, -9.304871089756489, -0.03200000151991844, 0.2400000113993883, 1.008000047877431, 0.0, 0.0, 0.0, 0.0, 0.0, 1.7632260954825423E9, 0.0, 2025-11-15 12:01:35.482
99.0, -134.36712560802698, -65.440769424662, -93.46757969260216, -43.33796068653464, -0.03200000151991844, 0.2400000113993883, 1.008000047877431, 0.0, 0.0, 0.0, 0.0, 0.0, 1.7632260954832404E9, 0.0, 2025-11-15 12:01:35.483
99.0, -212.1420850865543, -144.16940339189023, -175.7079797182232, -124.0973603297025, -0.03200000151991844, 0.2400000113993883, 1.008000047877431, 0.0, 0.0, 0.0, 0.0, 0.0, 1.7632260954832404E9, 0.0, 2025-11-15 12:01:35.483
100.0, -90.02687173336744, -46.28500185161829, -104.37312796339393, -59.65514419320971, -0.03200000151991844, 0.2400000113993883, 1.008000047877431, 0.0, 0.0, 0.0, 0.0, 0.0, 1.7632260954975567E9, 0.0, 2025-11-15 12:01:35.497
100.0, -52.908364673145115, -6.129696027375758, -42.79567519295961, -7.23296651430428, -0.03200000151991844, 0.2400000113993883, 1.008000047877431, 0.0, 0.0, 0.0, 0.0, 0.0, 1.7632260954975567E9, 0.0, 2025-11-15 12:01:35.497
0.0, -199.77423593308777, -125.6905577108264, -152.3710039947182, -104.5881722108461, -0.03200000151991844, 0.2400000113993883, 1.008000047877431, 0.0, 0.0, 0.0, 0.0, 0.0, 1.7632260954982543E9, 0.0, 2025-11-15 12:01:35.498
1.0, -149.82413212489337, -91.30591751821339, -133.3947516195476, -88.89555199677125, -0.03200000151991844, 0.2400000113993883, 1.008000047877431, 0.0, 0.0, 0.0, 0.0, 0.0, 1.7632260955283816E9, 0.0, 2025-11-15 12:01:35.528
1.0, -11.339376665651798, 31.81906882300973, -21.179053449071944, 14.965209672693163, -0.03200000151991844, 0.2400000113993883, 1.008000047877431, 0.0, 0.0, 0.0, 0.0, 0.0, 1.7632260955283816E9, 0.0, 2025-11-15 12:01:35.528
2.0, -176.51953800860792, -98.69221993070096, -122.56400134786963, -80.77248929301277, -0.03200000151991844, 0.2400000113993883, 1.008000047877431, 0.0, 0.0, 0.0, 0.0, 0.0, 1.763226095528972E9, 0.0, 2025-11-15 12:01:35.528
2.0, -189.83732175081968, -123.50645613670349, -160.7409000955522, -109.49866085266694, -0.03200000151991844, 0.2400000113993883, 1.008000047877431, 0.0, 0.0, 0.0, 0.0, 0.0, 1.763226095528972E9, 0.0, 2025-11-15 12:01:35.528
3.0, -17.75704498961568, 14.679107326082885, -53.330973368138075, -12.25004230486229, -0.03200000151991844, 0.2400000113993883, 1.008000047877431, 0.0, 0.0, 0.0, 0.0, 0.0, 1.7632260955297084E9, 0.0, 2025-11-15 12:01:35.529
3.0, -119.61696018278599, -56.25183523353189, -84.55539809819311, -36.85484411334619, -0.03200000151991844, 0.2400000113993883, 1.008000047877431, 0.0, 0.0, 0.0, 0.0, 0.0, 1.7632260955297084E9, 0.0, 2025-11-15 12:01:35.529
4.0, -206.67061145137995, -134.41200440749526, -161.3766830880195, -112.31854541925713, -0.03200000151991844, 0.2400000113993883, 1.008000047877431, 0.0, 0.0, 0.0, 0.0, 0.0, 1.7632260955419004E9, 0.0, 2025-11-15 12:01:35.541
4.0, -85.86810298264027, -38.28909574635327, -89.99695253372192, -42.666648644488305, -0.03200000151991844, 0.2400000113993883, 1.008000047877431, 0.0, 0.0, 0.0, 0.0, 0.0, 1.7632260955419004E9, 0.0, 2025-11-15 12:01:35.541
5.0, -47.58648703619838, 4.229826849885285, -35.237337382510304, 6.157745277043432, -0.03200000151991844, 0.2400000113993883, 1.008000047877431, 0.0, 0.0, 0.0, 0.0, 0.0, 1.7632260955575666E9, 0.0, 2025-11-15 12:01:35.557
5.0, -199.2057711398229, -124.77054232172668, -143.97492859419435, -89.52385518932715, -0.03200000151991844, 0.2400000113993883, 1.008000047877431, 0.0, 0.0, 0.0, 0.0, 0.0, 1.7632260955575666E9, 0.0, 2025-11-15 12:01:35.557
6.0, -145.51950727589428, -84.00563280470669, -124.84534032084048, -84.86393984453753, -0.03200000151991844, 0.2400000113993883, 1.008000047877431, 0.0, 0.0, 0.0, 0.0, 0.0, 1.7632260955582807E9, 0.0, 2025-11-15 12:01:35.558
6.0, -6.02871872857213, 40.839707516133785, -13.766571736894548, 22.32159288553521, -0.03200000151991844, 0.2400000113993883, 1.008000047877431, 0.0, 0.0, 0.0, 0.0, 0.0, 1.7632260955582807E9, 0.0, 2025-11-15 12:01:35.558
7.0, -175.99969191476703, -96.11542886123061, -118.86150039173663, -76.61372054228559, -0.03200000151991844, 0.2400000113993883, 1.008000047877431, 0.0, 0.0, 0.0, 0.0, 0.0, 1.7632260955719004E9, 0.0, 2025-11-15 12:01:35.571
7.0, -183.28501702845097, -116.76341651659459, -150.57585201598704, -107.93538267118856, -0.03200000151991844, 0.2400000113993883, 1.008000047877431, 0.0, 0.0, 0.0, 0.0, 0.0, 1.7632260955719004E9, 0.0, 2025-11-15 12:01:35.571
8.0, -15.909534411504865, 24.814236206002533, -40.24880332313478, -2.900292415637523, -0.03200000151991844, 0.2400000113993883, 1.008000047877431, 0.0, 0.0, 0.0, 0.0, 0.0, 1.7632260955875845E9, 0.0, 2025-11-15 12:01:35.587
8.0, -112.2007385706529, -43.12852628901601, -71.26379365567118, -29.97716809483245, -0.03200000151991844, 0.2400000113993883, 1.008000047877431, 0.0, 0.0, 0.0, 0.0, 0.0, 1.7632260955875845E9, 0.0, 2025-11-15 12:01:35.587
9.0, -202.58664069976658, -137.81531336717308, -166.27969192992896, -112.68131571495906, -0.03200000151991844, 0.2400000113993883, 1.008000047877431, 0.0, 0.0, 0.0, 0.0, 0.0, 1.763226095588271E9, 0.0, 2025-11-15 12:01:35.588
9.0, -86.06257778033614, -44.115859877318144, -102.33488248754293, -48.90854167053476, -0.03200000151991844, 0.2400000113993883, 1.008000047877431, 0.0, 0.0, 0.0, 0.0, 0.0, 1.763226095588271E9, 0.0, 2025-11-15 12:01:35.588
10.0, -54.520261554047465, -5.482693335041404, -44.456190773285925, -4.583247395697981, -0.03200000151991844, 0.2400000113993883, 1.008000047877431, 0.0, 0.0, 0.0, 0.0, 0.0, 1.7632260956018772E9, 0.0, 2025-11-15 12:01:35.601
10.0, -200.94108471926302, -131.27796824462712, -155.49756035767496, -109.79037304921076, -0.03200000151991844, 0.2400000113993883, 1.008000047877431, 0.0, 0.0, 0.0, 0.0, 0.0, 1.7632260956018772E9, 0.0, 2025-11-15 12:01:35.601
11.0, -142.07879931665957, -92.24837230704725, -135.78454769123346, -90.80664087412879, -0.03200000151991844, 0.2400000113993883, 1.008000047877431, 0.0, 0.0, 0.0, 0.0, 0.0, 1.7632260956175692E9, 0.0, 2025-11-15 12:01:35.617
11.0, -2.131742974743247, 33.195352006703615, -23.651127319782972, 16.26295495731756, -0.03200000151991844, 0.2400000113993883, 1.008000047877431, 0.0, 0.0, 0.0, 0.0, 0.0, 1.7632260956175692E9, 0.0, 2025-11-15 12:01:35.617
12.0, -175.48358572088182, -96.83722955267876, -126.41235840227455, -75.79842235194519, -0.03200000151991844, 0.2400000113993883, 1.008000047877431, 0.0, 0.0, 0.0, 0.0, 0.0, 1.7632260956182728E9, 0.0, 2025-11-15 12:01:35.618
12.0, -182.12938794214278, -120.36494017392397, -155.90520945284516, -102.96131573012099, -0.03200000151991844, 0.2400000113993883, 1.008000047877431, 0.0, 0.0, 0.0, 0.0, 0.0, 1.7632260956182728E9, 0.0, 2025-11-15 12:01:35.618
13.0, -24.866594805382192, 12.917614446952939, -54.86433234997094, -6.614013071637601, -0.03200000151991844, 0.2400000113993883, 1.008000047877431, 0.0, 0.0, 0.0, 0.0, 0.0, 1.7632260956318877E9, 0.0, 2025-11-15 12:01:35.631
13.0, -115.07672163657844, -55.25702184531838, -84.3347440008074, -36.44719501817599, -0.03200000151991844, 0.2400000113993883, 1.008000047877431, 0.0, 0.0, 0.0, 0.0, 0.0, 1.7632260956318877E9, 0.0, 2025-11-15 12:01:35.631
14.0, -199.88643293175846, -137.0972525756806, -166.01415903307498, -113.32083860738203, -0.03200000151991844, 0.2400000113993883, 1.008000047877431, 0.0, 0.0, 0.0, 0.0, 0.0, 1.763226095647564E9, 0.0, 2025-11-15 12:01:35.647
14.0, -87.5585377626121, -45.634259259328246, -101.52332419715822, -56.16394758457318, -0.03200000151991844, 0.2400000113993883, 1.008000047877431, 0.0, 0.0, 0.0, 0.0, 0.0, 1.763226095647564E9, 0.0, 2025-11-15 12:01:35.647
15.0, -52.878445473499596, 0.20195459760725498, -40.443278120830655, 4.070881101768464, -0.03200000151991844, 0.2400000113993883, 1.008000047877431, 0.0, 0.0, 0.0, 0.0, 0.0, 1.7632260956482687E9, 0.0, 2025-11-15 12:01:35.648
15.0, -207.88233903702348, -128.74979587458074, -155.93512865249068, -107.89050387172028, -0.03200000151991844, 0.2400000113993883, 1.008000047877431, 0.0, 0.0, 0.0, 0.0, 0.0, 1.7632260956482687E9, 0.0, 2025-11-15 12:01:35.648
16.0, -150.2953595193103, -97.36829534638673, -139.733882044442, -93.51058854209259, -0.03200000151991844, 0.2400000113993883, 1.008000047877431, 0.0, 0.0, 0.0, 0.0, 0.0, 1.763226095661894E9, 0.0, 2025-11-15 12:01:35.661
16.0, -3.380869559943676, 30.439045739360154, -26.12694109044969, 26.02035394171253, -0.03200000151991844, 0.2400000113993883, 1.008000047877431, 0.0, 0.0, 0.0, 0.0, 0.0, 1.763226095661894E9, 0.0, 2025-11-15 12:01:35.661
17.0, -174.70194663014263, -106.85268163401634, -133.4732895186171, -78.13585982425138, -0.03200000151991844, 0.2400000113993883, 1.008000047877431, 0.0, 0.0, 0.0, 0.0, 0.0, 1.7632260956775603E9, 0.0, 2025-11-15 12:01:35.677
17.0, -183.31867612805218, -128.63385897595435, -166.73969962447882, -108.12985746888444, -0.03200000151991844, 0.2400000113993883, 1.008000047877431, 0.0, 0.0, 0.0, 0.0, 0.0, 1.7632260956775603E9, 0.0, 2025-11-15 12:01:35.677
18.0, -19.137068073265254, 11.043924569152296, -54.61001915298402, -4.987156590912491, -0.03200000151991844, 0.2400000113993883, 1.008000047877431, 0.0, 0.0, 0.0, 0.0, 0.0, 1.7632260956782916E9, 0.0, 2025-11-15 12:01:35.678
18.0, -121.0194226661697, -57.773974515497684, -82.06462472770363, -31.57036547595635, -0.03200000151991844, 0.2400000113993883, 1.008000047877431, 0.0, 0.0, 0.0, 0.0, 0.0, 1.7632260956782916E9, 0.0, 2025-11-15 12:01:35.678
19.0, -204.96895697154105, -138.65305095724761, -167.304424517788, -108.74320106161758, -0.03200000151991844, 0.2400000113993883, 1.008000047877431, 0.0, 0.0, 0.0, 0.0, 0.0, 1.7632260956919158E9, 0.0, 2025-11-15 12:01:35.691
19.0, -88.53465165104717, -50.21937660500407, -106.32161584030837, -50.662554749753326, -0.03200000151991844, 0.2400000113993883, 1.008000047877431, 0.0, 0.0, 0.0, 0.0, 0.0, 1.7632260956919158E9, 0.0, 2025-11-15 12:01:35.691
20.0, -49.325540515594184, -2.1990611739456654, -43.12104648910463, 7.911758356261998, -0.03200000151991844, 0.2400000113993883, 1.008000047877431, 0.0, 0.0, 0.0, 0.0, 0.0, 1.7632260957076504E9, 0.0, 2025-11-15 12:01:35.707
20.0, -199.31048833858222, -133.5069486182183, -158.01451302785426, -104.91728340694681, -0.03200000151991844, 0.2400000113993883, 1.008000047877431, 0.0, 0.0, 0.0, 0.0, 0.0, 1.7632260957076504E9, 0.0, 2025-11-15 12:01:35.707
21.0, -151.65294320322573, -99.65337421931326, -142.71458230912685, -87.7249633106403, -0.03200000151991844, 0.2400000113993883, 1.008000047877431, 0.0, 0.0, 0.0, 0.0, 0.0, 1.7632260957082734E9, 0.0, 2025-11-15 12:01:35.708
21.0, 1.21172758564353, 36.92777216248214, -17.31573679484427, 32.06403227010742, -0.03200000151991844, 0.2400000113993883, 1.008000047877431, 0.0, 0.0, 0.0, 0.0, 0.0, 1.7632260957082734E9, 0.0, 2025-11-15 12:01:35.708
22.0, -180.81668305769563, -109.65012680087239, -130.78804135043174, -76.03403604915366, -0.03200000151991844, 0.2400000113993883, 1.008000047877431, 0.0, 0.0, 0.0, 0.0, 0.0, 1.7632260957218933E9, 0.0, 2025-11-15 12:01:35.721
22.0, -195.63790658209473, -135.16372429858893, -167.1211694199592, -104.85370510770008, -0.03200000151991844, 0.2400000113993883, 1.008000047877431, 0.0, 0.0, 0.0, 0.0, 0.0, 1.7632260957218933E9, 0.0, 2025-11-15 12:01:35.721
23.0, -23.74088491871953, 4.959107341244817, -57.60193911753595, -3.1695652124471962, -0.03200000151991844, 0.2400000113993883, 1.008000047877431, 0.0, 0.0, 0.0, 0.0, 0.0, 1.7632260957375944E9, 0.0, 2025-11-15 12:01:35.737
23.0, -121.96935725491494, -60.515321183018386, -87.00129266921431, -33.425355853978544, -0.03200000151991844, 0.2400000113993883, 1.008000047877431, 0.0, 0.0, 0.0, 0.0, 0.0, 1.7632260957375944E9, 0.0, 2025-11-15 12:01:35.737
24.0, -198.37177344970405, -136.05008058808744, -165.45691393967718, -105.24639460304752, -0.03200000151991844, 0.2400000113993883, 1.008000047877431, 0.0, 0.0, 0.0, 0.0, 0.0, 1.7632260957382808E9, 0.0, 2025-11-15 12:01:35.738
24.0, -81.3353442363441, -42.69095799420029, -102.5667562847957, -48.343816777225584, -0.03200000151991844, 0.2400000113993883, 1.008000047877431, 0.0, 0.0, 0.0, 0.0, 0.0, 1.7632260957382808E9, 0.0, 2025-11-15 12:01:35.738
25.0, -45.675398158840835, -1.6343362806364894, -44.96481716725975, 4.987156590912491, -0.03200000151991844, 0.2400000113993883, 1.008000047877431, 0.0, 0.0, 0.0, 0.0, 0.0, 1.763226095751897E9, 0.0, 2025-11-15 12:01:35.751
25.0, -205.15969186928123, -138.64183125738055, -166.77709862403572, -104.6218313104473, -0.03200000151991844, 0.2400000113993883, 1.008000047877431, 0.0, 0.0, 0.0, 0.0, 0.0, 1.763226095751897E9, 0.0, 2025-11-15 12:01:35.751
26.0, -151.54448610451072, -101.81503639370203, -148.65728333871812, -89.45279709016904, -0.03200000151991844, 0.2400000113993883, 1.008000047877431, 0.0, 0.0, 0.0, 0.0, 0.0, 1.7632260957676127E9, 0.0, 2025-11-15 12:01:35.767
26.0, 5.056344740092754, 39.05203533731401, -18.12355518527329, 29.487241200637072, -0.03200000151991844, 0.2400000113993883, 1.008000047877431, 0.0, 0.0, 0.0, 0.0, 0.0, 1.7632260957676127E9, 0.0, 2025-11-15 12:01:35.767
27.0, -171.08920327294618, -103.54661007318646, -125.3951056143269, -72.64942658925429, -0.03200000151991844, 0.2400000113993883, 1.008000047877431, 0.0, 0.0, 0.0, 0.0, 0.0, 1.76322609576827E9, 0.0, 2025-11-15 12:01:35.768
27.0, -184.21251221746206, -129.11630607023835, -163.87493625842035, -106.52918028784916, -0.03200000151991844, 0.2400000113993883, 1.008000047877431, 0.0, 0.0, 0.0, 0.0, 0.0, 1.76322609576827E9, 0.0, 2025-11-15 12:01:35.768
28.0, -12.50248555187136, 21.511904545128345, -47.05168134253472, 3.4089188096113503, -0.03200000151991844, 0.2400000113993883, 1.008000047877431, 0.0, 0.0, 0.0, 0.0, 0.0, 1.763226095781907E9, 0.0, 2025-11-15 12:01:35.781
28.0, -116.00047692563385, -55.08124654740095, -83.64660240896046, -27.007687530014664, -0.03200000151991844, 0.2400000113993883, 1.008000047877431, 0.0, 0.0, 0.0, 0.0, 0.0, 1.763226095781907E9, 0.0, 2025-11-15 12:01:35.781
29.0, -197.00297006592155, -131.85765273775905, -161.06627139169723, -105.76250079693273, -0.03200000151991844, 0.2400000113993883, 1.008000047877431, 0.0, 0.0, 0.0, 0.0, 0.0, 1.7632260957975545E9, 0.0, 2025-11-15 12:01:35.797
29.0, -80.95387444086373, -35.637506677769125, -96.3772218581289, -39.091304286848754, -0.03200000151991844, 0.2400000113993883, 1.008000047877431, 0.0, 0.0, 0.0, 0.0, 0.0, 1.7632260957975545E9, 0.0, 2025-11-15 12:01:35.797
30.0, -42.61989989504218, 15.195213519968092, -31.78540972340852, 19.284794121515006, -0.03200000151991844, 0.2400000113993883, 1.008000047877431, 0.0, 0.0, 0.0, 0.0, 0.0, 1.763226095798264E9, 0.0, 2025-11-15 12:01:35.798
30.0, -195.0170831894502, -125.73543651029468, -154.37559037096798, -98.85116567881778, -0.03200000151991844, 0.2400000113993883, 1.008000047877431, 0.0, 0.0, 0.0, 0.0, 0.0, 1.763226095798264E9, 0.0, 2025-11-15 12:01:35.798
31.0, -141.2934203259647, -91.35827611759305, -139.34493244905025, -88.49164280155674, -0.03200000151991844, 0.2400000113993883, 1.008000047877431, 0.0, 0.0, 0.0, 0.0, 0.0, 1.7632260958119085E9, 0.0, 2025-11-15 12:01:35.811
31.0, 14.937160423025489, 44.37391297426075, -11.3019776660949, 34.78293953789398, -0.03200000151991844, 0.2400000113993883, 1.008000047877431, 0.0, 0.0, 0.0, 0.0, 0.0, 1.7632260958119085E9, 0.0, 2025-11-15 12:01:35.811
32.0, -166.01789893303066, -96.72503255400807, -122.48172354884446, -68.91700643347576, -0.03200000151991844, 0.2400000113993883, 1.008000047877431, 0.0, 0.0, 0.0, 0.0, 0.0, 1.7632260958275504E9, 0.0, 2025-11-15 12:01:35.827
32.0, -178.69989968277514, -117.5749748069793, -154.37933027092367, -100.1788301630877, -0.03200000151991844, 0.2400000113993883, 1.008000047877431, 0.0, 0.0, 0.0, 0.0, 0.0, 1.7632260958275504E9, 0.0, 2025-11-15 12:01:35.827
33.0, 0.24309349711984396, 31.983624421060085, -30.020176944322884, 8.813074245583266, -0.03200000151991844, 0.2400000113993883, 1.008000047877431, 0.0, 0.0, 0.0, 0.0, 0.0, 1.7632260958282578E9, 0.0, 2025-11-15 12:01:35.828
33.0, -110.54022299032658, -45.88483255635947, -72.56153894029558, -26.241008039098233, -0.03200000151991844, 0.2400000113993883, 1.008000047877431, 0.0, 0.0, 0.0, 0.0, 0.0, 1.7632260958282578E9, 0.0, 2025-11-15 12:01:35.828
34.0, -200.02854913007468, -139.6553441453725, -167.7494726125151, -114.61484399205074, -0.03200000151991844, 0.2400000113993883, 1.008000047877431, 0.0, 0.0, 0.0, 0.0, 0.0, 1.7632260958419075E9, 0.0, 2025-11-15 12:01:35.841
34.0, -79.12132346257567, -39.56440163124353, -93.63213529065251, -44.39822232397273, -0.03200000151991844, 0.2400000113993883, 1.008000047877431, 0.0, 0.0, 0.0, 0.0, 0.0, 1.7632260958419075E9, 0.0, 2025-11-15 12:01:35.841
35.0, -55.26824154518545, -7.378822612576187, -44.54220847226679, -8.476483249571174, -0.03200000151991844, 0.2400000113993883, 1.008000047877431, 0.0, 0.0, 0.0, 0.0, 0.0, 1.7632260958575494E9, 0.0, 2025-11-15 12:01:35.857
35.0, -217.34054602496326, -148.69468233827502, -171.23879927117378, -123.03709869226441, -0.03200000151991844, 0.2400000113993883, 1.008000047877431, 0.0, 0.0, 0.0, 0.0, 0.0, 1.7632260958575494E9, 0.0, 2025-11-15 12:01:35.857
36.0, -158.20898782555014, -112.8290417632088, -157.5582452332601, -104.2141822152771, -0.03200000151991844, 0.2400000113993883, 1.008000047877431, 0.0, 0.0, 0.0, 0.0, 0.0, 1.7632260958582652E9, 0.0, 2025-11-15 12:01:35.858
36.0, -7.188087714836001, 20.45725275762379, -32.810142311267555, 12.025648307520896, -0.03200000151991844, 0.2400000113993883, 1.008000047877431, 0.0, 0.0, 0.0, 0.0, 0.0, 1.7632260958582652E9, 0.0, 2025-11-15 12:01:35.858
37.0, -183.48323172610253, -119.32898788619787, -143.79915329627693, -88.47294330177829, -0.03200000151991844, 0.2400000113993883, 1.008000047877431, 0.0, 0.0, 0.0, 0.0, 0.0, 1.7632260958719113E9, 0.0, 2025-11-15 12:01:35.871
37.0, -201.22905701585114, -147.07530565746129, -181.72173884697258, -126.59000365016982, -0.03200000151991844, 0.2400000113993883, 1.008000047877431, 0.0, 0.0, 0.0, 0.0, 0.0, 1.7632260958719113E9, 0.0, 2025-11-15 12:01:35.871
38.0, -26.766463982872665, 7.4648403115570545, -57.310226920992136, -9.920084632467479, -0.03200000151991844, 0.2400000113993883, 1.008000047877431, 0.0, 0.0, 0.0, 0.0, 0.0, 1.763226095887566E9, 0.0, 2025-11-15 12:01:35.887
38.0, -121.38593286182731, -61.824286167509854, -90.88704872317612, -40.43018847098574, -0.03200000151991844, 0.2400000113993883, 1.008000047877431, 0.0, 0.0, 0.0, 0.0, 0.0, 1.763226095887566E9, 0.0, 2025-11-15 12:01:35.887
39.0, -212.27298158500344, -145.64666387438774, -178.4568061856553, -115.83779127756134, -0.03200000151991844, 0.2400000113993883, 1.008000047877431, 0.0, 0.0, 0.0, 0.0, 0.0, 1.7632260958882575E9, 0.0, 2025-11-15 12:01:35.888
39.0, -88.90864164661616, -49.273181916214526, -112.21195827051997, -52.62974212644622, -0.03200000151991844, 0.2400000113993883, 1.008000047877431, 0.0, 0.0, 0.0, 0.0, 0.0, 1.7632260958882575E9, 0.0, 2025-11-15 12:01:35.888
40.0, -46.96192374359816, -3.0405386639758945, -44.056021478027105, 6.535475172568113, -0.03200000151991844, 0.2400000113993883, 1.008000047877431, 0.0, 0.0, 0.0, 0.0, 0.0, 1.7632260959019444E9, 0.0, 2025-11-15 12:01:35.901
40.0, -214.98440905287862, -149.89145032409579, -176.265224811621, -121.23072701366618, -0.03200000151991844, 0.2400000113993883, 1.008000047877431, 0.0, 0.0, 0.0, 0.0, 0.0, 1.7632260959019444E9, 0.0, 2025-11-15 12:01:35.901
41.0, -156.739207142964, -111.68837227672338, -154.5962444683537, -99.8833780665882, -0.03200000151991844, 0.2400000113993883, 1.008000047877431, 0.0, 0.0, 0.0, 0.0, 0.0, 1.7632260959332187E9, 0.0, 2025-11-15 12:01:35.933
41.0, -5.071304339915514, 26.452312386594713, -33.221531306393445, 16.816460150759667, -0.03200000151991844, 0.2400000113993883, 1.008000047877431, 0.0, 0.0, 0.0, 0.0, 0.0, 1.7632260959332187E9, 0.0, 2025-11-15 12:01:35.933
42.0, -191.25474383402616, -123.7233703341335, -146.94814905896783, -93.03562124771997, -0.03200000151991844, 0.2400000113993883, 1.008000047877431, 0.0, 0.0, 0.0, 0.0, 0.0, 1.7632260959339373E9, 0.0, 2025-11-15 12:01:35.933
42.0, -197.7285106573254, -139.42721024807543, -174.0811232374981, -115.87519027711824, -0.03200000151991844, 0.2400000113993883, 1.008000047877431, 0.0, 0.0, 0.0, 0.0, 0.0, 1.7632260959339373E9, 0.0, 2025-11-15 12:01:35.933
43.0, -19.608295467682183, 11.709626761265099, -51.50216228980571, 1.8867795276455581, -0.03200000151991844, 0.2400000113993883, 1.008000047877431, 0.0, 0.0, 0.0, 0.0, 0.0, 1.763226095934672E9, 0.0, 2025-11-15 12:01:35.934
43.0, -123.77946883346885, -64.70400913339108, -90.84216992370784, -42.662908744532615, -0.03200000151991844, 0.2400000113993883, 1.008000047877431, 0.0, 0.0, 0.0, 0.0, 0.0, 1.763226095934672E9, 0.0, 2025-11-15 12:01:35.934
44.0, -210.9939358001575, -143.82533259596676, -180.07244296651334, -121.4476412110962, -0.03200000151991844, 0.2400000113993883, 1.008000047877431, 0.0, 0.0, 0.0, 0.0, 0.0, 1.7632260959475715E9, 0.0, 2025-11-15 12:01:35.947
44.0, -78.38082327134907, -39.97205072641373, -96.14908796083182, -44.48797992290929, -0.03200000151991844, 0.2400000113993883, 1.008000047877431, 0.0, 0.0, 0.0, 0.0, 0.0, 1.7632260959475715E9, 0.0, 2025-11-15 12:01:35.947
45.0, -46.22516345232725, 7.25540591403842, -34.73245088849217, 10.817660621833056, -0.03200000151991844, 0.2400000113993883, 1.008000047877431, 0.0, 0.0, 0.0, 0.0, 0.0, 1.7632260959482553E9, 0.0, 2025-11-15 12:01:35.948
45.0, -204.88667917251587, -137.81531336717308, -158.2276873253286, -108.49262776458636, -0.03200000151991844, 0.2400000113993883, 1.008000047877431, 0.0, 0.0, 0.0, 0.0, 0.0, 1.7632260959482553E9, 0.0, 2025-11-15 12:01:35.948
46.0, -150.0373064223677, -97.30471704714, -141.00918792933226, -86.93584441998973, -0.03200000151991844, 0.2400000113993883, 1.008000047877431, 0.0, 0.0, 0.0, 0.0, 0.0, 1.7632260959619224E9, 0.0, 2025-11-15 12:01:35.961
46.0, 1.0396921876817942, 37.36160055734217, -21.949472839944065, 22.931196578312665, -0.03200000151991844, 0.2400000113993883, 1.008000047877431, 0.0, 0.0, 0.0, 0.0, 0.0, 1.7632260959619224E9, 0.0, 2025-11-15 12:01:35.961
47.0, -172.57020365539938, -105.21834535337985, -130.27193515654653, -76.84185443958268, -0.03200000151991844, 0.2400000113993883, 1.008000047877431, 0.0, 0.0, 0.0, 0.0, 0.0, 1.763226095977534E9, 0.0, 2025-11-15 12:01:35.977
47.0, -195.2377372868359, -136.25951498560607, -171.3397765699774, -112.00065392302349, -0.03200000151991844, 0.2400000113993883, 1.008000047877431, 0.0, 0.0, 0.0, 0.0, 0.0, 1.763226095977534E9, 0.0, 2025-11-15 12:01:35.977
48.0, -19.458699469454587, 12.977452846243978, -55.15230464655906, -3.865186604205519, -0.03200000151991844, 0.2400000113993883, 1.008000047877431, 0.0, 0.0, 0.0, 0.0, 0.0, 1.763226095978243E9, 0.0, 2025-11-15 12:01:35.978
48.0, -116.39690632093698, -51.08329349476844, -81.62331653293222, -32.39688336616382, -0.03200000151991844, 0.2400000113993883, 1.008000047877431, 0.0, 0.0, 0.0, 0.0, 0.0, 1.763226095978243E9, 0.0, 2025-11-15 12:01:35.978
49.0, -208.1740512335673, -145.05575968138874, -177.02816440258175, -120.29201212478802, -0.03200000151991844, 0.2400000113993883, 1.008000047877431, 0.0, 0.0, 0.0, 0.0, 0.0, 1.7632260959919E9, 0.0, 2025-11-15 12:01:35.991
49.0, -90.4158213287592, -44.94237776752561, -105.00517105590552, -56.706233078148216, -0.03200000151991844, 0.2400000113993883, 1.008000047877431, 0.0, 0.0, 0.0, 0.0, 0.0, 1.7632260959919E9, 0.0, 2025-11-15 12:01:35.991
50.0, -46.37475945055485, 1.9522277768701315, -40.884586315602064, 3.498676408547908, -0.03200000151991844, 0.2400000113993883, 1.008000047877431, 0.0, 0.0, 0.0, 0.0, 0.0, 1.7632260960075288E9, 0.0, 2025-11-15 12:01:36.007
50.0, -214.49448215868324, -142.11993821617216, -163.41866846382618, -110.50843384070322, -0.03200000151991844, 0.2400000113993883, 1.008000047877431, 0.0, 0.0, 0.0, 0.0, 0.0, 1.7632260960075288E9, 0.0, 2025-11-15 12:01:36.007
51.0, -156.79530564229935, -103.54287017323077, -147.68490935023874, -86.45339732570574, -0.03200000151991844, 0.2400000113993883, 1.008000047877431, 0.0, 0.0, 0.0, 0.0, 0.0, 1.7632260960082383E9, 0.0, 2025-11-15 12:01:36.008
51.0, -0.8713966896757483, 25.147087302058935, -33.202831806614995, 19.393251220230013, -0.03200000151991844, 0.2400000113993883, 1.008000047877431, 0.0, 0.0, 0.0, 0.0, 0.0, 1.7632260960082383E9, 0.0, 2025-11-15 12:01:36.008
52.0, -189.00332406070083, -119.00361659005284, -142.5163676114753, -87.54544811276719, -0.03200000151991844, 0.2400000113993883, 1.008000047877431, 0.0, 0.0, 0.0, 0.0, 0.0, 1.763226096021901E9, 0.0, 2025-11-15 12:01:36.021
52.0, -201.9471178073436, -137.9162906659767, -174.10730253718793, -115.39274318283424, -0.03200000151991844, 0.2400000113993883, 1.008000047877431, 0.0, 0.0, 0.0, 0.0, 0.0, 1.763226096021901E9, 0.0, 2025-11-15 12:01:36.021
53.0, -21.081816050224006, 5.366756436415017, -64.99946122989058, -9.804147733841091, -0.03200000151991844, 0.2400000113993883, 1.008000047877431, 0.0, 0.0, 0.0, 0.0, 0.0, 1.7632260960375378E9, 0.0, 2025-11-15 12:01:36.037
53.0, -124.40777202602476, -69.24050777964294, -97.66374744288623, -47.59957668604329, -0.03200000151991844, 0.2400000113993883, 1.008000047877431, 0.0, 0.0, 0.0, 0.0, 0.0, 1.7632260960375378E9, 0.0, 2025-11-15 12:01:36.037
54.0, -212.7666483791545, -150.60951111558825, -182.55947643704712, -118.01441305177286, -0.03200000151991844, 0.2400000113993883, 1.008000047877431, 0.0, 0.0, 0.0, 0.0, 0.0, 1.7632260960382495E9, 0.0, 2025-11-15 12:01:36.038
54.0, -84.90320879407227, -47.14517884142697, -106.76292403507978, -46.53370519867167, -0.03200000151991844, 0.2400000113993883, 1.008000047877431, 0.0, 0.0, 0.0, 0.0, 0.0, 1.7632260960382495E9, 0.0, 2025-11-15 12:01:36.038
55.0, -40.60409381892532, -1.0770911872386932, -41.711104205809534, 9.47877643769607, -0.03200000151991844, 0.2400000113993883, 1.008000047877431, 0.0, 0.0, 0.0, 0.0, 0.0, 1.7632260960519004E9, 0.0, 2025-11-15 12:01:36.051
55.0, -216.19613663852215, -146.72001516167074, -176.54945720825344, -113.15254310937598, -0.03200000151991844, 0.2400000113993883, 1.008000047877431, 0.0, 0.0, 0.0, 0.0, 0.0, 1.7632260960519004E9, 0.0, 2025-11-15 12:01:36.051
56.0, -152.50938029307872, -110.02411679644138, -155.9987069517374, -88.9516504961066, -0.03200000151991844, 0.2400000113993883, 1.008000047877431, 0.0, 0.0, 0.0, 0.0, 0.0, 1.7632260960676477E9, 0.0, 2025-11-15 12:01:36.067
56.0, 0.007479799911379814, 28.18762596603483, -32.6081877136603, 16.71174295200035, -0.03200000151991844, 0.2400000113993883, 1.008000047877431, 0.0, 0.0, 0.0, 0.0, 0.0, 1.7632260960676477E9, 0.0, 2025-11-15 12:01:36.067
57.0, -194.81138869188726, -128.49922257754952, -156.4811540460214, -101.53267394704744, -0.03200000151991844, 0.2400000113993883, 1.008000047877431, 0.0, 0.0, 0.0, 0.0, 0.0, 1.763226096068334E9, 0.0, 2025-11-15 12:01:36.068
57.0, -204.33691387902945, -146.46196206472814, -186.07498239539564, -122.68928799638525, -0.03200000151991844, 0.2400000113993883, 1.008000047877431, 0.0, 0.0, 0.0, 0.0, 0.0, 1.763226096068334E9, 0.0, 2025-11-15 12:01:36.068
58.0, -24.98253170400858, 0.523585993796587, -67.20974210370332, -16.012381660286337, -0.03200000151991844, 0.2400000113993883, 1.008000047877431, 0.0, 0.0, 0.0, 0.0, 0.0, 1.7632260960983052E9, 0.0, 2025-11-15 12:01:36.098
58.0, -122.93051154352725, -70.94216225948185, -102.17032688949257, -42.614290045108646, -0.03200000151991844, 0.2400000113993883, 1.008000047877431, 0.0, 0.0, 0.0, 0.0, 0.0, 1.7632260960983052E9, 0.0, 2025-11-15 12:01:36.098
59.0, -214.79367415513843, -158.53061922173947, -188.62559416517615, -125.05290476838127, -0.03200000151991844, 0.2400000113993883, 1.008000047877431, 0.0, 0.0, 0.0, 0.0, 0.0, 1.7632260960989723E9, 0.0, 2025-11-15 12:01:36.098
59.0, -92.48398600425571, -59.06050010025501, -117.89286630321294, -57.43925346946344, -0.03200000151991844, 0.2400000113993883, 1.008000047877431, 0.0, 0.0, 0.0, 0.0, 0.0, 1.7632260960989723E9, 0.0, 2025-11-15 12:01:36.098
60.0, -49.8753058090806, -8.908441694453359, -56.109719035215676, 0.562854943331331, -0.03200000151991844, 0.2400000113993883, 1.008000047877431, 0.0, 0.0, 0.0, 0.0, 0.0, 1.76322609609972E9, 0.0, 2025-11-15 12:01:36.099
60.0, -215.33969954866916, -153.5154133811593, -183.73754492308944, -118.94564814073965, -0.03200000151991844, 0.2400000113993883, 1.008000047877431, 0.0, 0.0, 0.0, 0.0, 0.0, 1.76322609609972E9, 0.0, 2025-11-15 12:01:36.099
61.0, -160.116336802952, -119.71419758163393, -166.77335872408003, -101.38307794881985, -0.03200000151991844, 0.2400000113993883, 1.008000047877431, 0.0, 0.0, 0.0, 0.0, 0.0, 1.7632260961119165E9, 0.0, 2025-11-15 12:01:36.111
61.0, -7.24044631421566, 16.664994202554226, -42.840553992427886, 13.559007289353758, -0.03200000151991844, 0.2400000113993883, 1.008000047877431, 0.0, 0.0, 0.0, 0.0, 0.0, 1.7632260961119165E9, 0.0, 2025-11-15 12:01:36.111
62.0, -190.9779912373051, -130.55616755317897, -156.56717174500227, -90.60468627652153, -0.03200000151991844, 0.2400000113993883, 1.008000047877431, 0.0, 0.0, 0.0, 0.0, 0.0, 1.7632260961432612E9, 0.0, 2025-11-15 12:01:36.143
62.0, -204.14243908133358, -151.23781430814415, -188.32266226876527, -121.28308561304584, -0.03200000151991844, 0.2400000113993883, 1.008000047877431, 0.0, 0.0, 0.0, 0.0, 0.0, 1.7632260961432612E9, 0.0, 2025-11-15 12:01:36.143
63.0, -25.524817197583616, 1.9372681770473719, -66.49168131221086, -10.862539421301335, -0.03200000151991844, 0.2400000113993883, 1.008000047877431, 0.0, 0.0, 0.0, 0.0, 0.0, 1.76322609614394E9, 0.0, 2025-11-15 12:01:36.143
63.0, -131.31162734422833, -74.65962281543761, -105.84664854593575, -45.62864940939471, -0.03200000151991844, 0.2400000113993883, 1.008000047877431, 0.0, 0.0, 0.0, 0.0, 0.0, 1.76322609614394E9, 0.0, 2025-11-15 12:01:36.143
64.0, -224.7380681373179, -165.3708962406963, -195.37985348515213, -131.13398209633306, -0.03200000151991844, 0.2400000113993883, 1.008000047877431, 0.0, 0.0, 0.0, 0.0, 0.0, 1.7632260961446867E9, 0.0, 2025-11-15 12:01:36.144
64.0, -99.95256621576846, -70.90850315988064, -130.66836455184966, -68.4569987389259, -0.03200000151991844, 0.2400000113993883, 1.008000047877431, 0.0, 0.0, 0.0, 0.0, 0.0, 1.7632260961446867E9, 0.0, 2025-11-15 12:01:36.144
65.0, -59.62522499356419, -16.45555980503559, -70.26150046754628, -11.535721413325518, -0.03200000151991844, 0.2400000113993883, 1.008000047877431, 0.0, 0.0, 0.0, 0.0, 0.0, 1.763226096157329E9, 0.0, 2025-11-15 12:01:36.157
