%OpenBCI Raw EXG Data
%Number of channels = 4
%Sample Rate = 200 Hz
%Board = OpenBCI_GUI$BoardGanglionBLE
Sample Index, EXG Channel 0, EXG Channel 1, EXG Channel 2, EXG Channel 3, Accel Channel 0, Accel Channel 1, Accel Channel 2, Other, Other, Other, Other, Other, Timestamp, Marker Channel, Timestamp (Formatted)
40.0, -188.41615976765752, -188.26656376942992, -181.21685235295445, -161.60107708536088, 0.0, 0.0, 1.0240000486373901, 0.0, 0.0, 0.0, 0.0, 0.0, 1.7632264624507024E9, 0.0, 2025-11-15 12:07:42.450
40.0, -381.0939355348237, 10.516598675400019, 40.050588625483215, 23.467872221954167, 0.0, 0.0, 1.0240000486373901, 0.0, 0.0, 0.0, 0.0, 0.0, 1.7632264624507024E9, 0.0, 2025-11-15 12:07:42.450
0.0, -233.50813353341073, -164.73698319820687, -209.5634240671061, -180.20707936491817, 0.0, 0.0, 1.0240000486373901, 0.0, 0.0, 0.0, 0.0, 0.0, 1.7632264624722164E9, 0.0, 2025-11-15 12:07:42.472
1.0, -427.72300818236545, -382.34867196995765, -453.5414075264707, 64.64417073410004, 0.0, 0.19200000911951065, 1.0240000486373901, 0.0, 0.0, 0.0, 0.0, 0.0, 1.7632264624856985E9, 0.0, 2025-11-15 12:07:42.485
1.0, -199.04869534168392, -598.4550510095432, -613.2538351342082, -90.06053083296865, 0.0, 0.19200000911951065, 1.0240000486373901, 0.0, 0.0, 0.0, 0.0, 0.0, 1.7632264624856985E9, 0.0, 2025-11-15 12:07:42.485
2.0, -282.2427698560059, -683.2759820045903, -716.2394602140412, -183.1578604299575, -0.01600000075995922, 0.19200000911951065, 1.0240000486373901, 0.0, 0.0, 0.0, 0.0, 0.0, 1.7632264625337596E9, 0.0, 2025-11-15 12:07:42.533
2.0, -45.43604456167668, -480.80153830349445, -544.9857013430446, -27.32370907627046, -0.01600000075995922, 0.19200000911951065, 1.0240000486373901, 0.0, 0.0, 0.0, 0.0, 0.0, 1.7632264625337596E9, 0.0, 2025-11-15 12:07:42.533
3.0, -52.38851857930422, -480.4462478077039, -506.5731888981536, 16.85198920033872, -0.01600000075995922, 0.19200000911951065, 1.0240000486373901, 0.0, 0.0, 0.0, 0.0, 0.0, 1.7632264625345066E9, 0.0, 2025-11-15 12:07:42.534
3.0, 145.87666772166267, -725.4171747053042, -749.4273324208334, 243.43943786574528, -0.01600000075995922, 0.19200000911951065, 1.0240000486373901, 0.0, 0.0, 0.0, 0.0, 0.0, 1.7632264625345066E9, 0.0, 2025-11-15 12:07:42.534
4.0, 345.46390865696594, -575.2452318845317, -631.8635773137212, 373.5692568239756, -0.01600000075995922, 0.19200000911951065, 1.0240000486373901, 0.0, 0.0, 0.0, 0.0, 0.0, 1.7632264625352612E9, 0.0, 2025-11-15 12:07:42.535
4.0, 545.8365285829641, -370.20147691387683, -419.044570335187, 582.0013611544855, -0.01600000075995922, 0.19200000911951065, 1.0240000486373901, 0.0, 0.0, 0.0, 0.0, 0.0, 1.7632264625352612E9, 0.0, 2025-11-15 12:07:42.535
5.0, 705.857497937046, -168.83217364968732, -174.34852608432993, 368.10152308875695, -0.01600000075995922, 0.19200000911951065, 1.0240000486373901, 0.0, 0.0, 0.0, 0.0, 0.0, 1.7632264625468717E9, 0.0, 2025-11-15 12:07:42.546
5.0, 735.5336040854454, -165.41016519023106, -204.75765262404457, 308.22198489820585, -0.01600000075995922, 0.19200000911951065, 1.0240000486373901, 0.0, 0.0, 0.0, 0.0, 0.0, 1.7632264625468717E9, 0.0, 2025-11-15 12:07:42.546
6.0, 569.0949664073996, -360.5375754283741, -419.99076502397656, 111.29194288142025, -0.01600000075995922, 0.19200000911951065, 1.0240000486373901, 0.0, 0.0, 0.0, 0.0, 0.0, 1.7632264625475795E9, 0.0, 2025-11-15 12:07:42.547
6.0, 332.5126351104118, -556.4036159077659, -578.4578059464693, -62.80040005594492, -0.01600000075995922, 0.19200000911951065, 1.0240000486373901, 0.0, 0.0, 0.0, 0.0, 0.0, 1.7632264625475795E9, 0.0, 2025-11-15 12:07:42.547
7.0, 257.63609809754416, -649.5757435038686, -680.5383752370253, -170.58057687897235, -0.01600000075995922, 0.19200000911951065, 1.0240000486373901, 0.0, 0.0, 0.0, 0.0, 0.0, 1.7632264625483296E9, 0.0, 2025-11-15 12:07:42.548
7.0, 62.28055396210402, -878.8708797371946, -455.68437020108104, 46.40841855015606, -0.01600000075995922, 0.19200000911951065, 1.0240000486373901, 0.0, 0.0, 0.0, 0.0, 0.0, 1.7632264625483296E9, 0.0, 2025-11-15 12:07:42.548
8.0, -0.6208233926445246, -906.871510705445, -444.9246780285612, 47.44063093792647, -0.01600000075995922, 0.19200000911951065, 1.0240000486373901, 0.0, 0.0, 0.0, 0.0, 0.0, 1.7632264625613267E9, 0.0, 2025-11-15 12:07:42.561
8.0, 224.1228545946069, -666.5287100030109, -201.14116936689243, -176.13058841321617, -0.01600000075995922, 0.19200000911951065, 1.0240000486373901, 0.0, 0.0, 0.0, 0.0, 0.0, 1.7632264625613267E9, 0.0, 2025-11-15 12:07:42.561
9.0, 390.00611712923273, -530.7628618115559, -85.33890713891014, -51.37874559126794, -0.01600000075995922, 0.19200000911951065, 1.0240000486373901, 0.0, 0.0, 0.0, 0.0, 0.0, 1.7632264625619028E9, 0.0, 2025-11-15 12:07:42.561
9.0, 613.8017304777168, -300.83381253574044, 139.8965676925145, 132.9123045252636, -0.01600000075995922, 0.19200000911951065, 1.0240000486373901, 0.0, 0.0, 0.0, 0.0, 0.0, 1.7632264625619028E9, 0.0, 2025-11-15 12:07:42.561
10.0, 774.0882327286527, -111.8847170243971, 366.82060735393316, -87.58471706230193, -0.01600000075995922, 0.19200000911951065, 1.0240000486373901, 0.0, 0.0, 0.0, 0.0, 0.0, 1.7632264625754633E9, 0.0, 2025-11-15 12:07:42.575
10.0, 805.3388367583975, -93.97807603655383, 361.8727197125554, -98.10879553761333, -0.01600000075995922, 0.19200000911951065, 1.0240000486373901, 0.0, 0.0, 0.0, 0.0, 0.0, 1.7632264625754633E9, 0.0, 2025-11-15 12:07:42.575
11.0, 619.9276866051368, -300.9609691342339, 121.77301250724122, 109.97175819706172, -0.01600000075995922, 0.11200000531971455, 1.0240000486373901, 0.0, 0.0, 0.0, 0.0, 0.0, 1.7632264625912E9, 0.0, 2025-11-15 12:07:42.591
11.0, 823.5596293425187, -539.5366671076044, -69.75100412359461, -67.43413610104471, -0.01600000075995922, 0.11200000531971455, 1.0240000486373901, 0.0, 0.0, 0.0, 0.0, 0.0, 1.7632264625912E9, 0.0, 2025-11-15 12:07:42.591
12.0, 762.1654316699132, -618.429856672883, -152.18213904695585, -133.4358905190602, -0.01600000075995922, 0.11200000531971455, 1.0240000486373901, 0.0, 0.0, 0.0, 0.0, 0.0, 1.763226462591899E9, 0.0, 2025-11-15 12:07:42.591
12.0, 560.3436005110852, -855.6348813124932, 58.98383215116337, 53.14397837035358, -0.01600000075995922, 0.11200000531971455, 1.0240000486373901, 0.0, 0.0, 0.0, 0.0, 0.0, 1.763226462591899E9, 0.0, 2025-11-15 12:07:42.591
13.0, 501.081145813223, -885.7635153555311, 59.47001914540306, 61.28574057389051, -0.01600000075995922, 0.11200000531971455, 1.0240000486373901, 0.0, 0.0, 0.0, 0.0, 0.0, 1.7632264626054568E9, 0.0, 2025-11-15 12:07:42.605
13.0, 722.2345198430121, -1120.6628916724585, -157.93410517880693, -130.33551345579326, -0.01600000075995922, 0.11200000531971455, 1.0240000486373901, 0.0, 0.0, 0.0, 0.0, 0.0, 1.7632264626054568E9, 0.0, 2025-11-15 12:07:42.605
14.0, 894.4569128025323, -989.1979284300469, -69.4218929274939, -61.349318873137236, -0.01600000075995922, 0.11200000531971455, 1.0240000486373901, 0.0, 0.0, 0.0, 0.0, 0.0, 1.7632264626211865E9, 0.0, 2025-11-15 12:07:42.621
14.0, 1118.316104450263, -782.7928498755209, 136.94952652743086, 117.33188130985945, -0.01600000075995922, 0.11200000531971455, 1.0240000486373901, 0.0, 0.0, 0.0, 0.0, 0.0, 1.7632264626211865E9, 0.0, 2025-11-15 12:07:42.621
15.0, 1251.26019812515, -607.7599220992997, 347.51524378266186, -122.96417064312845, -0.01600000075995922, 0.11200000531971455, 1.0240000486373901, 0.0, 0.0, 0.0, 0.0, 0.0, 1.7632264626218948E9, 0.0, 2025-11-15 12:07:42.621
15.0, 1255.8153962711804, -617.6033387826756, 312.0684720026329, -174.44389353320003, -0.01600000075995922, 0.11200000531971455, 1.0240000486373901, 0.0, 0.0, 0.0, 0.0, 0.0, 1.7632264626218948E9, 0.0, 2025-11-15 12:07:42.621
16.0, 1109.138389959, -785.8146890397184, 115.82283167773858, -398.0506419339217, -0.01600000075995922, 0.11200000531971455, 1.0240000486373901, 0.0, 0.0, 0.0, 0.0, 0.0, 1.7632264626354952E9, 0.0, 2025-11-15 12:07:42.635
16.0, 1298.2782203680836, -556.3736967081204, -87.20511721679941, -560.7063708067872, -0.01600000075995922, 0.11200000531971455, 1.0240000486373901, 0.0, 0.0, 0.0, 0.0, 0.0, 1.7632264626354952E9, 0.0, 2025-11-15 12:07:42.635
17.0, 1258.9456925340928, -614.4655627198517, -164.49388970108703, -640.3475403632037, -0.01600000075995922, 0.11200000531971455, 1.0240000486373901, 0.0, 0.0, 0.0, 0.0, 0.0, 1.7632264626511996E9, 0.0, 2025-11-15 12:07:42.651
17.0, 1031.78229927551, -375.4709959514439, 43.39218923589215, -443.153835399542, -0.01600000075995922, 0.11200000531971455, 1.0240000486373901, 0.0, 0.0, 0.0, 0.0, 0.0, 1.7632264626511996E9, 0.0, 2025-11-15 12:07:42.651
18.0, 957.694881153293, -426.92453954182565, 21.18466329900548, -461.7224386795424, -0.01600000075995922, 0.11200000531971455, 1.0240000486373901, 0.0, 0.0, 0.0, 0.0, 0.0, 1.7632264626519008E9, 0.0, 2025-11-15 12:07:42.651
18.0, 721.3294640537351, -656.3935811230913, -197.19557491363958, -676.0598450400867, -0.01600000075995922, 0.11200000531971455, 1.0240000486373901, 0.0, 0.0, 0.0, 0.0, 0.0, 1.7632264626519008E9, 0.0, 2025-11-15 12:07:42.651
19.0, 876.8756431108341, -521.6487256195396, -90.48500947793946, -572.0494873723947, -0.01600000075995922, 0.11200000531971455, 1.0240000486373901, 0.0, 0.0, 0.0, 0.0, 0.0, 1.7632264626654768E9, 0.0, 2025-11-15 12:07:42.665
19.0, 1062.6776128094643, -338.28517069201916, 89.79312798613682, -407.0937200267799, -0.01600000075995922, 0.11200000531971455, 1.0240000486373901, 0.0, 0.0, 0.0, 0.0, 0.0, 1.7632264626654768E9, 0.0, 2025-11-15 12:07:42.665
20.0, 1227.1715025105514, -138.44922640966251, 324.851450051181, -637.7931886934675, -0.01600000075995922, 0.11200000531971455, 0.5600000265985727, 0.0, 0.0, 0.0, 0.0, 0.0, 1.763226462696858E9, 0.0, 2025-11-15 12:07:42.696
20.0, 1261.2569507067092, -116.79894556617364, 340.25235806871206, -601.931288018357, -0.01600000075995922, 0.11200000531971455, 0.5600000265985727, 0.0, 0.0, 0.0, 0.0, 0.0, 1.763226462696858E9, 0.0, 2025-11-15 12:07:42.696
21.0, 1124.5505176763982, -304.30443969462067, 104.49093481199816, -408.17829101393, -0.01600000075995922, 0.144000006839633, 0.5600000265985727, 0.0, 0.0, 0.0, 0.0, 0.0, 1.7632264626975582E9, 0.0, 2025-11-15 12:07:42.697
21.0, 1278.1164197069593, -76.88299333909526, -99.20271627465263, -568.8032542108558, -0.01600000075995922, 0.144000006839633, 0.5600000265985727, 0.0, 0.0, 0.0, 0.0, 0.0, 1.7632264626975582E9, 0.0, 2025-11-15 12:07:42.697
22.0, 1245.2838379959576, -140.07608289038762, -179.46470922371373, -640.381199462805, -0.01600000075995922, 0.144000006839633, 0.5600000265985727, 0.0, 0.0, 0.0, 0.0, 0.0, 1.7632264626983156E9, 0.0, 2025-11-15 12:07:42.698
22.0, 1472.4715406042524, 75.06166206067428, 4.530888796318322, -491.5817999257706, -0.01600000075995922, 0.144000006839633, 0.5600000265985727, 0.0, 0.0, 0.0, 0.0, 0.0, 1.7632264626983156E9, 0.0, 2025-11-15 12:07:42.698
23.0, 1397.8380970885046, 21.005148101132363, -21.734428592491895, -524.3395836376585, -0.01600000075995922, 0.144000006839633, 0.5600000265985727, 0.0, 0.0, 0.0, 0.0, 0.0, 1.7632264627111695E9, 0.0, 2025-11-15 12:07:42.711
23.0, 1166.3233302314766, -199.7013078839518, -238.0988607290201, -716.7499565579928, -0.01600000075995922, 0.144000006839633, 0.5600000265985727, 0.0, 0.0, 0.0, 0.0, 0.0, 1.7632264627111695E9, 0.0, 2025-11-15 12:07:42.711
24.0, 1346.9567581913434, -55.71515958989039, -114.12491709785536, -590.9883407480083, -0.01600000075995922, 0.144000006839633, 0.5600000265985727, 0.0, 0.0, 0.0, 0.0, 0.0, 1.7632264627118833E9, 0.0, 2025-11-15 12:07:42.711
24.0, 1515.375672895927, 114.19597519701347, 51.3020776421763, -439.5298723424785, -0.01600000075995922, 0.144000006839633, 0.5600000265985727, 0.0, 0.0, 0.0, 0.0, 0.0, 1.7632264627118833E9, 0.0, 2025-11-15 12:07:42.711
25.0, 1657.5872386610135, 296.90691758226603, 270.06939550023526, -664.7653471739031, -0.01600000075995922, 0.144000006839633, 0.5600000265985727, 0.0, 0.0, 0.0, 0.0, 0.0, 1.7632264627256012E9, 0.0, 2025-11-15 12:07:42.725
25.0, 1750.9239218551666, 351.22896443866193, 305.23941468354315, -661.1189447171055, -0.01600000075995922, 0.144000006839633, 0.5600000265985727, 0.0, 0.0, 0.0, 0.0, 0.0, 1.7632264627256012E9, 0.0, 2025-11-15 12:07:42.725
26.0, 1538.506954121869, 130.266325306613, 546.5676790243015, -450.5700570116751, -0.01600000075995922, 0.144000006839633, 0.5600000265985727, 0.0, 0.0, 0.0, 0.0, 0.0, 1.7632264627411728E9, 0.0, 2025-11-15 12:07:42.741
26.0, 1712.627346308902, 356.9846704704687, 326.21651353500783, -637.5800143959932, -0.01600000075995922, 0.144000006839633, 0.5600000265985727, 0.0, 0.0, 0.0, 0.0, 0.0, 1.7632264627411728E9, 0.0, 2025-11-15 12:07:42.741
27.0, 1678.9832063075155, 311.46260820981115, 277.11162711679935, -676.115943539422, -0.01600000075995922, 0.144000006839633, 0.5600000265985727, 0.0, 0.0, 0.0, 0.0, 0.0, 1.763226462741879E9, 0.0, 2025-11-15 12:07:42.741
27.0, 1510.9214520487003, 94.98410912463441, 507.437105787918, -469.4228926883079, -0.01600000075995922, 0.144000006839633, 0.5600000265985727, 0.0, 0.0, 0.0, 0.0, 0.0, 1.763226462741879E9, 0.0, 2025-11-15 12:07:42.741
28.0, 1386.8839301182888, 15.5074951662682, 464.9181831916794, -510.475774501916, -0.01600000075995922, 0.144000006839633, 0.5600000265985727, 0.0, 0.0, 0.0, 0.0, 0.0, 1.7632264627555027E9, 0.0, 2025-11-15 12:07:42.755
28.0, 1184.6787592140026, -193.05924556264654, 268.25554402172565, -682.2418996668421, -0.01600000075995922, 0.144000006839633, 0.5600000265985727, 0.0, 0.0, 0.0, 0.0, 0.0, 1.7632264627555027E9, 0.0, 2025-11-15 12:07:42.755
29.0, 1337.4611522038467, -53.31414381833747, 380.71059578936547, -584.0433465302922, -0.01600000075995922, 0.144000006839633, 0.5600000265985727, 0.0, 0.0, 0.0, 0.0, 0.0, 1.763226462771206E9, 0.0, 2025-11-15 12:07:42.771
29.0, 1531.584399303887, 132.9366138749756, 567.4512803768739, -417.86837179912254, -0.01600000075995922, 0.144000006839633, 0.5600000265985727, 0.0, 0.0, 0.0, 0.0, 0.0, 1.763226462771206E9, 0.0, 2025-11-15 12:07:42.771
30.0, 1641.5617673508823, 288.82873367797583, 758.9771669576876, -206.59581345226616, -0.01600000075995922, 0.144000006839633, 0.800000037997961, 0.0, 0.0, 0.0, 0.0, 0.0, 1.763226462771886E9, 0.0, 2025-11-15 12:07:42.771
30.0, 1746.757673304528, 353.3083488140255, 803.0705874352716, -140.01811444107443, -0.01600000075995922, 0.144000006839633, 0.800000037997961, 0.0, 0.0, 0.0, 0.0, 0.0, 1.763226462771886E9, 0.0, 2025-11-15 12:07:42.771
31.0, 1588.6739721274935, 158.63346647052094, 569.6503415508196, 91.50413221586496, -0.01600000075995922, 0.17600000835955143, 0.800000037997961, 0.0, 0.0, 0.0, 0.0, 0.0, 1.7632264627855952E9, 0.0, 2025-11-15 12:07:42.785
31.0, 1747.12044360023, 368.26420873682946, 337.26043810416013, -139.27761424984783, -0.01600000075995922, 0.17600000835955143, 0.800000037997961, 0.0, 0.0, 0.0, 0.0, 0.0, 1.7632264627855952E9, 0.0, 2025-11-15 12:07:42.785
32.0, 1678.5531178126112, 307.67782945465297, 273.95889145415276, -187.1632932825014, -0.01600000075995922, 0.17600000835955143, 0.800000037997961, 0.0, 0.0, 0.0, 0.0, 0.0, 1.7632264628011844E9, 0.0, 2025-11-15 12:07:42.801
32.0, 1464.2699400014244, 544.6341507472098, 477.0466787479818, -14.86984222382307, -0.01600000075995922, 0.17600000835955143, 0.800000037997961, 0.0, 0.0, 0.0, 0.0, 0.0, 1.7632264628011844E9, 0.0, 2025-11-15 12:07:42.801
33.0, 1398.2046072841622, 511.5397760393098, 467.9549819556996, -1.3613235838711262, -0.01600000075995922, 0.17600000835955143, 0.800000037997961, 0.0, 0.0, 0.0, 0.0, 0.0, 1.763226462801882E9, 0.0, 2025-11-15 12:07:42.801
33.0, 1181.454965452198, 296.74984178412706, 259.9828853197396, -201.71898391004652, -0.01600000075995922, 0.17600000835955143, 0.800000037997961, 0.0, 0.0, 0.0, 0.0, 0.0, 1.763226462801882E9, 0.0, 2025-11-15 12:07:42.801
34.0, 1357.7164503638633, 441.33811397105455, 377.87201172299683, -107.69789902400225, -0.01600000075995922, 0.17600000835955143, 0.800000037997961, 0.0, 0.0, 0.0, 0.0, 0.0, 1.7632264628155136E9, 0.0, 2025-11-15 12:07:42.815
34.0, 1504.582321623806, 590.8331348998472, 538.2127425232902, 69.94360897131264, -0.01600000075995922, 0.17600000835955143, 0.800000037997961, 0.0, 0.0, 0.0, 0.0, 0.0, 1.7632264628155136E9, 0.0, 2025-11-15 12:07:42.815
35.0, 1679.8770423969254, 806.3803988960572, 299.1358979558572, -173.4939589444548, -0.01600000075995922, 0.17600000835955143, 0.800000037997961, 0.0, 0.0, 0.0, 0.0, 0.0, 1.7632264628311903E9, 0.0, 2025-11-15 12:07:42.831
35.0, 1701.7180581381544, 824.6572899795137, 299.9474562462419, -165.28113864175975, -0.01600000075995922, 0.17600000835955143, 0.800000037997961, 0.0, 0.0, 0.0, 0.0, 0.0, 1.7632264628311903E9, 0.0, 2025-11-15 12:07:42.831
36.0, 1524.3028140901588, 599.8014149935916, 522.5089026093483, 16.017991510219872, -0.01600000075995922, 0.17600000835955143, 0.800000037997961, 0.0, 0.0, 0.0, 0.0, 0.0, 1.7632264628318949E9, 0.0, 2025-11-15 12:07:42.831
36.0, 1756.829223885201, 384.0017077503726, 366.27084206044674, -91.77714491263032, -0.01600000075995922, 0.17600000835955143, 0.800000037997961, 0.0, 0.0, 0.0, 0.0, 0.0, 1.7632264628318949E9, 0.0, 2025-11-15 12:07:42.831
37.0, 1718.82436053548, 331.1157824769616, 293.30913382489234, -182.33882233966142, -0.01600000075995922, 0.17600000835955143, 0.800000037997961, 0.0, 0.0, 0.0, 0.0, 0.0, 1.7632264628455322E9, 0.0, 2025-11-15 12:07:42.845
37.0, 1955.8704394269735, 561.8077713437378, 492.62336206343025, 8.4484339999035, -0.01600000075995922, 0.17600000835955143, 0.800000037997961, 0.0, 0.0, 0.0, 0.0, 0.0, 1.7632264628455322E9, 0.0, 2025-11-15 12:07:42.845
38.0, 1900.662036281079, 509.4229926643893, 472.5999377006665, -2.614190069027245, -0.01600000075995922, 0.17600000835955143, 0.800000037997961, 0.0, 0.0, 0.0, 0.0, 0.0, 1.7632264628611891E9, 0.0, 2025-11-15 12:07:42.861
38.0, 1693.0452301409096, 323.90899526234716, 295.23892220202833, -153.3732971828431, -0.01600000075995922, 0.17600000835955143, 0.800000037997961, 0.0, 0.0, 0.0, 0.0, 0.0, 1.7632264628611891E9, 0.0, 2025-11-15 12:07:42.861
39.0, 1837.5437447289005, 434.11262725666165, 373.395351476036, -101.55324339680374, -0.01600000075995922, 0.17600000835955143, 0.800000037997961, 0.0, 0.0, 0.0, 0.0, 0.0, 1.7632264628618784E9, 0.0, 2025-11-15 12:07:42.861
39.0, 2007.3913012165576, 604.1920575415716, 542.9998144665733, 47.47429003752768, -0.01600000075995922, 0.17600000835955143, 0.800000037997961, 0.0, 0.0, 0.0, 0.0, 0.0, 1.7632264628618784E9, 0.0, 2025-11-15 12:07:42.861
40.0, 2205.2076995228417, 825.3678709710948, 310.95024191588163, -143.7318350970745, -0.01600000075995922, 0.17600000835955143, 0.9120000433176756, 0.0, 0.0, 0.0, 0.0, 0.0, 1.7632264628755252E9, 0.0, 2025-11-15 12:07:42.875
40.0, 2238.7620819252916, 860.2386981579475, 319.0845243195072, -135.6237319931388, -0.01600000075995922, 0.17600000835955143, 0.9120000433176756, 0.0, 0.0, 0.0, 0.0, 0.0, 1.7632264628755252E9, 0.0, 2025-11-15 12:07:42.875
41.0, 2025.6906316997483, 1099.4987978232093, 531.088233107701, 53.2486955691129, -0.01600000075995922, 0.19200000911951065, 0.9120000433176756, 0.0, 0.0, 0.0, 0.0, 0.0, 1.7632264628911667E9, 0.0, 2025-11-15 12:07:42.891
41.0, 2194.70980034722, 1342.0369197996333, 344.10445502307266, -116.06405522488058, -0.01600000075995922, 0.19200000911951065, 0.9120000433176756, 0.0, 0.0, 0.0, 0.0, 0.0, 1.7632264628911667E9, 0.0, 2025-11-15 12:07:42.891
42.0, 2132.698519181926, 1253.3788514500484, 232.12063064984977, -241.38436284009367, -0.01600000075995922, 0.19200000911951065, 0.9120000433176756, 0.0, 0.0, 0.0, 0.0, 0.0, 1.7632264628918803E9, 0.0, 2025-11-15 12:07:42.891
42.0, 1956.8315937155858, 1022.5877552344464, 458.8483255635947, -12.364109253510833, -0.01600000075995922, 0.19200000911951065, 0.9120000433176756, 0.0, 0.0, 0.0, 0.0, 0.0, 1.7632264628918803E9, 0.0, 2025-11-15 12:07:42.891
43.0, 1849.7694776840508, 947.6850389218889, 419.418560330756, -37.91136585082859, -0.01600000075995922, 0.19200000911951065, 0.9120000433176756, 0.0, 0.0, 0.0, 0.0, 0.0, 1.7632264629055164E9, 0.0, 2025-11-15 12:07:42.905
43.0, 1609.7763576274738, 747.7873862902634, 227.50559410452843, -249.35408964566886, -0.01600000075995922, 0.19200000911951065, 0.9120000433176756, 0.0, 0.0, 0.0, 0.0, 0.0, 1.7632264629055164E9, 0.0, 2025-11-15 12:07:42.905
44.0, 1785.712471242994, 879.8956123250537, 333.0941895535216, -120.90348576754332, -0.01600000075995922, 0.19200000911951065, 0.9120000433176756, 0.0, 0.0, 0.0, 0.0, 0.0, 1.763226462920924E9, 0.0, 2025-11-15 12:07:42.920
44.0, 1928.3148565534502, 1027.9283323711716, 481.7028541928157, 0.6657021921128035, -0.01600000075995922, 0.19200000911951065, 0.9120000433176756, 0.0, 0.0, 0.0, 0.0, 0.0, 1.763226462920924E9, 0.0, 2025-11-15 12:07:42.920
45.0, 2164.887838100549, 791.5741349714808, 269.56076910626143, -201.00092311855406, -0.01600000075995922, 0.19200000911951065, 0.9120000433176756, 0.0, 0.0, 0.0, 0.0, 0.0, 1.763226462936192E9, 0.0, 2025-11-15 12:07:42.936
45.0, 2164.0725399102084, 786.024123437237, 249.8627160396427, -205.99368955940008, -0.01600000075995922, 0.19200000911951065, 0.9120000433176756, 0.0, 0.0, 0.0, 0.0, 0.0, 1.763226462936192E9, 0.0, 2025-11-15 12:07:42.936
46.0, 2007.252924918197, 573.5921961041167, 492.3877483662218, -3.7997383549809456, -0.01600000075995922, 0.19200000911951065, 0.9120000433176756, 0.0, 0.0, 0.0, 0.0, 0.0, 1.763226462936876E9, 0.0, 2025-11-15 12:07:42.936
46.0, 2240.8863451001234, 373.66088437289, 347.44044578354806, -107.70911872386932, -0.01600000075995922, 0.19200000911951065, 0.9120000433176756, 0.0, 0.0, 0.0, 0.0, 0.0, 1.763226462936876E9, 0.0, 2025-11-15 12:07:42.936
47.0, 2138.3345484151505, 298.4776755636558, 269.4298726078123, -180.4202536623925, -0.01600000075995922, 0.19200000911951065, 0.9120000433176756, 0.0, 0.0, 0.0, 0.0, 0.0, 1.7632264629511795E9, 0.0, 2025-11-15 12:07:42.951
47.0, 1894.4725018544123, 500.3387756720185, 438.3611536063254, -25.453759098425508, -0.01600000075995922, 0.19200000911951065, 0.9120000433176756, 0.0, 0.0, 0.0, 0.0, 0.0, 1.7632264629511795E9, 0.0, 2025-11-15 12:07:42.951
48.0, 1840.300050996244, 445.56420092098415, 411.1159824291244, -87.29300486575812, -0.01600000075995922, 0.19200000911951065, 0.9120000433176756, 0.0, 0.0, 0.0, 0.0, 0.0, 1.7632264629518747E9, 0.0, 2025-11-15 12:07:42.951
48.0, 1702.2154648322612, 301.42845662869513, 277.8371677082032, -184.93431290891021, -0.01600000075995922, 0.19200000911951065, 0.9120000433176756, 0.0, 0.0, 0.0, 0.0, 0.0, 1.7632264629518747E9, 0.0, 2025-11-15 12:07:42.951
49.0, 1780.8954801000655, 405.06856420077384, 363.63421259168535, -105.88404754549265, -0.01600000075995922, 0.19200000911951065, 0.9120000433176756, 0.0, 0.0, 0.0, 0.0, 0.0, 1.7632264629655392E9, 0.0, 2025-11-15 12:07:42.965
49.0, 1939.919766115956, 551.4108494669199, 506.6031080977991, 28.303562864661217, -0.01600000075995922, 0.19200000911951065, 0.9120000433176756, 0.0, 0.0, 0.0, 0.0, 0.0, 1.7632264629655392E9, 0.0, 2025-11-15 12:07:42.965
50.0, 2145.6049139290117, 783.3874939684756, 278.40937240142375, -188.40867996774614, -0.01600000075995922, 0.19200000911951065, 0.9600000455975533, 0.0, 0.0, 0.0, 0.0, 0.0, 1.7632264629811633E9, 0.0, 2025-11-15 12:07:42.981
50.0, 2231.7572493082844, 843.4128882572986, 317.53994563780725, -144.9996611820534, -0.01600000075995922, 0.19200000911951065, 0.9600000455975533, 0.0, 0.0, 0.0, 0.0, 0.0, 1.7632264629811633E9, 0.0, 2025-11-15 12:07:42.981
51.0, 2014.901020327583, 603.088787054643, 536.8626386392862, 47.87819923274219, -0.01600000075995922, 0.19200000911951065, 0.9600000455975533, 0.0, 0.0, 0.0, 0.0, 0.0, 1.7632264629818666E9, 0.0, 2025-11-15 12:07:42.981
51.0, 1771.8299626074731, 399.90750226192176, 383.24250805936754, -73.57879172824323, -0.01600000075995922, 0.19200000911951065, 0.9600000455975533, 0.0, 0.0, 0.0, 0.0, 0.0, 1.7632264629818666E9, 0.0, 2025-11-15 12:07:42.981
52.0, 1671.4809669964015, 305.60966477915645, 278.6449860986322, -181.0822159545496, -0.01600000075995922, 0.19200000911951065, 0.9600000455975533, 0.0, 0.0, 0.0, 0.0, 0.0, 1.763226463011906E9, 0.0, 2025-11-15 12:07:43.011
52.0, 1435.1697784462012, 523.526155397296, 456.9858553856611, -24.59358210861683, -0.01600000075995922, 0.19200000911951065, 0.9600000455975533, 0.0, 0.0, 0.0, 0.0, 0.0, 1.763226463011906E9, 0.0, 2025-11-15 12:07:43.011
53.0, 1377.160190233495, 493.70419315062463, 473.3703570915386, 20.93969985190779, -0.01600000075995922, 0.19200000911951065, 0.9600000455975533, 0.0, 0.0, 0.0, 0.0, 0.0, 1.763226463012605E9, 0.0, 2025-11-15 12:07:43.012
53.0, 1255.8864543703385, 364.2138970848173, 339.73625187482685, -117.75075010489672, -0.01600000075995922, 0.19200000911951065, 0.9600000455975533, 0.0, 0.0, 0.0, 0.0, 0.0, 1.763226463012605E9, 0.0, 2025-11-15 12:07:43.012
54.0, 1339.495657779742, 427.0180370407179, 378.5152745153755, -98.00033843889832, -0.01600000075995922, 0.19200000911951065, 0.9600000455975533, 0.0, 0.0, 0.0, 0.0, 0.0, 1.763226463013333E9, 0.0, 2025-11-15 12:07:43.013
54.0, 1488.0557037196122, 586.5696489503607, 540.3893642975017, 39.52326273173094, -0.01600000075995922, 0.19200000911951065, 0.9600000455975533, 0.0, 0.0, 0.0, 0.0, 0.0, 1.763226463013333E9, 0.0, 2025-11-15 12:07:43.013
55.0, 1262.8052692883648, 371.779714695178, 355.89261968340725, -105.75689094699919, -0.01600000075995922, 0.19200000911951065, 0.9600000455975533, 0.0, 0.0, 0.0, 0.0, 0.0, 1.763226463025488E9, 0.0, 2025-11-15 12:07:43.025
55.0, 1279.301967992913, 389.15902978926897, 356.70043807383627, -105.07996905501932, -0.01600000075995922, 0.19200000911951065, 0.9600000455975533, 0.0, 0.0, 0.0, 0.0, 0.0, 1.763226463025488E9, 0.0, 2025-11-15 12:07:43.025
56.0, 1066.6905254619196, 632.4096027072519, 566.1385754924268, 75.4786609057337, -0.01600000075995922, 0.19200000911951065, 0.9600000455975533, 0.0, 0.0, 0.0, 0.0, 0.0, 1.7632264630412436E9, 0.0, 2025-11-15 12:07:43.041
56.0, 1299.489947953727, 416.9689258597791, 395.333604616113, -86.08875708002597, -0.01600000075995922, 0.19200000911951065, 0.9600000455975533, 0.0, 0.0, 0.0, 0.0, 0.0, 1.7632264630412436E9, 0.0, 2025-11-15 12:07:43.041
57.0, 1234.1277164281346, 360.33936073072255, 332.76507835742086, -134.2511887094006, -0.01600000075995922, 0.19200000911951065, 0.9600000455975533, 0.0, 0.0, 0.0, 0.0, 0.0, 1.7632264630419335E9, 0.0, 2025-11-15 12:07:43.041
57.0, 1018.793626729399, 587.373727440834, 521.2597760241479, 32.14444011915475, -0.01600000075995922, 0.19200000911951065, 0.9600000455975533, 0.0, 0.0, 0.0, 0.0, 0.0, 1.7632264630419335E9, 0.0, 2025-11-15 12:07:43.041
58.0, 900.6501871291548, 501.99555135238916, 474.7429003752768, -19.552196968346834, -0.01600000075995922, 0.19200000911951065, 0.9600000455975533, 0.0, 0.0, 0.0, 0.0, 0.0, 1.7632264630555964E9, 0.0, 2025-11-15 12:07:43.055
58.0, 739.168786842376, 360.01024953462183, 340.10650197044015, -124.37037302646786, -0.01600000075995922, 0.19200000911951065, 0.9600000455975533, 0.0, 0.0, 0.0, 0.0, 0.0, 1.7632264630555964E9, 0.0, 2025-11-15 12:07:43.055
59.0, 917.5246157292277, 485.3081177501008, 414.36595549061894, -76.85494408942759, -0.01600000075995922, 0.19200000911951065, 0.9600000455975533, 0.0, 0.0, 0.0, 0.0, 0.0, 1.7632264630712192E9, 0.0, 2025-11-15 12:07:43.071
59.0, 996.4589441940188, 593.862453863956, 549.9074096847326, 58.68651010468602, -0.01600000075995922, 0.19200000911951065, 0.9600000455975533, 0.0, 0.0, 0.0, 0.0, 0.0, 1.7632264630712192E9, 0.0, 2025-11-15 12:07:43.071
60.0, 1229.407962684054, 362.78525530174375, 356.12449348066, -100.37143501080573, -0.01600000075995922, 0.19200000911951065, 0.9920000471174717, 0.0, 0.0, 0.0, 0.0, 0.0, 1.7632264630719123E9, 0.0, 2025-11-15 12:07:43.071
60.0, 1249.0873162508942, 349.55722915846854, 314.4732276741415, -158.72135411947966, -0.01600000075995922, 0.19200000911951065, 0.9920000471174717, 0.0, 0.0, 0.0, 0.0, 0.0, 1.7632264630719123E9, 0.0, 2025-11-15 12:07:43.071
61.0, 1084.5261083506048, 141.3027700758539, 551.915735960938, 28.685032660141587, -0.01600000075995922, 0.19200000911951065, 0.9920000471174717, 0.0, 0.0, 0.0, 0.0, 0.0, 1.7632264630855553E9, 0.0, 2025-11-15 12:07:43.085
61.0, 1234.7335802209564, 377.5129813272506, 370.6240856088698, -97.49545194488019, -0.01600000075995922, 0.19200000911951065, 0.9920000471174717, 0.0, 0.0, 0.0, 0.0, 0.0, 1.7632264630855553E9, 0.0, 2025-11-15 12:07:43.085
62.0, 1232.4410215481184, 322.5327120786533, 293.45498992316425, -174.09982273727655, -0.01600000075995922, 0.19200000911951065, 0.9920000471174717, 0.0, 0.0, 0.0, 0.0, 0.0, 1.7632264631012464E9, 0.0, 2025-11-15 12:07:43.101
62.0, 1461.2331412374042, 531.1630311068147, 473.1796221937984, -6.208233926445246, -0.01600000075995922, 0.19200000911951065, 0.9920000471174717, 0.0, 0.0, 0.0, 0.0, 0.0, 1.7632264631012464E9, 0.0, 2025-11-15 12:07:43.101
63.0, 1319.4086551177315, 465.4716883851215, 442.25812936015427, -44.00366287864745, -0.01600000075995922, 0.19200000911951065, 0.9920000471174717, 0.0, 0.0, 0.0, 0.0, 0.0, 1.7632264631019163E9, 0.0, 2025-11-15 12:07:43.101
63.0, 1222.2086552693509, 334.69112683460116, 312.86881059315056, -168.7068870011717, -0.01600000075995922, 0.19200000911951065, 0.9920000471174717, 0.0, 0.0, 0.0, 0.0, 0.0, 1.7632264631019163E9, 0.0, 2025-11-15 12:07:43.101
64.0, 1357.2527027693577, 433.469364464283, 387.2591606117785, -96.0481106620282, -0.01600000075995922, 0.19200000911951065, 0.9920000471174717, 0.0, 0.0, 0.0, 0.0, 0.0, 1.7632264631155248E9, 0.0, 2025-11-15 12:07:43.115
64.0, 1465.7733797836117, 531.6566979009658, 476.4819538546726, -19.140807973220944, -0.01600000075995922, 0.19200000911951065, 0.9920000471174717, 0.0, 0.0, 0.0, 0.0, 0.0, 1.7632264631155248E9, 0.0, 2025-11-15 12:07:43.115
65.0, 1645.7541952012107, 303.5975986029953, 282.579360852018, -176.47839910909534, -0.01600000075995922, 0.19200000911951065, 0.9920000471174717, 0.0, 0.0, 0.0, 0.0, 0.0, 1.7632264631312344E9, 0.0, 2025-11-15 12:07:43.131
65.0, 1696.6916325977072, 304.22964169550687, 255.55110387224704, -215.2536818496883, -0.01600000075995922, 0.19200000911951065, 0.9920000471174717, 0.0, 0.0, 0.0, 0.0, 0.0, 1.7632264631312344E9, 0.0, 2025-11-15 12:07:43.131
66.0, 1929.0329173449427, 510.3991065528244, 437.2354437196627, -47.717383534647524, -0.01600000075995922, 0.19200000911951065, 0.9920000471174717, 0.0, 0.0, 0.0, 0.0, 0.0, 1.7632264631319232E9, 0.0, 2025-11-15 12:07:43.131
66.0, 2154.5806738226674, 301.04324693325907, 286.9849629998207, -162.67816827259958, -0.01600000075995922, 0.19200000911951065, 0.9920000471174717, 0.0, 0.0, 0.0, 0.0, 0.0, 1.7632264631319232E9, 0.0, 2025-11-15 12:07:43.131
67.0, 2117.9146946570836, 248.84546325169504, 218.15958411525935, -227.98430129885674, -0.01600000075995922, 0.19200000911951065, 0.9920000471174717, 0.0, 0.0, 0.0, 0.0, 0.0, 1.7632264631455505E9, 0.0, 2025-11-15 12:07:43.145
67.0, 1882.186930499971, 447.60618629679084, 364.1316192857921, -132.5121352300048, -0.01600000075995922, 0.19200000911951065, 0.9920000471174717, 0.0, 0.0, 0.0, 0.0, 0.0, 1.7632264631455505E9, 0.0, 2025-11-15 12:07:43.145
68.0, 1801.6407051542774, 400.53580545447767, 366.30076126009226, -100.63696790765971, -0.01600000075995922, 0.19200000911951065, 0.9920000471174717, 0.0, 0.0, 0.0, 0.0, 0.0, 1.7632264631612196E9, 0.0, 2025-11-15 12:07:43.161
68.0, 1607.6333949528635, 256.33274296298623, 244.50717930309474, -192.9788377135992, -0.01600000075995922, 0.19200000911951065, 0.9920000471174717, 0.0, 0.0, 0.0, 0.0, 0.0, 1.7632264631612196E9, 0.0, 2025-11-15 12:07:43.161
69.0, 1793.8392738467082, 382.079399173148, 323.9688336616382, -155.448941658251, -0.01600000075995922, 0.19200000911951065, 0.9920000471174717, 0.0, 0.0, 0.0, 0.0, 0.0, 1.7632264631619112E9, 0.0, 2025-11-15 12:07:43.161
69.0, 1940.2376576121897, 527.554027649574, 471.1937353173271, -11.070103868842125, -0.01600000075995922, 0.19200000911951065, 0.9920000471174717, 0.0, 0.0, 0.0, 0.0, 0.0, 1.7632264631619112E9, 0.0, 2025-11-15 12:07:43.161
70.0, 2179.492147427518, 319.7876255111769, 311.7431007064879, -130.52624835353345, -0.01600000075995922, 0.19200000911951065, 1.008000047877431, 0.0, 0.0, 0.0, 0.0, 0.0, 1.7632264631757047E9, 0.0, 2025-11-15 12:07:43.175
70.0, 2231.9517241059802, 338.36744849104434, 294.12443201523274, -172.17377426009625, -0.01600000075995922, 0.19200000911951065, 1.008000047877431, 0.0, 0.0, 0.0, 0.0, 0.0, 1.7632264631757047E9, 0.0, 2025-11-15 12:07:43.175
71.0, 1997.570323932916, 579.317982936278, 501.7935967547819, 6.657021921128035, -0.01600000075995922, 0.19200000911951065, 1.008000047877431, 0.0, 0.0, 0.0, 0.0, 0.0, 1.7632264631912017E9, 0.0, 2025-11-15 12:07:43.191
71.0, 2223.787522502709, 377.6588374255225, 357.62793326284736, -108.18034611828625, -0.01600000075995922, 0.19200000911951065, 1.008000047877431, 0.0, 0.0, 0.0, 0.0, 0.0, 1.7632264631912017E9, 0.0, 2025-11-15 12:07:43.191
72.0, 2199.2388191935606, 319.16306221857667, 290.52290835790336, -154.56632526870817, -0.01600000075995922, 0.19200000911951065, 1.008000047877431, 0.0, 0.0, 0.0, 0.0, 0.0, 1.7632264631919088E9, 0.0, 2025-11-15 12:07:43.191
72.0, 2431.7446595388465, 525.4746432742104, 451.6976368483156, -17.25215849559754, -0.01600000075995922, 0.19200000911951065, 1.008000047877431, 0.0, 0.0, 0.0, 0.0, 0.0, 1.7632264631919088E9, 0.0, 2025-11-15 12:07:43.191
73.0, 2332.5251137143932, 473.87150368560106, 445.16403162572533, -24.623501308262348, -0.01600000075995922, 0.19200000911951065, 1.008000047877431, 0.0, 0.0, 0.0, 0.0, 0.0, 1.763226463205572E9, 0.0, 2025-11-15 12:07:43.205
73.0, 2166.151924285572, 309.9292492279783, 281.0123427705839, -182.862408333458, -0.01600000075995922, 0.19200000911951065, 1.008000047877431, 0.0, 0.0, 0.0, 0.0, 0.0, 1.763226463205572E9, 0.0, 2025-11-15 12:07:43.205
74.0, 2289.931393119041, 403.28837182186544, 338.6404611878097, -138.98216215334833, -0.01600000075995922, 0.19200000911951065, 1.008000047877431, 0.0, 0.0, 0.0, 0.0, 0.0, 1.763226463221189E9, 0.0, 2025-11-15 12:07:43.221
74.0, 2473.5230819438584, 563.0793373286724, 500.1742200739682, 0.11967679858207703, -0.01600000075995922, 0.19200000911951065, 1.008000047877431, 0.0, 0.0, 0.0, 0.0, 0.0, 1.763226463221189E9, 0.0, 2025-11-15 12:07:43.221
75.0, 2669.791161668487, 327.13278902415186, 300.175590143539, -171.46693316847086, -0.01600000075995922, 0.19200000911951065, 1.008000047877431, 0.0, 0.0, 0.0, 0.0, 0.0, 1.7632264632218938E9, 0.0, 2025-11-15 12:07:43.221
75.0, 2763.1091453628615, 376.3685719408095, 326.9757132260129, -131.8015542384237, -0.01600000075995922, 0.19200000911951065, 1.008000047877431, 0.0, 0.0, 0.0, 0.0, 0.0, 1.7632264632218938E9, 0.0, 2025-11-15 12:07:43.221
76.0, 2992.7801415417343, 604.910118333064, 526.0879868669435, 25.33408229984343, -0.01600000075995922, 0.19200000911951065, 1.008000047877431, 0.0, 0.0, 0.0, 0.0, 0.0, 1.7632264632519653E9, 0.0, 2025-11-15 12:07:43.251
76.0, 3198.0352008598857, 382.8124195644632, 362.62817950360477, -121.2774757631123, -0.01600000075995922, 0.19200000911951065, 1.008000047877431, 0.0, 0.0, 0.0, 0.0, 0.0, 1.7632264632519653E9, 0.0, 2025-11-15 12:07:43.251
77.0, 3185.656132006552, 344.5644627176225, 307.42725615762174, -153.14142338559031, -0.01600000075995922, 0.19200000911951065, 1.008000047877431, 0.0, 0.0, 0.0, 0.0, 0.0, 1.7632264632526426E9, 0.0, 2025-11-15 12:07:43.252
77.0, 3419.0819877409376, 528.784454734996, 445.68013781961054, -38.56958824303001, -0.01600000075995922, 0.19200000911951065, 1.008000047877431, 0.0, 0.0, 0.0, 0.0, 0.0, 1.7632264632526426E9, 0.0, 2025-11-15 12:07:43.252
78.0, 3326.3474284396507, 476.2949588568881, 442.86399315297604, -28.793489758856595, -0.01600000075995922, 0.19200000911951065, 1.008000047877431, 0.0, 0.0, 0.0, 0.0, 0.0, 1.7632264632533808E9, 0.0, 2025-11-15 12:07:43.253
78.0, 3126.7003491050564, 288.37246588338166, 264.6166213648394, -196.8384144678712, -0.01600000075995922, 0.19200000911951065, 1.008000047877431, 0.0, 0.0, 0.0, 0.0, 0.0, 1.7632264632533808E9, 0.0, 2025-11-15 12:07:43.253
79.0, 3254.0327228964306, 397.0689181955531, 340.8245627619326, -117.73579050507396, -0.01600000075995922, 0.19200000911951065, 1.008000047877431, 0.0, 0.0, 0.0, 0.0, 0.0, 1.7632264632655232E9, 0.0, 2025-11-15 12:07:43.265
79.0, 3398.8827880802564, 526.4058783631772, 477.43562834337354, -6.189534426666796, -0.01600000075995922, 0.19200000911951065, 1.008000047877431, 0.0, 0.0, 0.0, 0.0, 0.0, 1.7632264632655232E9, 0.0, 2025-11-15 12:07:43.265
80.0, 3154.5925229745917, 312.3639240991324, 287.59456669259816, -169.17437449563295, -0.01600000075995922, 0.19200000911951065, 1.008000047877431, 0.0, 0.0, 0.0, 0.0, 0.0, 1.7632264632811725E9, 0.0, 2025-11-15 12:07:43.281
80.0, 3190.3160473513417, 316.6685489481315, 273.1772523634136, -184.54910321347415, -0.01600000075995922, 0.19200000911951065, 1.008000047877431, 0.0, 0.0, 0.0, 0.0, 0.0, 1.7632264632811725E9, 0.0, 2025-11-15 12:07:43.281
81.0, 2949.19908735808, 551.579144964926, 493.1170288575813, 16.403201205655932, -0.01600000075995922, 0.19200000911951065, 1.008000047877431, 0.0, 0.0, 0.0, 0.0, 0.0, 1.763226463281875E9, 0.0, 2025-11-15 12:07:43.281
81.0, 3168.0524229151197, 345.499437706545, 325.9061018386856, -155.38910325895995, -0.01600000075995922, 0.19200000911951065, 1.008000047877431, 0.0, 0.0, 0.0, 0.0, 0.0, 1.763226463281875E9, 0.0, 2025-11-15 12:07:43.281
82.0, 3122.7397950519808, 275.48851053602993, 241.72095383610576, -208.92203122470528, -0.01600000075995922, 0.19200000911951065, 1.008000047877431, 0.0, 0.0, 0.0, 0.0, 0.0, 1.7632264632955313E9, 0.0, 2025-11-15 12:07:43.295
82.0, 2878.268144798465, 483.943054266274, 407.7463325690478, -73.08512493409216, -0.01600000075995922, 0.19200000911951065, 1.008000047877431, 0.0, 0.0, 0.0, 0.0, 0.0, 1.7632264632955313E9, 0.0, 2025-11-15 12:07:43.295
83.0, 2787.4110152749345, 430.9785910937935, 393.8526042336598, -82.06836462765932, -0.01600000075995922, 0.19200000911951065, 1.008000047877431, 0.0, 0.0, 0.0, 0.0, 0.0, 1.763226463326916E9, 0.0, 2025-11-15 12:07:43.326
83.0, 2661.3389877686277, 295.1790838027373, 259.99410501960665, -183.41217362694442, -0.01600000075995922, 0.19200000911951065, 1.008000047877431, 0.0, 0.0, 0.0, 0.0, 0.0, 1.763226463326916E9, 0.0, 2025-11-15 12:07:43.326
84.0, 2766.9949014168233, 389.4058631863445, 322.39059588033706, -144.1020851926878, -0.01600000075995922, 0.19200000911951065, 1.008000047877431, 0.0, 0.0, 0.0, 0.0, 0.0, 1.7632264633276112E9, 0.0, 2025-11-15 12:07:43.327
84.0, 2905.116886580363, 503.66728663258255, 439.41954529378563, -39.7962754284963, -0.01600000075995922, 0.19200000911951065, 1.008000047877431, 0.0, 0.0, 0.0, 0.0, 0.0, 1.7632264633276112E9, 0.0, 2025-11-15 12:07:43.327
85.0, 3078.979225670453, 742.8170592491515, 228.54154639225453, -225.17189653217793, -0.01600000075995922, 0.19200000911951065, 1.008000047877431, 0.0, 0.0, 0.0, 0.0, 0.0, 1.7632264633283455E9, 0.0, 2025-11-15 12:07:43.328
85.0, 3146.458240570966, 775.4626459623687, 241.4479411393404, -203.12144639343023, -0.01600000075995922, 0.19200000911951065, 1.008000047877431, 0.0, 0.0, 0.0, 0.0, 0.0, 1.7632264633283455E9, 0.0, 2025-11-15 12:07:43.328
86.0, 3381.148182490375, 981.3703178227879, 402.80592472758144, -95.75639846548438, -0.01600000075995922, 0.19200000911951065, 1.008000047877431, 0.0, 0.0, 0.0, 0.0, 0.0, 1.76322646334136E9, 0.0, 2025-11-15 12:07:43.341
86.0, 3623.3160543711856, 793.694658246357, 280.41395877767354, -176.54571730829775, -0.01600000075995922, 0.19200000911951065, 1.008000047877431, 0.0, 0.0, 0.0, 0.0, 0.0, 1.76322646334136E9, 0.0, 2025-11-15 12:07:43.341
87.0, 3605.353314884007, 754.0853778156452, 228.75098078977317, -213.58942636940628, -0.01600000075995922, 0.19200000911951065, 1.008000047877431, 0.0, 0.0, 0.0, 0.0, 0.0, 1.7632264633419182E9, 0.0, 2025-11-15 12:07:43.341
87.0, 3842.1114214789122, 950.3665471901186, 382.82737916428596, -99.41402062214911, -0.01600000075995922, 0.19200000911951065, 1.008000047877431, 0.0, 0.0, 0.0, 0.0, 0.0, 1.7632264633419182E9, 0.0, 2025-11-15 12:07:43.341
88.0, 3781.498862897046, 917.4068088806234, 392.9737277440727, -71.00574055872858, -0.01600000075995922, 0.19200000911951065, 1.008000047877431, 0.0, 0.0, 0.0, 0.0, 0.0, 1.7632264633555412E9, 0.0, 2025-11-15 12:07:43.355
88.0, 3601.5348770292476, 771.7526652063243, 262.84764868579805, -179.95276616793126, -0.01600000075995922, 0.19200000911951065, 1.008000047877431, 0.0, 0.0, 0.0, 0.0, 0.0, 1.7632264633555412E9, 0.0, 2025-11-15 12:07:43.355
89.0, 3777.553268443793, 903.5579593447037, 355.81034188438207, -109.99045769684017, -0.01600000075995922, 0.19200000911951065, 1.008000047877431, 0.0, 0.0, 0.0, 0.0, 0.0, 1.763226463371211E9, 0.0, 2025-11-15 12:07:43.371
89.0, 3923.5926218135282, 1039.1218529385515, 490.7496721856296, 5.176021538674831, -0.01600000075995922, 0.19200000911951065, 1.008000047877431, 0.0, 0.0, 0.0, 0.0, 0.0, 1.763226463371211E9, 0.0, 2025-11-15 12:07:43.371
90.0, 4114.067596506793, 808.2241695742123, 310.46405492164195, -147.26230065524578, -0.01600000075995922, 0.19200000911951065, 1.0240000486373901, 0.0, 0.0, 0.0, 0.0, 0.0, 1.7632264633719115E9, 0.0, 2025-11-15 12:07:43.371
90.0, 4191.019777995069, 846.4796062209643, 318.8152515226975, -152.59913789201528, -0.01600000075995922, 0.19200000911951065, 1.0240000486373901, 0.0, 0.0, 0.0, 0.0, 0.0, 1.7632264633719115E9, 0.0, 2025-11-15 12:07:43.371
91.0, 3988.8501361403614, 1082.605669723358, 517.519876068458, 12.734359349124134, -0.01600000075995922, 0.19200000911951065, 1.0240000486373901, 0.0, 0.0, 0.0, 0.0, 0.0, 1.7632264633855612E9, 0.0, 2025-11-15 12:07:43.385
91.0, 4223.1380388145335, 900.5249004806392, 395.28124601673335, -66.031673617661, -0.01600000075995922, 0.19200000911951065, 1.0240000486373901, 0.0, 0.0, 0.0, 0.0, 0.0, 1.7632264633855612E9, 0.0, 2025-11-15 12:07:43.385
92.0, 4143.48564955825, 832.5260394862853, 318.2580064292997, -127.75498248636723, -0.01600000075995922, 0.19200000911951065, 1.0240000486373901, 0.0, 0.0, 0.0, 0.0, 0.0, 1.763226463401219E9, 0.0, 2025-11-15 12:07:43.401
92.0, 3927.4821177674457, 1038.5085093458183, 465.8568980805576, -33.72267790045589, -0.01600000075995922, 0.19200000911951065, 1.0240000486373901, 0.0, 0.0, 0.0, 0.0, 0.0, 1.763226463401219E9, 0.0, 2025-11-15 12:07:43.401
93.0, 3841.2400247892365, 990.3049388169311, 469.87355063296854, -10.011712181381881, -0.01600000075995922, 0.19200000911951065, 1.0240000486373901, 0.0, 0.0, 0.0, 0.0, 0.0, 1.7632264634019125E9, 0.0, 2025-11-15 12:07:43.401
93.0, 3675.5287976525724, 828.8646774296649, 310.82682521734387, -154.02403977513313, -0.01600000075995922, 0.19200000911951065, 1.0240000486373901, 0.0, 0.0, 0.0, 0.0, 0.0, 1.7632264634019125E9, 0.0, 2025-11-15 12:07:43.401
94.0, 3810.995453847572, 935.2835306688212, 379.2856939062476, -100.19191981293261, -0.01600000075995922, 0.19200000911951065, 1.0240000486373901, 0.0, 0.0, 0.0, 0.0, 0.0, 1.7632264634155622E9, 0.0, 2025-11-15 12:07:43.415
94.0, 3968.437762182206, 1091.0428840233944, 548.3890103027225, 70.6616697628051, -0.01600000075995922, 0.19200000911951065, 1.0240000486373901, 0.0, 0.0, 0.0, 0.0, 0.0, 1.7632264634155622E9, 0.0, 2025-11-15 12:07:43.415
95.0, 4111.4085276382975, 1294.0315639683977, 788.7355509051122, -168.62834910210222, -0.01600000075995922, 0.19200000911951065, 1.0240000486373901, 0.0, 0.0, 0.0, 0.0, 0.0, 1.7632264634312105E9, 0.0, 2025-11-15 12:07:43.431
95.0, 4209.981070770416, 1355.766092536971, 824.8368051773869, -124.08240072987974, -0.01600000075995922, 0.19200000911951065, 1.0240000486373901, 0.0, 0.0, 0.0, 0.0, 0.0, 1.7632264634312105E9, 0.0, 2025-11-15 12:07:43.431
96.0, 4449.207511336077, 1555.1289394749328, 975.2817606949247, -19.30910347122699, -0.01600000075995922, 0.19200000911951065, 1.0240000486373901, 0.0, 0.0, 0.0, 0.0, 0.0, 1.7632264634319131E9, 0.0, 2025-11-15 12:07:43.431
96.0, 4218.178931473289, 1391.8374276096001, 883.497135982383, -50.077260406687856, -0.01600000075995922, 0.19200000911951065, 1.0240000486373901, 0.0, 0.0, 0.0, 0.0, 0.0, 1.7632264634319131E9, 0.0, 2025-11-15 12:07:43.431
97.0, 4162.327265535016, 1321.4712099432945, 792.2099179639481, -161.80303168296814, -0.01600000075995922, 0.19200000911951065, 1.0240000486373901, 0.0, 0.0, 0.0, 0.0, 0.0, 1.7632264634455462E9, 0.0, 2025-11-15 12:07:43.445
97.0, 4398.314952739049, 1518.4106017099693, 941.484284795355, -32.039722920395434, -0.01600000075995922, 0.19200000911951065, 1.0240000486373901, 0.0, 0.0, 0.0, 0.0, 0.0, 1.7632264634455462E9, 0.0, 2025-11-15 12:07:43.445
98.0, 4328.1731290700845, 1490.507208140567, 964.858659518417, -1.006033088080585, -0.01600000075995922, 0.19200000911951065, 1.0240000486373901, 0.0, 0.0, 0.0, 0.0, 0.0, 1.7632264634612608E9, 0.0, 2025-11-15 12:07:43.461
98.0, 4166.299039287958, 1328.6966966576874, 811.6125189340673, -130.2794149564579, -0.01600000075995922, 0.19200000911951065, 1.0240000486373901, 0.0, 0.0, 0.0, 0.0, 0.0, 1.7632264634612608E9, 0.0, 2025-11-15 12:07:43.461
99.0, 4302.618392672855, 1439.345376746729, 889.5632537105121, -65.60906492266804, -0.01600000075995922, 0.19200000911951065, 1.0240000486373901, 0.0, 0.0, 0.0, 0.0, 0.0, 1.7632264634619317E9, 0.0, 2025-11-15 12:07:43.461
99.0, 4428.260331684258, 1555.57398756966, 1002.6690480704419, 16.87442860007286, -0.01600000075995922, 0.19200000911951065, 1.0240000486373901, 0.0, 0.0, 0.0, 0.0, 0.0, 1.7632264634619317E9, 0.0, 2025-11-15 12:07:43.461
100.0, 4656.672851528041, 1339.8528182255104, 835.5964973499067, -100.04232381470501, -0.01600000075995922, 0.19200000911951065, 1.0240000486373901, 0.0, 0.0, 0.0, 0.0, 0.0, 1.7632264634919467E9, 0.0, 2025-11-15 12:07:43.491
100.0, 4664.709896532819, 1320.3641995564103, 784.6216609538533, -171.40709476917982, -0.01600000075995922, 0.19200000911951065, 1.0240000486373901, 0.0, 0.0, 0.0, 0.0, 0.0, 1.7632264634919467E9, 0.0, 2025-11-15 12:07:43.491
0.0, 35.50100032938644, 97.09902254957706, 21.6764601431787, 18.813566727098078, -0.01600000075995922, 0.19200000911951065, 1.0240000486373901, 0.0, 0.0, 0.0, 0.0, 0.0, 1.7632264634926417E9, 0.0, 2025-11-15 12:07:43.492
1.0, 231.15573646128178, -134.8084338027984, -154.2933125719428, -138.10889551369473, -0.01600000075995922, 0.19200000911951065, 1.0240000486373901, 0.0, 0.0, 0.0, 0.0, 0.0, 1.76322646349338E9, 0.0, 2025-11-15 12:07:43.493
1.0, 242.9326814217493, -157.1505961380899, -194.1681258995086, -153.3489878331311, -0.01600000075995922, 0.19200000911951065, 1.0240000486373901, 0.0, 0.0, 0.0, 0.0, 0.0, 1.76322646349338E9, 0.0, 2025-11-15 12:07:43.493
2.0, 4.317714498843998, 58.02080791257322, -7.730373208411038, 29.771473597269505, -0.01600000075995922, 0.19200000911951065, 1.0240000486373901, 0.0, 0.0, 0.0, 0.0, 0.0, 1.7632264635062006E9, 0.0, 2025-11-15 12:07:43.506
2.0, -98.89604447828606, -17.37557519413531, -68.6982222860679, -77.36170053342357, -0.01600000075995922, 0.19200000911951065, 1.0240000486373901, 0.0, 0.0, 0.0, 0.0, 0.0, 1.7632264635062006E9, 0.0, 2025-11-15 12:07:43.506
3.0, -276.79934547049925, -156.38017674721777, -182.98208513204008, -140.58844918431714, -0.01600000075995922, 0.19200000911951065, 1.0240000486373901, 0.0, 0.0, 0.0, 0.0, 0.0, 1.7632264635069091E9, 0.0, 2025-11-15 12:07:43.506
3.0, -113.82946500135586, -49.92018460854888, -119.69923798181117, -98.69782978063449, -0.01600000075995922, 0.19200000911951065, 1.0240000486373901, 0.0, 0.0, 0.0, 0.0, 0.0, 1.7632264635069091E9, 0.0, 2025-11-15 12:07:43.506
4.0, 42.93966134125367, 108.00831072032452, 48.40178522653878, 49.56302416278049, -0.01600000075995922, 0.19200000911951065, 1.0240000486373901, 0.0, 0.0, 0.0, 0.0, 0.0, 1.763226463520545E9, 0.0, 2025-11-15 12:07:43.520
4.0, 241.12630974315107, -118.73434379324317, -128.843293373473, -91.04599447129294, -0.01600000075995922, 0.19200000911951065, 1.0240000486373901, 0.0, 0.0, 0.0, 0.0, 0.0, 1.763226463520545E9, 0.0, 2025-11-15 12:07:43.520
5.0, 279.9090722836554, -132.92726412508637, -183.56176962517202, -154.53079621912912, -0.01600000075995922, 0.19200000911951065, 1.0240000486373901, 0.0, 0.0, 0.0, 0.0, 0.0, 1.763226463536301E9, 0.0, 2025-11-15 12:07:43.536
5.0, 107.69228917406872, -370.61847575893626, 30.723278135992587, 20.399284308310598, -0.01600000075995922, 0.19200000911951065, 1.0240000486373901, 0.0, 0.0, 0.0, 0.0, 0.0, 1.763226463536301E9, 0.0, 2025-11-15 12:07:43.536
6.0, 244.76897229999304, -611.1875404086895, -129.63241226412356, -87.99049620749429, -0.01600000075995922, 0.19200000911951065, 1.0240000486373901, 0.0, 0.0, 0.0, 0.0, 0.0, 1.7632264635369537E9, 0.0, 2025-11-15 12:07:43.536
6.0, 203.3234009910375, -673.5167130702175, -214.67773725651205, -169.95788353634998, -0.01600000075995922, 0.19200000911951065, 1.0240000486373901, 0.0, 0.0, 0.0, 0.0, 0.0, 1.7632264635369537E9, 0.0, 2025-11-15 12:07:43.536
7.0, -34.34163134312257, -498.9194836388342, -99.25320492405444, -106.2935665906407, -0.01600000075995922, 0.19200000911951065, 1.0240000486373901, 0.0, 0.0, 0.0, 0.0, 0.0, 1.7632264635669127E9, 0.0, 2025-11-15 12:07:43.566
7.0, -199.2973986887373, -572.5094950669445, -106.32909564021975, -89.98386288387701, -0.01600000075995922, 0.19200000911951065, 1.0240000486373901, 0.0, 0.0, 0.0, 0.0, 0.0, 1.7632264635669127E9, 0.0, 2025-11-15 12:07:43.566
8.0, -329.67779094399884, -721.9671169961803, -252.44698690902442, -202.46135405125096, -0.01600000075995922, 0.19200000911951065, 1.0240000486373901, 0.0, 0.0, 0.0, 0.0, 0.0, 1.7632264635676064E9, 0.0, 2025-11-15 12:07:43.567
8.0, -225.25230438122526, -615.5033849575557, -185.36440140381455, -162.75483622169122, -0.01600000075995922, 0.19200000911951065, 1.0240000486373901, 0.0, 0.0, 0.0, 0.0, 0.0, 1.7632264635676064E9, 0.0, 2025-11-15 12:07:43.567
9.0, -23.237868374679238, -451.5386911001988, -19.825209665112197, -7.724763358477503, -0.01600000075995922, 0.19200000911951065, 1.0240000486373901, 0.0, 0.0, 0.0, 0.0, 0.0, 1.7632264635683532E9, 0.0, 2025-11-15 12:07:43.568
9.0, -256.0989992157556, -666.6352971517481, -195.14797968789935, -152.76930333999917, -0.01600000075995922, 0.19200000911951065, 1.0240000486373901, 0.0, 0.0, 0.0, 0.0, 0.0, 1.7632264635683532E9, 0.0, 2025-11-15 12:07:43.568
10.0, -236.0531354532577, -650.3929116441868, -201.9807769069448, -159.63201975869015, -0.01600000075995922, 0.19200000911951065, 1.008000047877431, 0.0, 0.0, 0.0, 0.0, 0.0, 1.7632264635805674E9, 0.0, 2025-11-15 12:07:43.580
10.0, -467.35659796278924, -431.50404703756794, -20.93222005199641, -14.441623678896576, -0.01600000075995922, 0.19200000911951065, 1.008000047877431, 0.0, 0.0, 0.0, 0.0, 0.0, 1.7632264635805674E9, 0.0, 2025-11-15 12:07:43.580
11.0, -257.67723699705675, -625.4702183394693, -145.6242244746536, -121.06617141561583, -0.01600000075995922, 0.19200000911951065, 1.008000047877431, 0.0, 0.0, 0.0, 0.0, 0.0, 1.7632264635962293E9, 0.0, 2025-11-15 12:07:43.596
11.0, -287.6749745416455, -668.2696334323846, -203.82080768514425, -154.9122660146095, -0.01600000075995922, 0.19200000911951065, 1.008000047877431, 0.0, 0.0, 0.0, 0.0, 0.0, 1.7632264635962293E9, 0.0, 2025-11-15 12:07:43.596
12.0, -485.7082870453596, -460.6528272922151, -50.29043470416218, -42.99575984058902, -0.01600000075995922, 0.19200000911951065, 1.008000047877431, 0.0, 0.0, 0.0, 0.0, 0.0, 1.7632264635969343E9, 0.0, 2025-11-15 12:07:43.596
12.0, -559.6461091693491, -496.57082646666095, -37.215744459070265, -20.062693312298506, -0.01600000075995922, 0.19200000911951065, 1.008000047877431, 0.0, 0.0, 0.0, 0.0, 0.0, 1.7632264635969343E9, 0.0, 2025-11-15 12:07:43.596
13.0, -761.7914416743442, -647.4608300789259, -169.84381658770144, -115.84153117751703, -0.01600000075995922, 0.19200000911951065, 1.008000047877431, 0.0, 0.0, 0.0, 0.0, 0.0, 1.7632264636106136E9, 0.0, 2025-11-15 12:07:43.610
13.0, -624.6979289986193, -560.6390526075847, -135.55267389398068, -96.01632151240483, -0.01600000075995922, 0.19200000911951065, 1.008000047877431, 0.0, 0.0, 0.0, 0.0, 0.0, 1.7632264636106136E9, 0.0, 2025-11-15 12:07:43.610
14.0, -482.4583139838651, -425.3369520106353, 4.484140046872199, -7.608826459851116, -0.01600000075995922, 0.19200000911951065, 1.008000047877431, 0.0, 0.0, 0.0, 0.0, 0.0, 1.763226463626652E9, 0.0, 2025-11-15 12:07:43.626
14.0, -282.05764480819926, -656.3917111731134, -175.11333562526852, -140.36405518697575, -0.01600000075995922, 0.19200000911951065, 1.008000047877431, 0.0, 0.0, 0.0, 0.0, 0.0, 1.763226463626652E9, 0.0, 2025-11-15 12:07:43.626
15.0, -195.3742436352186, -604.5566977872513, -152.56921869236976, -98.15554428705946, -0.01600000075995922, 0.19200000911951065, 1.008000047877431, 0.0, 0.0, 0.0, 0.0, 0.0, 1.7632264636413884E9, 0.0, 2025-11-15 12:07:43.641
15.0, 12.448257002513856, -416.7389220125042, 0.5946440929546952, 27.92770291911438, -0.01600000075995922, 0.19200000911951065, 1.008000047877431, 0.0, 0.0, 0.0, 0.0, 0.0, 1.7632264636413884E9, 0.0, 2025-11-15 12:07:43.641
16.0, -189.9214694998227, -588.2843930800445, -119.07093478925526, -107.18740268005058, -0.01600000075995922, 0.19200000911951065, 1.008000047877431, 0.0, 0.0, 0.0, 0.0, 0.0, 1.7632264636419299E9, 0.0, 2025-11-15 12:07:43.641
16.0, -236.40842594904825, -632.9911571503617, -173.79689084086567, -129.33135031769052, -0.01600000075995922, 0.19200000911951065, 1.008000047877431, 0.0, 0.0, 0.0, 0.0, 0.0, 1.7632264636419299E9, 0.0, 2025-11-15 12:07:43.641
17.0, -14.486502478364855, -451.0861632055603, -40.61531351879239, -50.1913273553364, -0.01600000075995922, 0.19200000911951065, 1.008000047877431, 0.0, 0.0, 0.0, 0.0, 0.0, 1.7632264636562822E9, 0.0, 2025-11-15 12:07:43.656
17.0, -118.83719104202464, -515.2254474456422, -50.084740206599236, -29.087071905378252, -0.01600000075995922, 0.19200000911951065, 1.008000047877431, 0.0, 0.0, 0.0, 0.0, 0.0, 1.7632264636562822E9, 0.0, 2025-11-15 12:07:43.656
18.0, -262.19503614353016, -655.9765822780319, -184.8333356101066, -135.3002306469716, -0.01600000075995922, 0.19200000911951065, 1.008000047877431, 0.0, 0.0, 0.0, 0.0, 0.0, 1.763226463656942E9, 0.0, 2025-11-15 12:07:43.656
18.0, -99.66646386915818, -533.6631542271934, -103.47555197402835, -76.68103874148801, -0.01600000075995922, 0.19200000911951065, 1.008000047877431, 0.0, 0.0, 0.0, 0.0, 0.0, 1.763226463656942E9, 0.0, 2025-11-15 12:07:43.656
19.0, 76.80445544002578, -380.1215615463443, 44.16073867678642, 47.895028782542795, -0.01600000075995922, 0.19200000911951065, 1.008000047877431, 0.0, 0.0, 0.0, 0.0, 0.0, 1.7632264636705792E9, 0.0, 2025-11-15 12:07:43.670
19.0, 172.45800665672868, -178.77095778193325, -174.4214541334659, -99.68516336893663, -0.01600000075995922, 0.19200000911951065, 1.008000047877431, 0.0, 0.0, 0.0, 0.0, 0.0, 1.7632264636705792E9, 0.0, 2025-11-15 12:07:43.670
20.0, 286.48381640575826, -125.81397440936416, -172.19995355978608, -147.9784914967604, -0.01600000075995922, 0.19200000911951065, 1.008000047877431, 0.0, 0.0, 0.0, 0.0, 0.0, 1.7632264636862268E9, 0.0, 2025-11-15 12:07:43.686
20.0, 68.85342813422903, 110.95161198545247, 28.501777562312782, 40.3329510721378, -0.01600000075995922, 0.19200000911951065, 1.008000047877431, 0.0, 0.0, 0.0, 0.0, 0.0, 1.7632264636862268E9, 0.0, 2025-11-15 12:07:43.686
21.0, 287.837660189718, -99.50751812104136, -109.50801060255617, -55.917114187497646, -0.01600000075995922, 0.17600000835955143, 1.008000047877431, 0.0, 0.0, 0.0, 0.0, 0.0, 1.7632264636869185E9, 0.0, 2025-11-15 12:07:43.686
21.0, 217.46022282354534, -196.5766214709729, -235.2958057122305, -197.7789993067272, -0.01600000075995922, 0.17600000835955143, 1.008000047877431, 0.0, 0.0, 0.0, 0.0, 0.0, 1.7632264636869185E9, 0.0, 2025-11-15 12:07:43.686
22.0, 23.671696769539267, -440.4124887320213, -31.41141972783953, 6.1764447768218815, -0.04800000227987766, 0.17600000835955143, 1.008000047877431, 0.0, 0.0, 0.0, 0.0, 0.0, 1.7632264637005568E9, 0.0, 2025-11-15 12:07:43.700
22.0, -145.3082029283978, -541.472065334674, -79.94784135278314, -40.56482486939058, -0.04800000227987766, 0.17600000835955143, 1.008000047877431, 0.0, 0.0, 0.0, 0.0, 0.0, 1.7632264637005568E9, 0.0, 2025-11-15 12:07:43.700
23.0, -280.32607112871483, -688.5959896915592, -228.50788729265332, -180.34732561325654, -0.04800000227987766, 0.17600000835955143, 1.008000047877431, 0.0, 0.0, 0.0, 0.0, 0.0, 1.7632264637162352E9, 0.0, 2025-11-15 12:07:43.716
23.0, -126.16739495517686, -573.1003992599435, -145.7738204728812, -102.14975743973628, -0.04800000227987766, 0.17600000835955143, 1.008000047877431, 0.0, 0.0, 0.0, 0.0, 0.0, 1.7632264637162352E9, 0.0, 2025-11-15 12:07:43.716
24.0, -10.881238921079785, -442.61154990596697, -14.226579431444407, -0.03178914962336421, -0.04800000227987766, 0.17600000835955143, 1.008000047877431, 0.0, 0.0, 0.0, 0.0, 0.0, 1.7632264637169297E9, 0.0, 2025-11-15 12:07:43.716
24.0, 221.67882997356355, -665.6741428631358, -195.36115398537368, -135.7153595420532, -0.04800000227987766, 0.17600000835955143, 1.008000047877431, 0.0, 0.0, 0.0, 0.0, 0.0, 1.7632264637169297E9, 0.0, 2025-11-15 12:07:43.716
25.0, 260.6485875118524, -669.7207146151923, -234.16261602565646, -195.64725633198395, -0.04800000227987766, 0.17600000835955143, 1.008000047877431, 0.0, 0.0, 0.0, 0.0, 0.0, 1.7632264637305565E9, 0.0, 2025-11-15 12:07:43.730
25.0, 22.512327783275396, -425.09011861355975, -3.455667559057474, 22.085979188326746, -0.04800000227987766, 0.17600000835955143, 1.008000047877431, 0.0, 0.0, 0.0, 0.0, 0.0, 1.7632264637305565E9, 0.0, 2025-11-15 12:07:43.730
26.0, 226.71647521387786, -645.1944507057779, -166.60506322607398, -127.84287013532594, -0.04800000227987766, 0.17600000835955143, 1.008000047877431, 0.0, 0.0, 0.0, 0.0, 0.0, 1.7632264637462022E9, 0.0, 2025-11-15 12:07:43.746
26.0, 152.6290570916608, -730.7297025923617, -273.25205036252737, -218.31852986337617, -0.04800000227987766, 0.17600000835955143, 1.008000047877431, 0.0, 0.0, 0.0, 0.0, 0.0, 1.7632264637462022E9, 0.0, 2025-11-15 12:07:43.746
27.0, -83.9476643553935, -540.8961207414977, -130.0625007590279, -117.27391286054626, -0.04800000227987766, 0.17600000835955143, 1.008000047877431, 0.0, 0.0, 0.0, 0.0, 0.0, 1.763226463746918E9, 0.0, 2025-11-15 12:07:43.746
27.0, -151.40797975612804, -561.8694796930067, -99.6384146194905, -56.91192757571116, -0.04800000227987766, 0.17600000835955143, 1.008000047877431, 0.0, 0.0, 0.0, 0.0, 0.0, 1.763226463746918E9, 0.0, 2025-11-15 12:07:43.746
28.0, -318.435651677195, -725.0450546597131, -253.83448979258537, -183.6197380744852, -0.04800000227987766, 0.17600000835955143, 1.008000047877431, 0.0, 0.0, 0.0, 0.0, 0.0, 1.7632264637605474E9, 0.0, 2025-11-15 12:07:43.760
28.0, -209.9374140626751, -646.8138273865916, -227.20266220811754, -195.20594813721254, -0.04800000227987766, 0.17600000835955143, 1.008000047877431, 0.0, 0.0, 0.0, 0.0, 0.0, 1.7632264637605474E9, 0.0, 2025-11-15 12:07:43.760
29.0, -51.19736044341698, -496.41749056847766, -62.64332425780594, -34.46130814170465, -0.04800000227987766, 0.17600000835955143, 1.008000047877431, 0.0, 0.0, 0.0, 0.0, 0.0, 1.763226463776215E9, 0.0, 2025-11-15 12:07:43.776
29.0, -288.5949899307452, -713.3503874982707, -249.8552362397313, -189.08373190974817, -0.04800000227987766, 0.17600000835955143, 1.008000047877431, 0.0, 0.0, 0.0, 0.0, 0.0, 1.763226463776215E9, 0.0, 2025-11-15 12:07:43.776
30.0, -266.57819889159873, -690.0171516747214, -236.42151559889317, -183.9937280700542, -0.04800000227987766, 0.17600000835955143, 1.0240000486373901, 0.0, 0.0, 0.0, 0.0, 0.0, 1.7632264637769144E9, 0.0, 2025-11-15 12:07:43.776
30.0, -494.80746363755316, -459.26158450869843, -48.147472029551864, -16.928657149430364, -0.04800000227987766, 0.17600000835955143, 1.0240000486373901, 0.0, 0.0, 0.0, 0.0, 0.0, 1.7632264637769144E9, 0.0, 2025-11-15 12:07:43.776
31.0, -713.6701489444822, -635.833481116686, -163.2241936661303, -108.30189286684617, -0.04800000227987766, 0.17600000835955143, 1.0240000486373901, 0.0, 0.0, 0.0, 0.0, 0.0, 1.7632264637905445E9, 0.0, 2025-11-15 12:07:43.790
31.0, -783.7670938139781, -711.2410839232616, -256.9348668558523, -211.84102314012125, -0.04800000227987766, 0.17600000835955143, 1.0240000486373901, 0.0, 0.0, 0.0, 0.0, 0.0, 1.7632264637905445E9, 0.0, 2025-11-15 12:07:43.790
32.0, -569.8971749478951, -531.3369364547543, -120.19290477596223, -99.36727187270299, -0.03200000151991844, 0.17600000835955143, 1.0240000486373901, 0.0, 0.0, 0.0, 0.0, 0.0, 1.76322646380624E9, 0.0, 2025-11-15 12:07:43.806
32.0, -615.8792449031025, -542.9717652169056, -73.29829923156649, -18.439576731529087, -0.03200000151991844, 0.17600000835955143, 1.0240000486373901, 0.0, 0.0, 0.0, 0.0, 0.0, 1.76322646380624E9, 0.0, 2025-11-15 12:07:43.806
33.0, -693.8636387791485, -647.1055395831354, -196.12035367637873, -142.1928662653081, -0.03200000151991844, 0.17600000835955143, 1.0240000486373901, 0.0, 0.0, 0.0, 0.0, 0.0, 1.763226463806922E9, 0.0, 2025-11-15 12:07:43.806
33.0, -674.9808839028701, -612.2347123962827, -190.40952644404024, -161.4271717374213, -0.03200000151991844, 0.17600000835955143, 1.0240000486373901, 0.0, 0.0, 0.0, 0.0, 0.0, 1.763226463806922E9, 0.0, 2025-11-15 12:07:43.806
34.0, -534.4466632679105, -469.15361989149824, -33.45714500360191, -9.46381683787331, -0.03200000151991844, 0.17600000835955143, 1.0240000486373901, 0.0, 0.0, 0.0, 0.0, 0.0, 1.7632264638205707E9, 0.0, 2025-11-15 12:07:43.820
34.0, -764.7272631395608, -668.5987446284853, -196.2774294745177, -137.70124641852453, -0.03200000151991844, 0.17600000835955143, 1.0240000486373901, 0.0, 0.0, 0.0, 0.0, 0.0, 1.7632264638205707E9, 0.0, 2025-11-15 12:07:43.820
35.0, -663.6228077374399, -614.6693872674368, -179.17860687710345, -136.09682933753356, -0.03200000151991844, 0.17600000835955143, 1.0240000486373901, 0.0, 0.0, 0.0, 0.0, 0.0, 1.7632264638362088E9, 0.0, 2025-11-15 12:07:43.836
35.0, -906.6097177085467, -378.03843727102503, 30.330588640645146, 39.080084586981684, -0.03200000151991844, 0.17600000835955143, 1.0240000486373901, 0.0, 0.0, 0.0, 0.0, 0.0, 1.7632264638362088E9, 0.0, 2025-11-15 12:07:43.836
36.0, -751.9068860914558, -155.1871486613527, -173.43412054516375, -140.3790147867985, -0.03200000151991844, 0.17600000835955143, 1.0240000486373901, 0.0, 0.0, 0.0, 0.0, 0.0, 1.7632264638369246E9, 0.0, 2025-11-15 12:07:43.836
36.0, -716.2768592135981, -153.08906478621066, -186.89402048569173, -132.09513638494536, -0.03200000151991844, 0.17600000835955143, 1.0240000486373901, 0.0, 0.0, 0.0, 0.0, 0.0, 1.7632264638369246E9, 0.0, 2025-11-15 12:07:43.836
37.0, -504.19087262637913, 25.180746401660144, -66.91055010724813, -44.02049242844805, -0.03200000151991844, 0.17600000835955143, 1.0240000486373901, 0.0, 0.0, 0.0, 0.0, 0.0, 1.7632264638505867E9, 0.0, 2025-11-15 12:07:43.850
37.0, -527.2323962533846, 9.009418993256986, -41.04914191365242, -17.05955364787951, -0.03200000151991844, 0.17600000835955143, 1.0240000486373901, 0.0, 0.0, 0.0, 0.0, 0.0, 1.7632264638505867E9, 0.0, 2025-11-15 12:07:43.850
38.0, -725.0020458102226, -153.39573658257723, -178.1912732888013, -106.07291249325499, -0.03200000151991844, 0.17600000835955143, 1.0240000486373901, 0.0, 0.0, 0.0, 0.0, 0.0, 1.7632264638819256E9, 0.0, 2025-11-15 12:07:43.881
38.0, -592.6956050777808, -43.659592082723975, -111.74821067601442, -48.5607309746556, -0.03200000151991844, 0.17600000835955143, 1.0240000486373901, 0.0, 0.0, 0.0, 0.0, 0.0, 1.7632264638819256E9, 0.0, 2025-11-15 12:07:43.881
39.0, -447.4341508988291, 89.94085403438658, 23.658607119694352, 39.805625178385526, -0.03200000151991844, 0.17600000835955143, 1.0240000486373901, 0.0, 0.0, 0.0, 0.0, 0.0, 1.763226463882636E9, 0.0, 2025-11-15 12:07:43.882
39.0, -247.2840550201945, 318.85452047223225, -205.60847986396402, -161.71140413405374, -0.03200000151991844, 0.17600000835955143, 1.0240000486373901, 0.0, 0.0, 0.0, 0.0, 0.0, 1.763226463882636E9, 0.0, 2025-11-15 12:07:43.882
40.0, -224.14903389429674, 333.0362211042084, -211.2482489971444, -159.02989586582407, -0.03200000151991844, 0.17600000835955143, 1.008000047877431, 0.0, 0.0, 0.0, 0.0, 0.0, 1.7632264638833864E9, 0.0, 2025-11-15 12:07:43.883
40.0, -384.6636700425297, 112.14090017136186, 18.52372448053211, 53.79285101266578, -0.03200000151991844, 0.17600000835955143, 1.008000047877431, 0.0, 0.0, 0.0, 0.0, 0.0, 1.7632264638833864E9, 0.0, 2025-11-15 12:07:43.883
41.0, -143.67012674780563, -84.5217389985919, -117.25708331074566, -65.83532886998728, -0.03200000151991844, 0.1600000075995922, 1.008000047877431, 0.0, 0.0, 0.0, 0.0, 0.0, 1.763226463896236E9, 0.0, 2025-11-15 12:07:43.896
41.0, -237.47803733637556, -154.78323946613818, -198.85422054398805, -140.85772198112682, -0.03200000151991844, 0.1600000075995922, 1.008000047877431, 0.0, 0.0, 0.0, 0.0, 0.0, 1.763226463896236E9, 0.0, 2025-11-15 12:07:43.896
42.0, -475.6292566647753, 47.51168903708458, -42.79567519295961, -26.936629430856556, -0.04800000227987766, 0.1600000075995922, 1.008000047877431, 0.0, 0.0, 0.0, 0.0, 0.0, 1.7632264638969512E9, 0.0, 2025-11-15 12:07:43.896
42.0, -586.8351818472147, -13.471119640395045, -42.821854492649436, 12.403378203045577, -0.04800000227987766, 0.1600000075995922, 1.008000047877431, 0.0, 0.0, 0.0, 0.0, 0.0, 1.7632264638969512E9, 0.0, 2025-11-15 12:07:43.896
43.0, -734.1573209017515, -159.69746800791472, -192.59362801816314, -129.2303730188869, -0.04800000227987766, 0.1600000075995922, 1.008000047877431, 0.0, 0.0, 0.0, 0.0, 0.0, 1.76322646391053E9, 0.0, 2025-11-15 12:07:43.910
43.0, -605.9872095203027, -53.41699106711894, -129.47907636594027, -99.1765369749628, -0.04800000227987766, 0.1600000075995922, 1.008000047877431, 0.0, 0.0, 0.0, 0.0, 0.0, 1.76322646391053E9, 0.0, 2025-11-15 12:07:43.910
44.0, -423.4165133833885, 107.2378913294524, 37.47005765605718, 71.1609464068897, -0.04800000227987766, 0.1600000075995922, 1.008000047877431, 0.0, 0.0, 0.0, 0.0, 0.0, 1.7632264639263473E9, 0.0, 2025-11-15 12:07:43.926
44.0, -645.3758358536288, -112.21943807043135, -150.2168216202408, -87.33975361520424, -0.04800000227987766, 0.1600000075995922, 1.008000047877431, 0.0, 0.0, 0.0, 0.0, 0.0, 1.7632264639263473E9, 0.0, 2025-11-15 12:07:43.926
45.0, -636.4748739590868, -65.50060782395303, -110.32704869285226, -30.71766828605905, -0.04800000227987766, 0.1600000075995922, 1.008000047877431, 0.0, 0.0, 0.0, 0.0, 0.0, 1.763226463926968E9, 0.0, 2025-11-15 12:07:43.926
45.0, -863.428832820151, 150.04852612223476, 55.27198144514114, 78.9062792151235, -0.04800000227987766, 0.1600000075995922, 1.008000047877431, 0.0, 0.0, 0.0, 0.0, 0.0, 1.763226463926968E9, 0.0, 2025-11-15 12:07:43.926
46.0, -621.8219459326938, -36.24711037054658, -73.10382443387061, -24.980661754030734, -0.04800000227987766, 0.1600000075995922, 1.008000047877431, 0.0, 0.0, 0.0, 0.0, 0.0, 1.7632264639404995E9, 0.0, 2025-11-15 12:07:43.940
46.0, -623.568479212001, -67.43039620108902, -117.9452249025926, -62.25250471243635, -0.04800000227987766, 0.1600000075995922, 1.008000047877431, 0.0, 0.0, 0.0, 0.0, 0.0, 1.7632264639404995E9, 0.0, 2025-11-15 12:07:43.940
47.0, -836.8568436349742, 163.61688316147774, 77.14291638601571, 129.61184281436726, -0.04800000227987766, 0.1600000075995922, 1.008000047877431, 0.0, 0.0, 0.0, 0.0, 0.0, 1.7632264639563336E9, 0.0, 2025-11-15 12:07:43.956
47.0, -1008.047024206724, 41.06036161351949, -0.321631396189332, 37.797298902180046, -0.04800000227987766, 0.1600000075995922, 1.008000047877431, 0.0, 0.0, 0.0, 0.0, 0.0, 1.7632264639563336E9, 0.0, 2025-11-15 12:07:43.956
48.0, -1172.5502636577003, -116.1276335241273, -160.21731410175562, -97.92367048980668, -0.04800000227987766, 0.1600000075995922, 1.008000047877431, 0.0, 0.0, 0.0, 0.0, 0.0, 1.7632264639569683E9, 0.0, 2025-11-15 12:07:43.956
48.0, -1062.705662059132, -20.030904162675142, -98.75579822994769, -70.06515571987256, -0.04800000227987766, 0.1600000075995922, 1.008000047877431, 0.0, 0.0, 0.0, 0.0, 0.0, 1.7632264639569683E9, 0.0, 2025-11-15 12:07:43.956
49.0, -927.2614452638663, 95.48712566867471, 17.562570191919804, 22.456229283940047, -0.04800000227987766, 0.1600000075995922, 1.008000047877431, 0.0, 0.0, 0.0, 0.0, 0.0, 1.7632264639705048E9, 0.0, 2025-11-15 12:07:43.970
49.0, -706.7288946267217, -125.43624451383948, -152.1054710978642, -68.311142640654, -0.04800000227987766, 0.1600000075995922, 1.008000047877431, 0.0, 0.0, 0.0, 0.0, 0.0, 1.7632264639705048E9, 0.0, 2025-11-15 12:07:43.970
50.0, -678.455250961706, -111.01145038474351, -173.55379734374583, -118.98678704025224, -0.04800000227987766, 0.1600000075995922, 1.0240000486373901, 0.0, 0.0, 0.0, 0.0, 0.0, 1.7632264639862404E9, 0.0, 2025-11-15 12:07:43.986
50.0, -892.4728958760388, 105.96258544456214, 4.41308194771409, 10.342693327460438, -0.04800000227987766, 0.1600000075995922, 1.0240000486373901, 0.0, 0.0, 0.0, 0.0, 0.0, 1.7632264639862404E9, 0.0, 2025-11-15 12:07:43.986
51.0, -688.8933117380366, -107.46228532679379, -138.67923025693744, -77.90024612704292, -0.04800000227987766, 0.1600000075995922, 1.0240000486373901, 0.0, 0.0, 0.0, 0.0, 0.0, 1.7632264639869528E9, 0.0, 2025-11-15 12:07:43.986
51.0, -794.9344350816682, -208.1403921339661, -242.49137322697788, -156.5391224953346, -0.04800000227987766, 0.1600000075995922, 1.0240000486373901, 0.0, 0.0, 0.0, 0.0, 0.0, 1.7632264639869528E9, 0.0, 2025-11-15 12:07:43.986
52.0, -1029.05778215779, -26.332635588012636, -125.42502481397241, -108.00644077034667, -0.04800000227987766, 0.1600000075995922, 1.0240000486373901, 0.0, 0.0, 0.0, 0.0, 0.0, 1.7632264640006173E9, 0.0, 2025-11-15 12:07:44.000
52.0, -1126.9608831978403, -80.87533654179424, -125.4325046138838, -90.26435538055375, -0.04800000227987766, 0.1600000075995922, 1.0240000486373901, 0.0, 0.0, 0.0, 0.0, 0.0, 1.7632264640006173E9, 0.0, 2025-11-15 12:07:44.000
53.0, -1301.2925797323696, -242.18096153065562, -277.0891877170652, -196.32791812391952, -0.04800000227987766, 0.1600000075995922, 1.0240000486373901, 0.0, 0.0, 0.0, 0.0, 0.0, 1.7632264640162446E9, 0.0, 2025-11-15 12:07:44.016
53.0, -1210.1025991127826, -173.87542873993516, -249.95247363857925, -199.31983808847144, -0.04800000227987766, 0.1600000075995922, 1.0240000486373901, 0.0, 0.0, 0.0, 0.0, 0.0, 1.7632264640162446E9, 0.0, 2025-11-15 12:07:44.016
54.0, -1039.0246155397035, -12.341669853776693, -79.90296255331486, -45.28457861347124, -0.04800000227987766, 0.1600000075995922, 1.0240000486373901, 0.0, 0.0, 0.0, 0.0, 0.0, 1.7632264640169556E9, 0.0, 2025-11-15 12:07:44.016
54.0, -830.8860933557153, 220.48019203776494, -296.24121539015323, -207.86924938717857, -0.04800000227987766, 0.1600000075995922, 1.0240000486373901, 0.0, 0.0, 0.0, 0.0, 0.0, 1.7632264640169556E9, 0.0, 2025-11-15 12:07:44.016
55.0, -823.3053161455318, 231.4268792080693, -313.6205304842442, -243.40577876614407, -0.04800000227987766, 0.1600000075995922, 1.0240000486373901, 0.0, 0.0, 0.0, 0.0, 0.0, 1.7632264640469177E9, 0.0, 2025-11-15 12:07:44.046
55.0, -1061.6098713721149, 442.4881332074292, -137.26928797364235, -99.82353966729715, -0.04800000227987766, 0.1600000075995922, 1.0240000486373901, 0.0, 0.0, 0.0, 0.0, 0.0, 1.7632264640469177E9, 0.0, 2025-11-15 12:07:44.046
56.0, -1274.9562042444013, 276.4066559751518, -240.58028434962034, -168.33476695558056, -0.04800000227987766, 0.1600000075995922, 1.0240000486373901, 0.0, 0.0, 0.0, 0.0, 0.0, 1.7632264640476248E9, 0.0, 2025-11-15 12:07:44.047
56.0, -1288.4460233845748, 242.8784528723918, -296.27113458979875, -217.80990346940234, -0.04800000227987766, 0.1600000075995922, 1.0240000486373901, 0.0, 0.0, 0.0, 0.0, 0.0, 1.7632264640476248E9, 0.0, 2025-11-15 12:07:44.047
57.0, -1090.2911641323008, 398.08430103352293, -189.04072306025773, -143.81972274603322, -0.04800000227987766, 0.1600000075995922, 1.0240000486373901, 0.0, 0.0, 0.0, 0.0, 0.0, 1.7632264640483544E9, 0.0, 2025-11-15 12:07:44.048
57.0, -1208.288747634273, 340.9984681098722, -187.21565188188106, -123.1492956909351, -0.04800000227987766, 0.1600000075995922, 1.0240000486373901, 0.0, 0.0, 0.0, 0.0, 0.0, 1.7632264640483544E9, 0.0, 2025-11-15 12:07:44.048
58.0, -1290.675003758166, 253.08463985146955, -270.77623659186065, -152.1671794471331, -0.04800000227987766, 0.1600000075995922, 1.0240000486373901, 0.0, 0.0, 0.0, 0.0, 0.0, 1.7632264640605772E9, 0.0, 2025-11-15 12:07:44.060
58.0, -1179.9926645695232, 305.25998413329944, -266.33697534445673, -203.18315474269912, -0.04800000227987766, 0.1600000075995922, 1.0240000486373901, 0.0, 0.0, 0.0, 0.0, 0.0, 1.7632264640605772E9, 0.0, 2025-11-15 12:07:44.060
59.0, -1142.1411371179856, 394.0639085811563, -156.0735049508512, -119.02792593976483, -0.04800000227987766, 0.1600000075995922, 1.0240000486373901, 0.0, 0.0, 0.0, 0.0, 0.0, 1.7632264640762112E9, 0.0, 2025-11-15 12:07:44.076
59.0, -1351.676511935424, 220.02392424317077, -290.9567367527634, -193.35843755910173, -0.04800000227987766, 0.1600000075995922, 1.0240000486373901, 0.0, 0.0, 0.0, 0.0, 0.0, 1.7632264640762112E9, 0.0, 2025-11-15 12:07:44.076
60.0, -1256.4324797638692, 251.41664447123185, -295.42591719981283, -195.3667638353072, -0.04800000227987766, 0.1600000075995922, 1.0240000486373901, 0.0, 0.0, 0.0, 0.0, 0.0, 1.7632264640769317E9, 0.0, 2025-11-15 12:07:44.076
60.0, -1022.1090480401181, 469.0638622925617, -110.20363199431449, -56.22378598386422, -0.04800000227987766, 0.1600000075995922, 1.0240000486373901, 0.0, 0.0, 0.0, 0.0, 0.0, 1.7632264640769317E9, 0.0, 2025-11-15 12:07:44.076
61.0, -782.7722804257646, 263.57131932722405, -266.00038434844464, -189.001454110723, -0.04800000227987766, 0.17600000835955143, 1.0240000486373901, 0.0, 0.0, 0.0, 0.0, 0.0, 1.7632264640905564E9, 0.0, 2025-11-15 12:07:44.090
61.0, -822.2880633575842, 235.19669836340472, -292.0188683401793, -195.21342793712392, -0.04800000227987766, 0.17600000835955143, 1.0240000486373901, 0.0, 0.0, 0.0, 0.0, 0.0, 1.7632264640905564E9, 0.0, 2025-11-15 12:07:44.090
62.0, -590.2721499064937, 416.0208612210117, -168.45631370414048, -115.23940728465095, -0.04800000227987766, 0.17600000835955143, 1.0240000486373901, 0.0, 0.0, 0.0, 0.0, 0.0, 1.7632264641219363E9, 0.0, 2025-11-15 12:07:44.121
62.0, -637.8137581432238, 390.48108442360535, -154.53266616910696, -81.22501718765125, -0.04800000227987766, 0.17600000835955143, 1.0240000486373901, 0.0, 0.0, 0.0, 0.0, 0.0, 1.7632264641219363E9, 0.0, 2025-11-15 12:07:44.121
63.0, -796.505193063058, 264.63719081459567, -265.69371255207807, -177.18711015069857, -0.04800000227987766, 0.17600000835955143, 1.0240000486373901, 0.0, 0.0, 0.0, 0.0, 0.0, 1.76322646412267E9, 0.0, 2025-11-15 12:07:44.122
63.0, -736.2890638764948, 312.7697032443248, -251.3399765221402, -185.68790274998173, -0.04800000227987766, 0.17600000835955143, 1.0240000486373901, 0.0, 0.0, 0.0, 0.0, 0.0, 1.76322646412267E9, 0.0, 2025-11-15 12:07:44.122
64.0, -556.8598837023601, 452.3502493905835, -112.95993826165795, -48.48967287549749, -0.04800000227987766, 0.17600000835955143, 1.0240000486373901, 0.0, 0.0, 0.0, 0.0, 0.0, 1.763226464123412E9, 0.0, 2025-11-15 12:07:44.123
64.0, -318.18133848020807, 256.15509771509096, -270.0955747999251, -181.56279309885576, -0.04800000227987766, 0.17600000835955143, 1.0240000486373901, 0.0, 0.0, 0.0, 0.0, 0.0, 1.763226464123412E9, 0.0, 2025-11-15 12:07:44.123
65.0, -300.03534389520064, 245.48142324155197, -308.63898374326527, -238.48781032441184, -0.04800000227987766, 0.17600000835955143, 1.0240000486373901, 0.0, 0.0, 0.0, 0.0, 0.0, 1.7632264641362784E9, 0.0, 2025-11-15 12:07:44.136
65.0, -105.75876089697704, 437.4093490676023, -144.82762578409165, -94.79711412684992, -0.04800000227987766, 0.17600000835955143, 1.0240000486373901, 0.0, 0.0, 0.0, 0.0, 0.0, 1.7632264641362784E9, 0.0, 2025-11-15 12:07:44.136
66.0, -288.87548242742196, 286.27999185817316, -233.9307422284037, -144.08151574293151, -0.04800000227987766, 0.17600000835955143, 1.0240000486373901, 0.0, 0.0, 0.0, 0.0, 0.0, 1.7632264641369705E9, 0.0, 2025-11-15 12:07:44.136
66.0, -246.78664832608774, 257.01901460485533, -301.64911072608083, -232.58624819433317, -0.04800000227987766, 0.17600000835955143, 1.0240000486373901, 0.0, 0.0, 0.0, 0.0, 0.0, 1.7632264641369705E9, 0.0, 2025-11-15 12:07:44.136
67.0, -110.34761814260855, 425.9989143027924, -153.97168117575347, -101.14372435165569, -0.04800000227987766, 0.17600000835955143, 1.0240000486373901, 0.0, 0.0, 0.0, 0.0, 0.0, 1.7632264641505315E9, 0.0, 2025-11-15 12:07:44.150
67.0, -175.15634447475895, 394.96522447047755, -141.87684471905231, -60.737845230381936, -0.04800000227987766, 0.17600000835955143, 1.0240000486373901, 0.0, 0.0, 0.0, 0.0, 0.0, 1.7632264641505315E9, 0.0, 2025-11-15 12:07:44.150
68.0, -352.0087335794233, 223.1280412063934, -317.603523937054, -249.71125009143725, -0.04800000227987766, 0.17600000835955143, 1.0240000486373901, 0.0, 0.0, 0.0, 0.0, 0.0, 1.7632264641662917E9, 0.0, 2025-11-15 12:07:44.166
68.0, -126.50772585114464, 380.7984834383242, -196.26994967460632, -125.39323566434905, -0.04800000227987766, 0.17600000835955143, 1.0240000486373901, 0.0, 0.0, 0.0, 0.0, 0.0, 1.7632264641662917E9, 0.0, 2025-11-15 12:07:44.166
69.0, -61.631681319791824, 492.46067641535774, -56.999815224669874, 14.998868772294372, -0.04800000227987766, 0.17600000835955143, 1.0240000486373901, 0.0, 0.0, 0.0, 0.0, 0.0, 1.7632264641669796E9, 0.0, 2025-11-15 12:07:44.166
69.0, -290.73795260535553, 272.35260442318395, -264.2314116694033, -187.15020363265648, -0.04800000227987766, 0.17600000835955143, 1.0240000486373901, 0.0, 0.0, 0.0, 0.0, 0.0, 1.7632264641669796E9, 0.0, 2025-11-15 12:07:44.166
70.0, -258.2120426907204, 304.02955704787746, -247.3420234695077, -174.86089237825945, -0.04800000227987766, 0.17600000835955143, 1.0240000486373901, 0.0, 0.0, 0.0, 0.0, 0.0, 1.7632264641969328E9, 0.0, 2025-11-15 12:07:44.196
70.0, -502.6762131443247, 501.23074181145057, -87.73057316057384, -54.709126501809806, -0.04800000227987766, 0.17600000835955143, 1.0240000486373901, 0.0, 0.0, 0.0, 0.0, 0.0, 1.7632264641969328E9, 0.0, 2025-11-15 12:07:44.196
71.0, -708.1051778104156, 358.42640190338716, -170.07195048499852, -95.94152351329103, -0.04800000227987766, 0.17600000835955143, 1.0240000486373901, 0.0, 0.0, 0.0, 0.0, 0.0, 1.7632264641976316E9, 0.0, 2025-11-15 12:07:44.197
71.0, -766.1185059230775, 272.04967252677307, -271.3596609849483, -188.12257762113586, -0.04800000227987766, 0.17600000835955143, 1.0240000486373901, 0.0, 0.0, 0.0, 0.0, 0.0, 1.7632264641976316E9, 0.0, 2025-11-15 12:07:44.197
72.0, -577.8482022536919, 448.3448165380396, -128.3197073796764, -68.56545583764091, -0.03200000151991844, 0.17600000835955143, 1.0240000486373901, 0.0, 0.0, 0.0, 0.0, 0.0, 1.7632264641983688E9, 0.0, 2025-11-15 12:07:44.198
72.0, -612.038367648609, 427.7678869818337, -114.77752964012325, -59.084809449967, -0.03200000151991844, 0.17600000835955143, 1.0240000486373901, 0.0, 0.0, 0.0, 0.0, 0.0, 1.7632264641983688E9, 0.0, 2025-11-15 12:07:44.198
73.0, -784.4215763062239, 277.99611345632, -249.73555944114923, -171.8427931140177, -0.03200000151991844, 0.17600000835955143, 1.0240000486373901, 0.0, 0.0, 0.0, 0.0, 0.0, 1.7632264642106152E9, 0.0, 2025-11-15 12:07:44.210
73.0, -612.2964207455516, 393.74975698487833, -178.24363188818097, -112.00065392302349, -0.03200000151991844, 0.17600000835955143, 1.0240000486373901, 0.0, 0.0, 0.0, 0.0, 0.0, 1.7632264642106152E9, 0.0, 2025-11-15 12:07:44.210
74.0, -516.1548125846311, 515.0795913473703, -33.90219309832901, 23.17055017547682, -0.03200000151991844, 0.17600000835955143, 1.0240000486373901, 0.0, 0.0, 0.0, 0.0, 0.0, 1.763226464226242E9, 0.0, 2025-11-15 12:07:44.226
74.0, -290.3714424096979, 296.25804493995383, -235.20230821333826, -161.99189663073048, -0.03200000151991844, 0.17600000835955143, 1.0240000486373901, 0.0, 0.0, 0.0, 0.0, 0.0, 1.763226464226242E9, 0.0, 2025-11-15 12:07:44.226
75.0, -221.7517580226995, 344.5139740682207, -204.92033827211708, -127.03505174489692, -0.03200000151991844, 0.17600000835955143, 1.0240000486373901, 0.0, 0.0, 0.0, 0.0, 0.0, 1.7632264642269435E9, 0.0, 2025-11-15 12:07:44.226
75.0, -465.550226284191, 535.3535890071653, -53.83211996220052, -23.97462866595015, -0.03200000151991844, 0.17600000835955143, 1.0240000486373901, 0.0, 0.0, 0.0, 0.0, 0.0, 1.7632264642269435E9, 0.0, 2025-11-15 12:07:44.226
76.0, -234.63197347009555, 338.89664433477446, -183.00078463181853, -100.81835305551067, -0.03200000151991844, 0.17600000835955143, 1.0240000486373901, 0.0, 0.0, 0.0, 0.0, 0.0, 1.7632264642406394E9, 0.0, 2025-11-15 12:07:44.240
76.0, -270.61729084374383, 297.61936852382496, -245.7862250879407, -166.74904937436804, -0.03200000151991844, 0.17600000835955143, 1.0240000486373901, 0.0, 0.0, 0.0, 0.0, 0.0, 1.7632264642406394E9, 0.0, 2025-11-15 12:07:44.240
77.0, -467.04992616642267, 524.6612150338478, -69.79027307312936, -20.31700650928542, -0.03200000151991844, 0.17600000835955143, 1.0240000486373901, 0.0, 0.0, 0.0, 0.0, 0.0, 1.7632264642562225E9, 0.0, 2025-11-15 12:07:44.256
77.0, -646.1649547442794, 414.4837623392232, -123.4316581375897, -58.57244315603748, -0.03200000151991844, 0.17600000835955143, 1.0240000486373901, 0.0, 0.0, 0.0, 0.0, 0.0, 1.7632264642562225E9, 0.0, 2025-11-15 12:07:44.256
78.0, -751.1177672008052, 308.1621464989148, -226.7052555140108, -144.83697553398088, -0.03200000151991844, 0.17600000835955143, 1.0240000486373901, 0.0, 0.0, 0.0, 0.0, 0.0, 1.763226464256944E9, 0.0, 2025-11-15 12:07:44.256
78.0, -617.2592679867521, 416.56688661454245, -150.00738722272217, -71.98372439714149, -0.03200000151991844, 0.17600000835955143, 1.0240000486373901, 0.0, 0.0, 0.0, 0.0, 0.0, 1.763226464256944E9, 0.0, 2025-11-15 12:07:44.256
79.0, -504.37412772420794, 516.0295259361155, -47.01428234297782, 8.181031153071672, -0.03200000151991844, 0.17600000835955143, 1.0240000486373901, 0.0, 0.0, 0.0, 0.0, 0.0, 1.7632264642706065E9, 0.0, 2025-11-15 12:07:44.270
79.0, -731.2289792364463, 330.0330814397894, -197.84070765599608, -135.68918024236336, -0.03200000151991844, 0.17600000835955143, 1.0240000486373901, 0.0, 0.0, 0.0, 0.0, 0.0, 1.7632264642706065E9, 0.0, 2025-11-15 12:07:44.270
80.0, -701.9006837839261, 364.8552899272181, -192.89655991457403, -130.28876470634714, -0.03200000151991844, 0.17600000835955143, 1.0240000486373901, 0.0, 0.0, 0.0, 0.0, 0.0, 1.7632264642862294E9, 0.0, 2025-11-15 12:07:44.286
80.0, -484.36566296126693, 539.433819858823, -47.20127734076232, -15.208303169813007, -0.03200000151991844, 0.17600000835955143, 1.0240000486373901, 0.0, 0.0, 0.0, 0.0, 0.0, 1.7632264642862294E9, 0.0, 2025-11-15 12:07:44.286
81.0, -644.4034618651494, 395.45515136467293, -139.45338954776525, -54.82880330039188, -0.03200000151991844, 0.17600000835955143, 1.0240000486373901, 0.0, 0.0, 0.0, 0.0, 0.0, 1.7632264642869408E9, 0.0, 2025-11-15 12:07:44.286
81.0, -739.602615237236, 328.59695985680446, -214.9170908536762, -156.10529410047457, -0.03200000151991844, 0.17600000835955143, 1.0240000486373901, 0.0, 0.0, 0.0, 0.0, 0.0, 1.7632264642869408E9, 0.0, 2025-11-15 12:07:44.286
82.0, -559.1823615748435, 478.81752137700096, -107.17805293016136, -64.89661398110911, -0.03200000151991844, 0.17600000835955143, 1.0240000486373901, 0.0, 0.0, 0.0, 0.0, 0.0, 1.7632264643006327E9, 0.0, 2025-11-15 12:07:44.300
82.0, -567.2081868797541, 472.96083804639056, -79.42799525894225, -16.221816057804972, -0.03200000151991844, 0.17600000835955143, 1.0240000486373901, 0.0, 0.0, 0.0, 0.0, 0.0, 1.7632264643006327E9, 0.0, 2025-11-15 12:07:44.300
83.0, -758.2347968164831, 326.4278178825043, -216.18865683861077, -135.64804134285077, -0.03200000151991844, 0.17600000835955143, 1.0240000486373901, 0.0, 0.0, 0.0, 0.0, 0.0, 1.763226464316238E9, 0.0, 2025-11-15 12:07:44.316
83.0, -578.8168363422155, 444.09629018837586, -134.08663311135024, -72.496090691071, -0.03200000151991844, 0.17600000835955143, 1.0240000486373901, 0.0, 0.0, 0.0, 0.0, 0.0, 1.763226464316238E9, 0.0, 2025-11-15 12:07:44.316
84.0, -491.4976521767676, 528.6666478863917, -40.31238162238151, 8.68591764708981, -0.03200000151991844, 0.17600000835955143, 1.0240000486373901, 0.0, 0.0, 0.0, 0.0, 0.0, 1.7632264643169472E9, 0.0, 2025-11-15 12:07:44.316
84.0, -727.5414378801361, 342.1353976964019, -192.8292417153716, -118.32856464805081, -0.03200000151991844, 0.17600000835955143, 1.0240000486373901, 0.0, 0.0, 0.0, 0.0, 0.0, 1.7632264643169472E9, 0.0, 2025-11-15 12:07:44.316
85.0, -669.3485945696011, 376.157267593313, -187.03239678405225, -121.50373971043155, -0.03200000151991844, 0.17600000835955143, 1.0240000486373901, 0.0, 0.0, 0.0, 0.0, 0.0, 1.763226464330578E9, 0.0, 2025-11-15 12:07:44.330
85.0, -456.67544368933886, 560.1753050130792, -23.138761025853455, 11.85735280951485, -0.03200000151991844, 0.17600000835955143, 1.0240000486373901, 0.0, 0.0, 0.0, 0.0, 0.0, 1.763226464330578E9, 0.0, 2025-11-15 12:07:44.330
86.0, -219.28716395189986, 379.4296800545417, -148.46654844097793, -85.16313184099272, -0.03200000151991844, 0.17600000835955143, 1.0240000486373901, 0.0, 0.0, 0.0, 0.0, 0.0, 1.7632264643462832E9, 0.0, 2025-11-15 12:07:44.346
86.0, -221.38898772699758, 346.3689644462429, -202.22761030402035, -117.87229685345665, -0.03200000151991844, 0.17600000835955143, 1.0240000486373901, 0.0, 0.0, 0.0, 0.0, 0.0, 1.7632264643462832E9, 0.0, 2025-11-15 12:07:44.346
87.0, -21.52499419497326, 524.6425155340694, -57.370065320283175, -4.62812619516626, -0.03200000151991844, 0.17600000835955143, 1.0240000486373901, 0.0, 0.0, 0.0, 0.0, 0.0, 1.763226464346959E9, 0.0, 2025-11-15 12:07:44.346
87.0, -121.04373201588169, 456.29584384383634, -81.17078863829374, -22.220615586731583, -0.03200000151991844, 0.17600000835955143, 1.0240000486373901, 0.0, 0.0, 0.0, 0.0, 0.0, 1.763226464346959E9, 0.0, 2025-11-15 12:07:44.346
88.0, -226.3144359686412, 345.4713884568773, -205.7692955620587, -148.71151188807562, -0.03200000151991844, 0.17600000835955143, 1.0240000486373901, 0.0, 0.0, 0.0, 0.0, 0.0, 1.763226464360561E9, 0.0, 2025-11-15 12:07:44.360
88.0, -111.58552502794191, 438.968887349125, -135.75088859163225, -79.07083481317386, -0.03200000151991844, 0.17600000835955143, 1.0240000486373901, 0.0, 0.0, 0.0, 0.0, 0.0, 1.763226464360561E9, 0.0, 2025-11-15 12:07:44.360
89.0, 9.901385132689029, 559.2478098240681, -6.548564822413027, 55.81987678864971, -0.03200000151991844, 0.17600000835955143, 1.0240000486373901, 0.0, 0.0, 0.0, 0.0, 0.0, 1.7632264643762307E9, 0.0, 2025-11-15 12:07:44.376
89.0, 224.63335093855858, 337.0678332564421, -194.03348950110376, -103.91499021882191, -0.03200000151991844, 0.17600000835955143, 1.0240000486373901, 0.0, 0.0, 0.0, 0.0, 0.0, 1.7632264643762307E9, 0.0, 2025-11-15 12:07:44.376
90.0, 303.0291338097304, 358.13468970684335, -212.19444368593395, -137.94807981560007, -0.03200000151991844, 0.17600000835955143, 1.0400000493973494, 0.0, 0.0, 0.0, 0.0, 0.0, 1.7632264643769643E9, 0.0, 2025-11-15 12:07:44.376
90.0, 58.800577053334564, 595.8988293898292, 21.71011924277991, 78.07976132491603, -0.03200000151991844, 0.17600000835955143, 1.0400000493973494, 0.0, 0.0, 0.0, 0.0, 0.0, 1.7632264643769643E9, 0.0, 2025-11-15 12:07:44.376
91.0, 277.1228468166664, 375.24847190408036, -147.20994205586612, -71.52745660254732, -0.03200000151991844, 0.17600000835955143, 1.0400000493973494, 0.0, 0.0, 0.0, 0.0, 0.0, 1.7632264643905954E9, 0.0, 2025-11-15 12:07:44.390
91.0, 230.28433977160603, 317.3249013903551, -237.24803348910064, -180.02195431711152, -0.03200000151991844, 0.17600000835955143, 1.0400000493973494, 0.0, 0.0, 0.0, 0.0, 0.0, 1.7632264643905954E9, 0.0, 2025-11-15 12:07:44.390
92.0, -7.44427086180076, 524.0366517412476, -68.7019621860236, -21.693289692979306, -0.03200000151991844, 0.17600000835955143, 1.0400000493973494, 0.0, 0.0, 0.0, 0.0, 0.0, 1.763226464406216E9, 0.0, 2025-11-15 12:07:44.406
92.0, -95.83306641457602, 467.18643251480535, -81.60087713319808, -6.3372604749165475, -0.03200000151991844, 0.17600000835955143, 1.0400000493973494, 0.0, 0.0, 0.0, 0.0, 0.0, 1.763226464406216E9, 0.0, 2025-11-15 12:07:44.406
93.0, -245.058814546559, 330.97179632866755, -218.5148746110499, -137.92564041586593, -0.03200000151991844, 0.17600000835955143, 1.0400000493973494, 0.0, 0.0, 0.0, 0.0, 0.0, 1.7632264644069464E9, 0.0, 2025-11-15 12:07:44.406
93.0, -101.49527494749054, 440.850057026837, -140.61275853402913, -79.99085020227358, -0.03200000151991844, 0.17600000835955143, 1.0400000493973494, 0.0, 0.0, 0.0, 0.0, 0.0, 1.7632264644069464E9, 0.0, 2025-11-15 12:07:44.406
94.0, -1.0602616374380887, 543.9329195055179, -27.084355479106307, 18.854705626610667, -0.03200000151991844, 0.17600000835955143, 1.0400000493973494, 0.0, 0.0, 0.0, 0.0, 0.0, 1.7632264644369535E9, 0.0, 2025-11-15 12:07:44.436
94.0, -239.56490151165053, 340.9535893104039, -196.28490927442908, -111.813658925239, -0.03200000151991844, 0.17600000835955143, 1.0400000493973494, 0.0, 0.0, 0.0, 0.0, 0.0, 1.7632264644369535E9, 0.0, 2025-11-15 12:07:44.436
95.0, -197.60696390876547, 371.1495415526442, -196.34100777376443, -121.95252770511433, -0.03200000151991844, 0.17600000835955143, 1.0400000493973494, 0.0, 0.0, 0.0, 0.0, 0.0, 1.7632264644376528E9, 0.0, 2025-11-15 12:07:44.437
95.0, 22.074759488459677, 558.9224385279231, -34.870827186852694, 9.269342040177435, -0.03200000151991844, 0.17600000835955143, 1.0400000493973494, 0.0, 0.0, 0.0, 0.0, 0.0, 1.7632264644376528E9, 0.0, 2025-11-15 12:07:44.437
96.0, -202.4837934509851, 380.22253884514794, -153.16760268528014, -74.29872246971354, -0.03200000151991844, 0.17600000835955143, 1.0400000493973494, 0.0, 0.0, 0.0, 0.0, 0.0, 1.763226464438406E9, 0.0, 2025-11-15 12:07:44.438
96.0, -218.81967645743862, 350.7783064940013, -201.96955720707774, -123.67288168473169, -0.03200000151991844, 0.17600000835955143, 1.0400000493973494, 0.0, 0.0, 0.0, 0.0, 0.0, 1.763226464438406E9, 0.0, 2025-11-15 12:07:44.438
97.0, -8.143632153514773, 511.42944899061695, -84.2262869020924, -35.30652553169057, -0.03200000151991844, 0.17600000835955143, 1.0400000493973494, 0.0, 0.0, 0.0, 0.0, 0.0, 1.7632264644505851E9, 0.0, 2025-11-15 12:07:44.450
97.0, -113.31709870742634, 459.59069570479915, -86.39168897643685, -4.381292798090726, -0.03200000151991844, 0.17600000835955143, 1.0400000493973494, 0.0, 0.0, 0.0, 0.0, 0.0, 1.7632264644505851E9, 0.0, 2025-11-15 12:07:44.450
98.0, -262.546586739365, 313.4690645360388, -235.97646750416607, -153.81273542763665, -0.03200000151991844, 0.17600000835955143, 1.0400000493973494, 0.0, 0.0, 0.0, 0.0, 0.0, 1.7632264644662633E9, 0.0, 2025-11-15 12:07:44.466
98.0, -103.83645231975242, 446.17567456373945, -141.181223327294, -93.6938436399214, -0.03200000151991844, 0.17600000835955143, 1.0400000493973494, 0.0, 0.0, 0.0, 0.0, 0.0, 1.7632264644662633E9, 0.0, 2025-11-15 12:07:44.466
99.0, 6.9019853682257235, 541.9919114285149, -36.57996146660298, 31.319792178925127, -0.03200000151991844, 0.17600000835955143, 1.0400000493973494, 0.0, 0.0, 0.0, 0.0, 0.0, 1.7632264644669716E9, 0.0, 2025-11-15 12:07:44.466
99.0, -229.69530552858487, 344.9291029633023, -198.5026699481532, -118.0031933519058, -0.03200000151991844, 0.17600000835955143, 1.0400000493973494, 0.0, 0.0, 0.0, 0.0, 0.0, 1.7632264644669716E9, 0.0, 2025-11-15 12:07:44.466
100.0, -208.32925708172843, 353.19802176533267, -218.03616741672158, -137.54417062038556, -0.03200000151991844, 0.17600000835955143, 1.0400000493973494, 0.0, 0.0, 0.0, 0.0, 0.0, 1.7632264644812906E9, 0.0, 2025-11-15 12:07:44.481
100.0, -437.07462802156806, 582.7231618459336, -13.422500940971076, 31.353451278526336, -0.03200000151991844, 0.17600000835955143, 1.0400000493973494, 0.0, 0.0, 0.0, 0.0, 0.0, 1.7632264644812906E9, 0.0, 2025-11-15 12:07:44.481
0.0, -234.93303541652858, -133.3199536204338, -179.26649452606216, -103.5653095729649, -0.03200000151991844, 0.17600000835955143, 1.0400000493973494, 0.0, 0.0, 0.0, 0.0, 0.0, 1.7632264644819863E9, 0.0, 2025-11-15 12:07:44.481
1.0, -221.52923397533596, -135.74340879172087, -204.5220389268361, -106.76666393503547, -0.03200000151991844, 0.17600000835955143, 1.0400000493973494, 0.0, 0.0, 0.0, 0.0, 0.0, 1.7632264645119634E9, 0.0, 2025-11-15 12:07:44.511
1.0, 12.184594055637717, 38.053482049144804, -71.00387060875073, -14.211619831621647, -0.03200000151991844, 0.17600000835955143, 1.0400000493973494, 0.0, 0.0, 0.0, 0.0, 0.0, 1.7632264645119634E9, 0.0, 2025-11-15 12:07:44.511
2.0, -90.29240463022143, -24.18967291340232, -97.69927649246529, -44.5384685723111, -0.03200000151991844, 0.17600000835955143, 1.0400000493973494, 0.0, 0.0, 0.0, 0.0, 0.0, 1.7632264645126264E9, 0.0, 2025-11-15 12:07:44.512
2.0, -257.06950325425714, -168.1945207072422, -223.7189453993924, -132.19424373377115, -0.03200000151991844, 0.17600000835955143, 1.0400000493973494, 0.0, 0.0, 0.0, 0.0, 0.0, 1.7632264645126264E9, 0.0, 2025-11-15 12:07:44.512
3.0, -88.0035858573392, -45.75393605791032, -148.74517098767683, -76.54827229306102, -0.03200000151991844, 0.17600000835955143, 1.0400000493973494, 0.0, 0.0, 0.0, 0.0, 0.0, 1.7632264645133643E9, 0.0, 2025-11-15 12:07:44.513
3.0, -19.626994967460632, 37.43265865650028, -48.85244317119941, 10.243585978634655, -0.03200000151991844, 0.17600000835955143, 1.0400000493973494, 0.0, 0.0, 0.0, 0.0, 0.0, 1.7632264645133643E9, 0.0, 2025-11-15 12:07:44.513
4.0, -253.95790649112314, -157.16929563786834, -215.36400889838114, -131.45000364258885, -0.03200000151991844, 0.17600000835955143, 1.0400000493973494, 0.0, 0.0, 0.0, 0.0, 0.0, 1.7632264645255756E9, 0.0, 2025-11-15 12:07:44.525
4.0, -201.8386607086286, -131.52106174174696, -210.3076641582884, -126.95838379580528, -0.03200000151991844, 0.17600000835955143, 1.0400000493973494, 0.0, 0.0, 0.0, 0.0, 0.0, 1.7632264645255756E9, 0.0, 2025-11-15 12:07:44.525
5.0, -404.7637623543851, 103.84580206964165, -8.330627151299268, 61.820546267554164, -0.03200000151991844, 0.17600000835955143, 1.0400000493973494, 0.0, 0.0, 0.0, 0.0, 0.0, 1.763226464541242E9, 0.0, 2025-11-15 12:07:44.541
5.0, -232.53201964497566, -123.01278934255242, -164.36673310259357, -73.75456702616066, -0.03200000151991844, 0.17600000835955143, 1.0400000493973494, 0.0, 0.0, 0.0, 0.0, 0.0, 1.763226464541242E9, 0.0, 2025-11-15 12:07:44.541
6.0, -206.81272764969617, -129.58753346465528, -190.86392428865656, -93.90888788737357, -0.03200000151991844, 0.17600000835955143, 1.0400000493973494, 0.0, 0.0, 0.0, 0.0, 0.0, 1.763226464541942E9, 0.0, 2025-11-15 12:07:44.541
6.0, 14.148041532374918, 26.96467868052423, -85.45858393749222, -6.410188524052501, -0.03200000151991844, 0.17600000835955143, 1.0400000493973494, 0.0, 0.0, 0.0, 0.0, 0.0, 1.763226464541942E9, 0.0, 2025-11-15 12:07:44.541
7.0, -123.86548653244972, -34.61277408991009, -111.4022699301131, -59.20261629857123, -0.03200000151991844, 0.17600000835955143, 1.0400000493973494, 0.0, 0.0, 0.0, 0.0, 0.0, 1.7632264645555923E9, 0.0, 2025-11-15 12:07:44.555
7.0, -237.24803348910064, -130.21957655716687, -190.46749489335343, -88.56457085069269, -0.03200000151991844, 0.17600000835955143, 1.0400000493973494, 0.0, 0.0, 0.0, 0.0, 0.0, 1.7632264645555923E9, 0.0, 2025-11-15 12:07:44.555
8.0, -110.8655942864716, -43.670811782591045, -128.228079830762, -43.91390527971089, -0.03200000151991844, 0.17600000835955143, 1.0400000493973494, 0.0, 0.0, 0.0, 0.0, 0.0, 1.763226464571268E9, 0.0, 2025-11-15 12:07:44.571
8.0, 14.92594072315842, 72.02673324663192, -11.561900713015348, 56.6931434283033, -0.03200000151991844, 0.17600000835955143, 1.0400000493973494, 0.0, 0.0, 0.0, 0.0, 0.0, 1.763226464571268E9, 0.0, 2025-11-15 12:07:44.571
9.0, -198.8766599437222, -131.5397612415254, -194.0390993510373, -121.26625606324524, -0.03200000151991844, 0.17600000835955143, 1.0400000493973494, 0.0, 0.0, 0.0, 0.0, 0.0, 1.763226464571954E9, 0.0, 2025-11-15 12:07:44.571
9.0, -162.57345107384026, -79.71596755553037, -157.77702938066795, -72.2174681443721, -0.03200000151991844, 0.17600000835955143, 1.0400000493973494, 0.0, 0.0, 0.0, 0.0, 0.0, 1.763226464571954E9, 0.0, 2025-11-15 12:07:44.571
10.0, -398.1665788325481, 124.06370123010129, 11.999469007831067, 57.16437082272023, -0.03200000151991844, 0.17600000835955143, 1.0400000493973494, 0.0, 0.0, 0.0, 0.0, 0.0, 1.7632264645856469E9, 0.0, 2025-11-15 12:07:44.585
10.0, -627.3925269166939, -49.79302801005542, -104.33011911390349, -18.003878386691213, -0.03200000151991844, 0.17600000835955143, 1.0400000493973494, 0.0, 0.0, 0.0, 0.0, 0.0, 1.7632264645856469E9, 0.0, 2025-11-15 12:07:44.585
11.0, -729.9256241018884, -142.3966908128932, -203.72544023627415, -114.19036534707993, -0.03200000151991844, 0.17600000835955143, 1.0400000493973494, 0.0, 0.0, 0.0, 0.0, 0.0, 1.7632264646012268E9, 0.0, 2025-11-15 12:07:44.601
11.0, -955.0694713843986, 90.59533652663231, -23.032173877116293, 36.33686796948314, -0.03200000151991844, 0.17600000835955143, 1.0400000493973494, 0.0, 0.0, 0.0, 0.0, 0.0, 1.7632264646012268E9, 0.0, 2025-11-15 12:07:44.601
12.0, -1036.2739191222936, 25.543516697362065, -46.82167749525979, 28.737391259521246, -0.03200000151991844, 0.17600000835955143, 1.0400000493973494, 0.0, 0.0, 0.0, 0.0, 0.0, 1.7632264646019375E9, 0.0, 2025-11-15 12:07:44.601
12.0, -1179.6616834234446, -115.9443784262985, -183.83665227191523, -112.04740267246962, -0.03200000151991844, 0.17600000835955143, 1.0400000493973494, 0.0, 0.0, 0.0, 0.0, 0.0, 1.7632264646019375E9, 0.0, 2025-11-15 12:07:44.601
13.0, -1039.6772280819714, -12.109796056523919, -115.24688708456233, -51.19549049343914, -0.03200000151991844, 0.17600000835955143, 1.0400000493973494, 0.0, 0.0, 0.0, 0.0, 0.0, 1.763226464615655E9, 0.0, 2025-11-15 12:07:44.615
13.0, -911.0695484057069, 124.84534032084048, 36.626710216049105, 97.09154274966568, -0.03200000151991844, 0.17600000835955143, 1.0400000493973494, 0.0, 0.0, 0.0, 0.0, 0.0, 1.763226464615655E9, 0.0, 2025-11-15 12:07:44.615
14.0, -690.5220381687395, -117.56375510711223, -175.81456686696038, -87.0424315687269, -0.03200000151991844, 0.17600000835955143, 1.0400000493973494, 0.0, 0.0, 0.0, 0.0, 0.0, 1.763226464631234E9, 0.0, 2025-11-15 12:07:44.631
14.0, -676.441314835567, -90.59533652663231, -166.88368577277288, -96.39218145795166, -0.03200000151991844, 0.17600000835955143, 1.0400000493973494, 0.0, 0.0, 0.0, 0.0, 0.0, 1.763226464631234E9, 0.0, 2025-11-15 12:07:44.631
15.0, -437.0054398723878, 113.05717566050589, 11.386125415097922, 69.83889177255332, -0.03200000151991844, 0.17600000835955143, 1.0400000493973494, 0.0, 0.0, 0.0, 0.0, 0.0, 1.763226464631938E9, 0.0, 2025-11-15 12:07:44.631
15.0, -677.3725499245338, -105.48761815018952, -160.1668254523538, -87.06487096846104, -0.03200000151991844, 0.17600000835955143, 1.0400000493973494, 0.0, 0.0, 0.0, 0.0, 0.0, 1.763226464631938E9, 0.0, 2025-11-15 12:07:44.631
16.0, -625.0550894443877, -86.94145426992327, -155.55552880698815, -46.58793374802917, -0.03200000151991844, 0.17600000835955143, 1.0400000493973494, 0.0, 0.0, 0.0, 0.0, 0.0, 1.7632264646455991E9, 0.0, 2025-11-15 12:07:44.645
16.0, -438.7183140520938, 81.01745274011046, -34.00504034711048, 18.381608282215893, -0.03200000151991844, 0.17600000835955143, 1.0400000493973494, 0.0, 0.0, 0.0, 0.0, 0.0, 1.7632264646455991E9, 0.0, 2025-11-15 12:07:44.645
17.0, -609.0034388345666, -8.07444400433451, -70.08385521965101, -3.014359364286065, -0.03200000151991844, 0.17600000835955143, 1.0400000493973494, 0.0, 0.0, 0.0, 0.0, 0.0, 1.763226464676957E9, 0.0, 2025-11-15 12:07:44.676
17.0, -722.4420842905529, -135.20112329814583, -199.80228518275544, -101.12689480185509, -0.03200000151991844, 0.17600000835955143, 1.0400000493973494, 0.0, 0.0, 0.0, 0.0, 0.0, 1.763226464676957E9, 0.0, 2025-11-15 12:07:44.676
18.0, -534.3961746185087, -3.302331660874188, -113.72100790264085, -71.66022305097431, -0.03200000151991844, 0.17600000835955143, 1.0400000493973494, 0.0, 0.0, 0.0, 0.0, 0.0, 1.763226464677678E9, 0.0, 2025-11-15 12:07:44.677
18.0, -413.6123656495474, 118.84280089195818, 20.548880306538194, 71.17029615677893, -0.03200000151991844, 0.17600000835955143, 1.0400000493973494, 0.0, 0.0, 0.0, 0.0, 0.0, 1.763226464677678E9, 0.0, 2025-11-15 12:07:44.677
19.0, -258.9431931320578, 347.8836239282973, -205.95816050982103, -120.1330663766712, -0.03200000151991844, 0.17600000835955143, 1.0400000493973494, 0.0, 0.0, 0.0, 0.0, 0.0, 1.7632264646784272E9, 0.0, 2025-11-15 12:07:44.678
19.0, -130.85909944958985, 421.7316884533502, -162.1003537294455, -81.42884173523635, -0.03200000151991844, 0.17600000835955143, 1.0400000493973494, 0.0, 0.0, 0.0, 0.0, 0.0, 1.7632264646784272E9, 0.0, 2025-11-15 12:07:44.678
20.0, 109.90817989781499, 648.4556434671395, 48.60934967407957, 93.28432459477335, -0.03200000151991844, 0.17600000835955143, 1.0240000486373901, 0.0, 0.0, 0.0, 0.0, 0.0, 1.7632264646913118E9, 0.0, 2025-11-15 12:07:44.691
20.0, 351.94889518013224, 442.1852013110183, -108.27945346711203, -15.778637913055718, -0.03200000151991844, 0.17600000835955143, 1.0240000486373901, 0.0, 0.0, 0.0, 0.0, 0.0, 1.7632264646913118E9, 0.0, 2025-11-15 12:07:44.691
21.0, 326.6634315797128, 404.49448955757543, -164.434051301796, -87.61837616190314, -0.03200000151991844, 0.17600000835955143, 1.0240000486373901, 0.0, 0.0, 0.0, 0.0, 0.0, 1.7632264646919966E9, 0.0, 2025-11-15 12:07:44.691
21.0, 552.4748510043137, 590.9771210481413, -24.610411658417434, 10.105209680274129, -0.03200000151991844, 0.17600000835955143, 1.0240000486373901, 0.0, 0.0, 0.0, 0.0, 0.0, 1.7632264646919966E9, 0.0, 2025-11-15 12:07:44.691
22.0, 382.7619309150614, 491.31252712896094, -63.194959501270205, -4.704794144257903, -0.04800000227987766, 0.17600000835955143, 1.0240000486373901, 0.0, 0.0, 0.0, 0.0, 0.0, 1.7632264647055376E9, 0.0, 2025-11-15 12:07:44.705
22.0, 257.41918390011415, 349.5478794085793, -208.89024207508191, -119.73289708141237, -0.04800000227987766, 0.17600000835955143, 1.0240000486373901, 0.0, 0.0, 0.0, 0.0, 0.0, 1.7632264647055376E9, 0.0, 2025-11-15 12:07:44.705
23.0, 434.82881809817627, 481.9066787404008, -120.53510562190786, -67.42291640117764, -0.04800000227987766, 0.17600000835955143, 1.0240000486373901, 0.0, 0.0, 0.0, 0.0, 0.0, 1.7632264647213073E9, 0.0, 2025-11-15 12:07:44.721
23.0, 506.23846785211936, 581.874204555992, 7.489149661269039, 83.81115800701082, -0.04800000227987766, 0.17600000835955143, 1.0240000486373901, 0.0, 0.0, 0.0, 0.0, 0.0, 1.7632264647213073E9, 0.0, 2025-11-15 12:07:44.721
24.0, 317.687671686057, 397.33632104238495, -162.51548262452707, -94.12954198475927, -0.04800000227987766, 0.17600000835955143, 1.0240000486373901, 0.0, 0.0, 0.0, 0.0, 0.0, 1.763226464721989E9, 0.0, 2025-11-15 12:07:44.721
24.0, 320.08494755765423, 374.24991861591116, -212.66006123041734, -158.15662922617048, -0.04800000227987766, 0.17600000835955143, 1.0240000486373901, 0.0, 0.0, 0.0, 0.0, 0.0, 1.763226464721989E9, 0.0, 2025-11-15 12:07:44.721
25.0, 500.176090023946, 560.515635909047, -33.65348975127563, 19.582116167992353, -0.04800000227987766, 0.17600000835955143, 1.0240000486373901, 0.0, 0.0, 0.0, 0.0, 0.0, 1.763226464735577E9, 0.0, 2025-11-15 12:07:44.735
25.0, 292.31993028661236, 387.92299285391346, -163.23354341601953, -84.79849159531295, -0.04800000227987766, 0.17600000835955143, 1.0240000486373901, 0.0, 0.0, 0.0, 0.0, 0.0, 1.763226464735577E9, 0.0, 2025-11-15 12:07:44.735
26.0, 275.1575293899514, 363.2658324460499, -201.71711396006867, -115.24501713458449, -0.04800000227987766, 0.17600000835955143, 1.0240000486373901, 0.0, 0.0, 0.0, 0.0, 0.0, 1.7632264647512696E9, 0.0, 2025-11-15 12:07:44.751
26.0, 495.15714428341016, 535.2937506078742, -66.48981136223301, -11.395475164987147, -0.04800000227987766, 0.17600000835955143, 1.0240000486373901, 0.0, 0.0, 0.0, 0.0, 0.0, 1.7632264647512696E9, 0.0, 2025-11-15 12:07:44.751
27.0, 319.1275331689976, 400.48157690512016, -161.19529794016853, -122.35830685030669, -0.04800000227987766, 0.17600000835955143, 1.0240000486373901, 0.0, 0.0, 0.0, 0.0, 0.0, 1.7632264647519853E9, 0.0, 2025-11-15 12:07:44.751
27.0, 232.7171446927823, 316.89855279540643, -241.40867218980566, -161.31684468872845, -0.04800000227987766, 0.17600000835955143, 1.0240000486373901, 0.0, 0.0, 0.0, 0.0, 0.0, 1.7632264647519853E9, 0.0, 2025-11-15 12:07:44.751
28.0, 429.3274252633564, 469.602407886181, -122.87254309421405, -54.561400453560054, -0.04800000227987766, 0.17600000835955143, 1.0240000486373901, 0.0, 0.0, 0.0, 0.0, 0.0, 1.7632264647655668E9, 0.0, 2025-11-15 12:07:44.765
28.0, 426.49258109694347, 500.80065331654623, -77.93390522664413, -18.781777577474713, -0.04800000227987766, 0.17600000835955143, 1.0240000486373901, 0.0, 0.0, 0.0, 0.0, 0.0, 1.7632264647655668E9, 0.0, 2025-11-15 12:07:44.765
29.0, 226.84924166230485, 322.96467052353546, -225.65247367648408, -134.98420910071582, -0.04800000227987766, 0.17600000835955143, 1.0240000486373901, 0.0, 0.0, 0.0, 0.0, 0.0, 1.7632264647812831E9, 0.0, 2025-11-15 12:07:44.781
29.0, 297.7988837216981, 384.635620792862, -193.7436472545378, -132.11196593474597, -0.04800000227987766, 0.17600000835955143, 1.0240000486373901, 0.0, 0.0, 0.0, 0.0, 0.0, 1.7632264647812831E9, 0.0, 2025-11-15 12:07:44.781
30.0, 534.7065863148309, 567.3746124277823, -40.613443568814546, 5.909041929990053, -0.04800000227987766, 0.17600000835955143, 1.0400000493973494, 0.0, 0.0, 0.0, 0.0, 0.0, 1.7632264647819817E9, 0.0, 2025-11-15 12:07:44.781
30.0, 772.794227343984, 371.6731275464408, -167.3960520667024, -74.72694101464003, -0.04800000227987766, 0.17600000835955143, 1.0400000493973494, 0.0, 0.0, 0.0, 0.0, 0.0, 1.7632264647819817E9, 0.0, 2025-11-15 12:07:44.781
31.0, 727.8593293763697, 335.30634037731215, -222.72413201117888, -124.47883012518287, -0.04800000227987766, 0.1600000075995922, 1.0400000493973494, 0.0, 0.0, 0.0, 0.0, 0.0, 1.763226464795566E9, 0.0, 2025-11-15 12:07:44.795
31.0, 492.00440862076357, 522.2527194623835, -87.11535961786285, -40.55173521954566, -0.04800000227987766, 0.1600000075995922, 1.0400000493973494, 0.0, 0.0, 0.0, 0.0, 0.0, 1.763226464795566E9, 0.0, 2025-11-15 12:07:44.795
32.0, 384.3214691965841, 483.23060332471505, -75.71614455292001, -20.629288155585527, -0.04800000227987766, 0.1600000075995922, 1.0400000493973494, 0.0, 0.0, 0.0, 0.0, 0.0, 1.7632264648112588E9, 0.0, 2025-11-15 12:07:44.811
32.0, 197.02353951567784, 282.7495263000019, -267.5580526799895, -170.0046322857961, -0.04800000227987766, 0.1600000075995922, 1.0400000493973494, 0.0, 0.0, 0.0, 0.0, 0.0, 1.7632264648112588E9, 0.0, 2025-11-15 12:07:44.811
33.0, 363.7856785398908, 431.01786004332826, -157.23100398713723, -76.33883789554238, -0.04800000227987766, 0.1600000075995922, 1.0400000493973494, 0.0, 0.0, 0.0, 0.0, 0.0, 1.763226464811967E9, 0.0, 2025-11-15 12:07:44.811
33.0, 447.8137507443316, 505.374550962355, -78.06854162504897, -25.038630203343928, -0.04800000227987766, 0.1600000075995922, 1.0400000493973494, 0.0, 0.0, 0.0, 0.0, 0.0, 1.763226464811967E9, 0.0, 2025-11-15 12:07:44.811
34.0, 211.1902805478312, 293.55409727199003, -255.48191572306678, -188.6106345653534, -0.04800000227987766, 0.1600000075995922, 1.0400000493973494, 0.0, 0.0, 0.0, 0.0, 0.0, 1.7632264648256395E9, 0.0, 2025-11-15 12:07:44.825
34.0, 268.5117271686904, 320.8329275487922, -252.72186955576763, -182.66045373585075, -0.04800000227987766, 0.1600000075995922, 1.0400000493973494, 0.0, 0.0, 0.0, 0.0, 0.0, 1.7632264648256395E9, 0.0, 2025-11-15 12:07:44.825
35.0, 471.88374685915187, 533.5322577287443, -54.87742199981585, -9.67886108532548, -0.04800000227987766, 0.1600000075995922, 1.0400000493973494, 0.0, 0.0, 0.0, 0.0, 0.0, 1.7632264648412628E9, 0.0, 2025-11-15 12:07:44.841
35.0, 250.05532088736072, 356.1862018299289, -186.36108474200591, -98.01903793867677, -0.04800000227987766, 0.1600000075995922, 1.0400000493973494, 0.0, 0.0, 0.0, 0.0, 0.0, 1.7632264648412628E9, 0.0, 2025-11-15 12:07:44.841
36.0, 254.33376643666998, 332.8866251059808, -230.08425512397662, -144.59949188679457, -0.04800000227987766, 0.1600000075995922, 1.0400000493973494, 0.0, 0.0, 0.0, 0.0, 0.0, 1.763226464841977E9, 0.0, 2025-11-15 12:07:44.841
36.0, 496.2903339699842, 533.3826617305167, -70.76077711163089, -24.21585221309215, -0.04800000227987766, 0.1600000075995922, 1.0400000493973494, 0.0, 0.0, 0.0, 0.0, 0.0, 1.763226464841977E9, 0.0, 2025-11-15 12:07:44.841
37.0, 356.1188836307265, 431.79575923411176, -113.14132340950891, -31.82280872296542, -0.04800000227987766, 0.1600000075995922, 1.0400000493973494, 0.0, 0.0, 0.0, 0.0, 0.0, 1.7632264648556168E9, 0.0, 2025-11-15 12:07:44.855
37.0, 207.73835288872942, 315.0660018171184, -229.48961103102192, -139.53940724674612, -0.04800000227987766, 0.1600000075995922, 1.0400000493973494, 0.0, 0.0, 0.0, 0.0, 0.0, 1.7632264648556168E9, 0.0, 2025-11-15 12:07:44.855
38.0, 418.4779754919, 450.39428171375766, -150.4954441669397, -85.72972668427974, -0.04800000227987766, 0.1600000075995922, 1.0400000493973494, 0.0, 0.0, 0.0, 0.0, 0.0, 1.7632264648712635E9, 0.0, 2025-11-15 12:07:44.871
38.0, 488.48516276245937, 536.105308898259, -48.06706418050453, -7.419961512088776, -0.04800000227987766, 0.1600000075995922, 1.0400000493973494, 0.0, 0.0, 0.0, 0.0, 0.0, 1.7632264648712635E9, 0.0, 2025-11-15 12:07:44.871
39.0, 668.7427307767794, 296.39642123831436, -246.74550942657515, -150.80024601332843, -0.04800000227987766, 0.1600000075995922, 1.0400000493973494, 0.0, 0.0, 0.0, 0.0, 0.0, 1.763226464871965E9, 0.0, 2025-11-15 12:07:44.871
39.0, 806.4570668451488, 366.3849090090953, -212.48428593249992, -133.66402441635728, -0.04800000227987766, 0.1600000075995922, 1.0400000493973494, 0.0, 0.0, 0.0, 0.0, 0.0, 1.763226464871965E9, 0.0, 2025-11-15 12:07:44.871
40.0, 1049.4009679667652, 606.9016150594689, 8.483963049482554, 74.49132731743157, -0.04800000227987766, 0.1600000075995922, 1.0240000486373901, 0.0, 0.0, 0.0, 0.0, 0.0, 1.7632264648856087E9, 0.0, 2025-11-15 12:07:44.885
40.0, 1274.1334262541495, 391.52077661128715, -154.4672179198824, -82.02348582819104, -0.04800000227987766, 0.1600000075995922, 1.0240000486373901, 0.0, 0.0, 0.0, 0.0, 0.0, 1.7632264648856087E9, 0.0, 2025-11-15 12:07:44.885
41.0, 1236.7082473975606, 339.2594146304764, -223.52447060169652, -139.42721024807543, -0.04800000227987766, 0.1600000075995922, 1.0240000486373901, 0.0, 0.0, 0.0, 0.0, 0.0, 1.763226464916931E9, 0.0, 2025-11-15 12:07:44.916
41.0, 1464.9094628938474, 539.5273173577152, -61.25395142426714, -2.4421546710655093, -0.04800000227987766, 0.1600000075995922, 1.0240000486373901, 0.0, 0.0, 0.0, 0.0, 0.0, 1.763226464916931E9, 0.0, 2025-11-15 12:07:44.916
42.0, 1392.6059770504944, 478.4023924819194, -82.65739887068048, -14.578130027279258, -0.04800000227987766, 0.1600000075995922, 1.0240000486373901, 0.0, 0.0, 0.0, 0.0, 0.0, 1.7632264649176352E9, 0.0, 2025-11-15 12:07:44.917
42.0, 1240.8071777489968, 352.05735227884725, -197.04597891541198, -105.92892634496093, -0.04800000227987766, 0.1600000075995922, 1.0240000486373901, 0.0, 0.0, 0.0, 0.0, 0.0, 1.7632264649176352E9, 0.0, 2025-11-15 12:07:44.917
43.0, 1396.3159578065388, 472.9870173460804, -114.89907638868317, -48.69349742308259, -0.04800000227987766, 0.1600000075995922, 1.0240000486373901, 0.0, 0.0, 0.0, 0.0, 0.0, 1.7632264649183853E9, 0.0, 2025-11-15 12:07:44.918
43.0, 1493.1457075593062, 581.3431387622841, 5.967010379303247, 55.57865324150771, -0.04800000227987766, 0.1600000075995922, 1.0240000486373901, 0.0, 0.0, 0.0, 0.0, 0.0, 1.7632264649183853E9, 0.0, 2025-11-15 12:07:44.918
44.0, 1690.169247074984, 821.8766743624583, -215.53604429634288, -150.56463231611997, -0.04800000227987766, 0.1600000075995922, 1.0240000486373901, 0.0, 0.0, 0.0, 0.0, 0.0, 1.7632264649312844E9, 0.0, 2025-11-15 12:07:44.931
44.0, 1825.8939563669264, 911.0583287058398, -154.40737952059135, -83.34367051254958, -0.04800000227987766, 0.1600000075995922, 1.0240000486373901, 0.0, 0.0, 0.0, 0.0, 0.0, 1.7632264649312844E9, 0.0, 2025-11-15 12:07:44.931
45.0, 2005.035164244473, 1066.443692064844, -16.75662175146863, 37.86274715140462, -0.04800000227987766, 0.1600000075995922, 1.0240000486373901, 0.0, 0.0, 0.0, 0.0, 0.0, 1.7632264649319677E9, 0.0, 2025-11-15 12:07:44.931
45.0, 1771.8935409067199, 880.6716415658593, -161.51692933635786, -92.22593290731311, -0.04800000227987766, 0.1600000075995922, 1.0240000486373901, 0.0, 0.0, 0.0, 0.0, 0.0, 1.7632264649319677E9, 0.0, 2025-11-15 12:07:44.931
46.0, 1737.737034611404, 857.4393830411136, -188.07769882166758, -92.08381670899689, -0.04800000227987766, 0.1600000075995922, 1.0240000486373901, 0.0, 0.0, 0.0, 0.0, 0.0, 1.7632264649455893E9, 0.0, 2025-11-15 12:07:44.945
46.0, 1524.8376197838224, 1083.0077089685947, -13.772181586828083, 44.6132665714249, -0.04800000227987766, 0.1600000075995922, 1.0240000486373901, 0.0, 0.0, 0.0, 0.0, 0.0, 1.7632264649455893E9, 0.0, 2025-11-15 12:07:44.945
47.0, 1379.5200671055354, 945.0241001034155, -111.83609832497314, -56.34533273242414, -0.04800000227987766, 0.1600000075995922, 1.0240000486373901, 0.0, 0.0, 0.0, 0.0, 0.0, 1.763226464961237E9, 0.0, 2025-11-15 12:07:44.961
47.0, 1213.8873778679408, 838.5229690652341, -194.5888646445237, -111.43779897969216, -0.04800000227987766, 0.1600000075995922, 1.0240000486373901, 0.0, 0.0, 0.0, 0.0, 0.0, 1.763226464961237E9, 0.0, 2025-11-15 12:07:44.961
48.0, 1378.9291629125364, 951.9017761219293, -130.79365120036528, -80.53874554578215, -0.04800000227987766, 0.1600000075995922, 1.0240000486373901, 0.0, 0.0, 0.0, 0.0, 0.0, 1.7632264649619596E9, 0.0, 2025-11-15 12:07:44.961
48.0, 1461.091025039088, 1037.9493943024427, -30.73262788588181, 48.465363525785506, -0.04800000227987766, 0.1600000075995922, 1.0240000486373901, 0.0, 0.0, 0.0, 0.0, 0.0, 1.7632264649619596E9, 0.0, 2025-11-15 12:07:44.961
49.0, 1263.1979587837122, 861.9497023876756, -171.15465152217075, -68.33545199036598, -0.04800000227987766, 0.1600000075995922, 1.0240000486373901, 0.0, 0.0, 0.0, 0.0, 0.0, 1.7632264649919868E9, 0.0, 2025-11-15 12:07:44.991
49.0, 1186.9451385871507, 779.3577517662197, -293.43816037336364, -237.23307388927788, -0.04800000227987766, 0.1600000075995922, 1.0240000486373901, 0.0, 0.0, 0.0, 0.0, 0.0, 1.7632264649919868E9, 0.0, 2025-11-15 12:07:44.991
50.0, 1013.5390672916546, 550.0139968334697, -56.20508648408577, -4.637475945055485, -0.04800000227987766, 0.1600000075995922, 1.0400000493973494, 0.0, 0.0, 0.0, 0.0, 0.0, 1.7632264649926815E9, 0.0, 2025-11-15 12:07:44.992
50.0, 1209.9156041149981, 325.6162595921196, -215.67068069474772, -131.3976450432092, -0.04800000227987766, 0.1600000075995922, 1.0400000493973494, 0.0, 0.0, 0.0, 0.0, 0.0, 1.7632264649926815E9, 0.0, 2025-11-15 12:07:44.992
51.0, 1157.9870932302438, 274.17393570160493, -276.8068252704106, -182.5332971373573, -0.04800000227987766, 0.1600000075995922, 1.0400000493973494, 0.0, 0.0, 0.0, 0.0, 0.0, 1.763226464993433E9, 0.0, 2025-11-15 12:07:44.993
51.0, 943.1915491251275, 492.4307572157122, -107.49407447641715, -47.56404763646424, -0.04800000227987766, 0.1600000075995922, 1.0400000493973494, 0.0, 0.0, 0.0, 0.0, 0.0, 1.763226464993433E9, 0.0, 2025-11-15 12:07:44.993
52.0, 841.1820379337296, 428.65424327133223, -128.09718333231285, -48.83561362139881, -0.04800000227987766, 0.1600000075995922, 1.0400000493973494, 0.0, 0.0, 0.0, 0.0, 0.0, 1.7632264650055652E9, 0.0, 2025-11-15 12:07:45.005
52.0, 673.570941619575, 281.3395840167068, -269.80199265340343, -173.44534024503082, -0.04800000227987766, 0.1600000075995922, 1.0400000493973494, 0.0, 0.0, 0.0, 0.0, 0.0, 1.7632264650055652E9, 0.0, 2025-11-15 12:07:45.005
53.0, 861.0820455979556, 413.38049185229465, -186.0693725454621, -109.03304330818355, -0.04800000227987766, 0.1600000075995922, 1.0400000493973494, 0.0, 0.0, 0.0, 0.0, 0.0, 1.7632264650212736E9, 0.0, 2025-11-15 12:07:45.021
53.0, 944.1115645142272, 523.7486794446595, -47.068510892335325, 17.36061559431255, -0.04800000227987766, 0.1600000075995922, 1.0400000493973494, 0.0, 0.0, 0.0, 0.0, 0.0, 1.7632264650212736E9, 0.0, 2025-11-15 12:07:45.021
54.0, 1181.612041250337, 302.2007459695451, -242.15665218094364, -158.01825292780995, -0.04800000227987766, 0.1600000075995922, 1.0400000493973494, 0.0, 0.0, 0.0, 0.0, 0.0, 1.7632264650219822E9, 0.0, 2025-11-15 12:07:45.021
54.0, 1246.7910176781006, 325.6087797922082, -253.13325855089352, -162.64824907295406, -0.04800000227987766, 0.1600000075995922, 1.0400000493973494, 0.0, 0.0, 0.0, 0.0, 0.0, 1.7632264650219822E9, 0.0, 2025-11-15 12:07:45.021
55.0, 1444.6840839334764, 500.2658476228826, -104.98460160614923, -50.077260406687856, -0.04800000227987766, 0.1600000075995922, 1.0400000493973494, 0.0, 0.0, 0.0, 0.0, 0.0, 1.7632264650356052E9, 0.0, 2025-11-15 12:07:45.035
55.0, 1649.9541028514504, 276.4814539742656, -262.7335817371495, -162.6706884726882, -0.04800000227987766, 0.1600000075995922, 1.0400000493973494, 0.0, 0.0, 0.0, 0.0, 0.0, 1.7632264650356052E9, 0.0, 2025-11-15 12:07:45.035
56.0, 1642.493002439849, 251.2446090732701, -299.0592300067656, -180.58106936048716, -0.04800000227987766, 0.1600000075995922, 1.0400000493973494, 0.0, 0.0, 0.0, 0.0, 0.0, 1.7632264650669737E9, 0.0, 2025-11-15 12:07:45.066
56.0, 1853.5355569394305, 435.7787526869215, -163.26720251562074, -105.29688325244933, -0.04800000227987766, 0.1600000075995922, 1.0400000493973494, 0.0, 0.0, 0.0, 0.0, 0.0, 1.7632264650669737E9, 0.0, 2025-11-15 12:07:45.066
57.0, 1733.926076556556, 340.9909883099608, -212.0504575376399, -124.82664082106203, -0.04800000227987766, 0.1600000075995922, 1.0400000493973494, 0.0, 0.0, 0.0, 0.0, 0.0, 1.7632264650676587E9, 0.0, 2025-11-15 12:07:45.067
57.0, 1664.7977657755837, 265.16077680839226, -289.77305841678753, -176.39238141011447, -0.04800000227987766, 0.1600000075995922, 1.0400000493973494, 0.0, 0.0, 0.0, 0.0, 0.0, 1.7632264650676587E9, 0.0, 2025-11-15 12:07:45.067
58.0, 1784.0893546622247, 366.8299571038224, -217.2676179758273, -146.7387146614492, -0.04800000227987766, 0.1600000075995922, 1.0400000493973494, 0.0, 0.0, 0.0, 0.0, 0.0, 1.763226465068396E9, 0.0, 2025-11-15 12:07:45.068
58.0, 1908.7290004855022, 489.30420085275546, -89.40791829070076, -23.437953022308648, -0.04800000227987766, 0.1600000075995922, 1.0400000493973494, 0.0, 0.0, 0.0, 0.0, 0.0, 1.763226465068396E9, 0.0, 2025-11-15 12:07:45.068
59.0, 2132.8219358804636, 268.3322119708173, -271.90755632845685, -173.92404743935913, -0.04800000227987766, 0.1600000075995922, 1.0400000493973494, 0.0, 0.0, 0.0, 0.0, 0.0, 1.7632264650812633E9, 0.0, 2025-11-15 12:07:45.081
59.0, 2237.239942643326, 354.5556054492481, -210.10196966072544, -109.24995750561357, -0.04800000227987766, 0.1600000075995922, 1.0400000493973494, 0.0, 0.0, 0.0, 0.0, 0.0, 1.7632264650812633E9, 0.0, 2025-11-15 12:07:45.081
60.0, 2020.4285924620926, 584.4061168259941, -6.748649470042437, 43.700730982236564, -0.04800000227987766, 0.1600000075995922, 1.0240000486373901, 0.0, 0.0, 0.0, 0.0, 0.0, 1.763226465081978E9, 0.0, 2025-11-15 12:07:45.081
60.0, 2241.533347792458, 365.1956208231859, -175.52285467041656, -89.26019224245101, -0.04800000227987766, 0.1600000075995922, 1.0240000486373901, 0.0, 0.0, 0.0, 0.0, 0.0, 1.763226465081978E9, 0.0, 2025-11-15 12:07:45.081
61.0, 2182.820658388082, 325.66861819149926, -212.11403583688661, -97.15138114895672, -0.04800000227987766, 0.144000006839633, 1.0240000486373901, 0.0, 0.0, 0.0, 0.0, 0.0, 1.7632264650956292E9, 0.0, 2025-11-15 12:07:45.095
61.0, 1984.0655451929197, 565.5532811493613, -24.917083454784006, 29.8294420465827, -0.04800000227987766, 0.144000006839633, 1.0240000486373901, 0.0, 0.0, 0.0, 0.0, 0.0, 1.7632264650956292E9, 0.0, 2025-11-15 12:07:45.095
62.0, 1855.2147720195353, 451.88276189612225, -105.44460930069908, -36.57996146660298, -0.04800000227987766, 0.144000006839633, 1.0240000486373901, 0.0, 0.0, 0.0, 0.0, 0.0, 1.7632264651112602E9, 0.0, 2025-11-15 12:07:45.111
62.0, 1778.3373885303736, 354.1068174545653, -211.4109346452169, -126.40487860236317, -0.04800000227987766, 0.144000006839633, 1.0240000486373901, 0.0, 0.0, 0.0, 0.0, 0.0, 1.7632264651112602E9, 0.0, 2025-11-15 12:07:45.111
63.0, 1832.1283695930615, 463.88036095397547, -110.3289186428301, -36.69589836522937, -0.04800000227987766, 0.144000006839633, 1.0240000486373901, 0.0, 0.0, 0.0, 0.0, 0.0, 1.7632264651119719E9, 0.0, 2025-11-15 12:07:45.111
63.0, 1952.7364032641053, 560.6390526075847, -8.2820084518753, 42.9826701907441, -0.04800000227987766, 0.144000006839633, 1.0240000486373901, 0.0, 0.0, 0.0, 0.0, 0.0, 1.7632264651119719E9, 0.0, 2025-11-15 12:07:45.111
64.0, 1729.318519811146, 368.25111908698454, -171.15465152217075, -107.7913965228945, -0.04800000227987766, 0.144000006839633, 1.0240000486373901, 0.0, 0.0, 0.0, 0.0, 0.0, 1.7632264651256151E9, 0.0, 2025-11-15 12:07:45.125
