%OpenBCI Raw EXG Data
%Number of channels = 4
%Sample Rate = 200 Hz
%Board = OpenBCI_GUI$BoardGanglionBLE
Sample Index, EXG Channel 0, EXG Channel 1, EXG Channel 2, EXG Channel 3, Accel Channel 0, Accel Channel 1, Accel Channel 2, Other, Other, Other, Other, Other, Timestamp, Marker Channel, Timestamp (Formatted)
0.0, -219.38253140076995, -122.13578280294314, -145.48771812627092, -115.9238089765422, 0.0, 0.0, 0.0, 0.0, 0.0, 0.0, 0.0, 0.0, 1.7632262721751297E9, 0.0, 2025-11-15 12:04:32.175
1.0, -59.92815688997507, 15.12228547083214, -42.91722194151953, -38.39942279504612, 0.0, 0.20800000987946987, 0.0, 0.0, 0.0, 0.0, 0.0, 0.0, 1.7632262721886394E9, 0.0, 2025-11-15 12:04:32.188
1.0, 61.345578973181546, 136.5269178324379, 83.18098486447707, 69.55652932589874, 0.0, 0.20800000987946987, 0.0, 0.0, 0.0, 0.0, 0.0, 0.0, 1.7632262721886394E9, 0.0, 2025-11-15 12:04:32.188
2.0, 244.07896075816825, 359.84943383652717, -144.83697553398088, -123.41856848774478, -0.03200000151991844, 0.20800000987946987, 0.0, 0.0, 0.0, 0.0, 0.0, 0.0, 1.7632262722052963E9, 0.0, 2025-11-15 12:04:32.205
2.0, 339.3192530297674, 420.3871944192797, -104.77890710858628, -98.4360367837362, -0.03200000151991844, 0.20800000987946987, 0.0, 0.0, 0.0, 0.0, 0.0, 0.0, 1.7632262722052963E9, 0.0, 2025-11-15 12:04:32.205
3.0, 101.99081169161946, 655.4062475347891, 101.17364355130121, 91.00111567182466, -0.03200000151991844, 0.20800000987946987, 0.0, 0.0, 0.0, 0.0, 0.0, 0.0, 1.763226272206017E9, 0.0, 2025-11-15 12:04:32.206
3.0, 301.4153669788502, 411.28801782708615, -93.26001524506137, -69.23115802975371, -0.03200000151991844, 0.20800000987946987, 0.0, 0.0, 0.0, 0.0, 0.0, 0.0, 1.763226272206017E9, 0.0, 2025-11-15 12:04:32.206
4.0, 267.98066137498245, 366.8692260533571, -156.62888009427115, -138.8980144043453, -0.03200000151991844, 0.20800000987946987, 0.0, 0.0, 0.0, 0.0, 0.0, 0.0, 1.7632262722184024E9, 0.0, 2025-11-15 12:04:32.218
4.0, 28.374620963819325, 579.8340891301632, 22.71054248092696, 13.042901095468551, -0.03200000151991844, 0.20800000987946987, 0.0, 0.0, 0.0, 0.0, 0.0, 0.0, 1.7632262722184024E9, 0.0, 2025-11-15 12:04:32.218
5.0, -96.84470935259014, 487.99710581824183, -29.94724889518693, -25.754821044858545, -0.03200000151991844, 0.20800000987946987, 0.0, 0.0, 0.0, 0.0, 0.0, 0.0, 1.7632262722340608E9, 0.0, 2025-11-15 12:04:32.234
5.0, -239.86970335803926, 349.37397406063974, -160.69789124606177, -136.78123102942482, -0.03200000151991844, 0.20800000987946987, 0.0, 0.0, 0.0, 0.0, 0.0, 0.0, 1.7632262722340608E9, 0.0, 2025-11-15 12:04:32.234
6.0, -86.56746427435428, 479.54119201842695, -68.81602913467214, -64.58246238483116, -0.03200000151991844, 0.20800000987946987, 0.0, 0.0, 0.0, 0.0, 0.0, 0.0, 1.7632262722347803E9, 0.0, 2025-11-15 12:04:32.234
6.0, 24.339268911629915, 587.4485254399478, 56.44817998120561, 45.063924516085535, -0.03200000151991844, 0.20800000987946987, 0.0, 0.0, 0.0, 0.0, 0.0, 0.0, 1.7632262722347803E9, 0.0, 2025-11-15 12:04:32.234
7.0, 240.5410154000856, 830.9216224052943, -162.18637142842636, -139.6796534950845, -0.03200000151991844, 0.20800000987946987, 0.0, 0.0, 0.0, 0.0, 0.0, 0.0, 1.7632262722484016E9, 0.0, 2025-11-15 12:04:32.248
7.0, 327.8489798656665, 888.6918570208363, -131.50423219194636, -117.21407446125522, -0.03200000151991844, 0.20800000987946987, 0.0, 0.0, 0.0, 0.0, 0.0, 0.0, 1.7632262722484016E9, 0.0, 2025-11-15 12:04:32.248
8.0, 87.58471706230193, 1122.611379549373, 78.27423612261191, 65.52491717366502, -0.03200000151991844, 0.20800000987946987, 0.0, 0.0, 0.0, 0.0, 0.0, 0.0, 1.7632262722640607E9, 0.0, 2025-11-15 12:04:32.264
8.0, 296.8639087327756, 894.2904872545041, -99.52434767084196, -85.91485173208639, -0.03200000151991844, 0.20800000987946987, 0.0, 0.0, 0.0, 0.0, 0.0, 0.0, 1.7632262722640607E9, 0.0, 2025-11-15 12:04:32.264
9.0, 256.27103461371735, 845.0509644378908, -165.11845299368724, -149.58290857775137, -0.03200000151991844, 0.20800000987946987, 0.0, 0.0, 0.0, 0.0, 0.0, 0.0, 1.7632262722647812E9, 0.0, 2025-11-15 12:04:32.264
9.0, 32.87372061051428, 1089.9770125360228, 41.38386295968667, 32.217368168290704, -0.03200000151991844, 0.20800000987946987, 0.0, 0.0, 0.0, 0.0, 0.0, 0.0, 1.7632262722647812E9, 0.0, 2025-11-15 12:04:32.264
10.0, -104.8293957579881, 970.7452620486729, -35.93856862420216, -27.53127352381125, -0.03200000151991844, 0.20800000987946987, 1.0240000486373901, 0.0, 0.0, 0.0, 0.0, 0.0, 1.763226272278394E9, 0.0, 2025-11-15 12:04:32.278
10.0, -255.24817197583616, 830.4279556111433, -171.24066922115162, -146.16837991820648, -0.03200000151991844, 0.20800000987946987, 1.0240000486373901, 0.0, 0.0, 0.0, 0.0, 0.0, 1.763226272278394E9, 0.0, 2025-11-15 12:04:32.278
11.0, -75.45622150599957, 980.4802216333337, -56.53045778023079, -43.885856030043215, -0.03200000151991844, 0.11200000531971455, 1.0240000486373901, 0.0, 0.0, 0.0, 0.0, 0.0, 1.763226272294058E9, 0.0, 2025-11-15 12:04:32.294
11.0, 28.18762596603483, 1085.8182437852956, 61.65412071952596, 64.55628308514133, -0.03200000151991844, 0.11200000531971455, 1.0240000486373901, 0.0, 0.0, 0.0, 0.0, 0.0, 1.763226272294058E9, 0.0, 2025-11-15 12:04:32.294
12.0, 245.45898384181783, 843.6821610541083, -146.43391281506047, -117.96953425230458, -0.01600000075995922, 0.11200000531971455, 1.0240000486373901, 0.0, 0.0, 0.0, 0.0, 0.0, 1.7632262722947893E9, 0.0, 2025-11-15 12:04:32.294
12.0, 303.1656401581131, 881.9749967004173, -134.32037685858086, -116.60821066843346, -0.01600000075995922, 0.11200000531971455, 1.0240000486373901, 0.0, 0.0, 0.0, 0.0, 0.0, 1.7632262722947893E9, 0.0, 2025-11-15 12:04:32.294
13.0, 59.84961899090558, 1108.0556889218278, 67.17047315416858, 60.57702953228727, -0.01600000075995922, 0.11200000531971455, 1.0240000486373901, 0.0, 0.0, 0.0, 0.0, 0.0, 1.7632262723084493E9, 0.0, 2025-11-15 12:04:32.308
13.0, 283.0075793969445, 886.9490636414848, -105.13793750433251, -89.40417839074507, -0.01600000075995922, 0.11200000531971455, 1.0240000486373901, 0.0, 0.0, 0.0, 0.0, 0.0, 1.7632262723084493E9, 0.0, 2025-11-15 12:04:32.308
14.0, 240.8701265961863, 829.1825689258985, -177.471342547331, -154.04460922488943, -0.01600000075995922, 0.11200000531971455, 1.0240000486373901, 0.0, 0.0, 0.0, 0.0, 0.0, 1.7632262723240693E9, 0.0, 2025-11-15 12:04:32.324
14.0, 16.4892189046368, 1060.1026916899718, 19.266094621736556, 19.019261224661022, -0.01600000075995922, 0.11200000531971455, 1.0240000486373901, 0.0, 0.0, 0.0, 0.0, 0.0, 1.7632262723240693E9, 0.0, 2025-11-15 12:04:32.324
15.0, -98.89043462835252, 978.0231073624454, -27.318099226336926, -19.15389762306586, -0.01600000075995922, 0.11200000531971455, 1.0240000486373901, 0.0, 0.0, 0.0, 0.0, 0.0, 1.7632262723247736E9, 0.0, 2025-11-15 12:04:32.324
15.0, -244.1892878068611, 831.8341579944827, -169.0977065465413, -135.62186204316095, -0.01600000075995922, 0.11200000531971455, 1.0240000486373901, 0.0, 0.0, 0.0, 0.0, 0.0, 1.7632262723247736E9, 0.0, 2025-11-15 12:04:32.324
16.0, -101.38494789879769, 959.4358045826666, -72.52974979067221, -65.41646007495001, -0.01600000075995922, 0.11200000531971455, 1.0240000486373901, 0.0, 0.0, 0.0, 0.0, 0.0, 1.7632262723383873E9, 0.0, 2025-11-15 12:04:32.338
16.0, 15.797337412834167, 1070.858643962536, 44.5964370216243, 45.25091951387003, -0.01600000075995922, 0.11200000531971455, 1.0240000486373901, 0.0, 0.0, 0.0, 0.0, 0.0, 1.7632262723383873E9, 0.0, 2025-11-15 12:04:32.338
17.0, 208.9725198741071, 1308.2020449005067, -176.5812463578768, -148.6067946893163, -0.01600000075995922, 0.11200000531971455, 1.0240000486373901, 0.0, 0.0, 0.0, 0.0, 0.0, 1.7632262723540933E9, 0.0, 2025-11-15 12:04:32.354
17.0, 287.3084643459879, 1355.5828374391422, -146.96871850872412, -126.62366274977103, -0.01600000075995922, 0.11200000531971455, 1.0240000486373901, 0.0, 0.0, 0.0, 0.0, 0.0, 1.7632262723540933E9, 0.0, 2025-11-15 12:04:32.354
18.0, 43.83910728059709, 1584.8873234223574, 55.101815997157246, 51.69476713752374, -0.01600000075995922, 0.11200000531971455, 1.0240000486373901, 0.0, 0.0, 0.0, 0.0, 0.0, 1.7632262723547792E9, 0.0, 2025-11-15 12:04:32.354
18.0, 272.97716771578416, 1361.1590282730758, -121.84407060639933, -99.55800677044317, -0.01600000075995922, 0.11200000531971455, 1.0240000486373901, 0.0, 0.0, 0.0, 0.0, 0.0, 1.7632262723547792E9, 0.0, 2025-11-15 12:04:32.354
19.0, 224.39960719132796, 1312.009263055399, -174.75617517950013, -141.48602517368272, -0.01600000075995922, 0.11200000531971455, 1.0240000486373901, 0.0, 0.0, 0.0, 0.0, 0.0, 1.763226272368389E9, 0.0, 2025-11-15 12:04:32.368
19.0, 5.161061938852072, 1541.7251380337402, 10.821400521788746, 5.791235081385821, -0.01600000075995922, 0.11200000531971455, 1.0240000486373901, 0.0, 0.0, 0.0, 0.0, 0.0, 1.763226272368389E9, 0.0, 2025-11-15 12:04:32.368
20.0, -124.0936204297468, 1444.2633451884612, -45.99141970509663, -37.08671791059896, -0.01600000075995922, 0.11200000531971455, 0.5120000243186951, 0.0, 0.0, 0.0, 0.0, 0.0, 1.763226272384101E9, 0.0, 2025-11-15 12:04:32.384
20.0, -266.91665983758867, 1306.4966505207121, -180.2164291148074, -141.35138877527788, -0.01600000075995922, 0.11200000531971455, 0.5120000243186951, 0.0, 0.0, 0.0, 0.0, 0.0, 1.763226272384101E9, 0.0, 2025-11-15 12:04:32.384
21.0, -103.26237767655402, 1441.660374819301, -68.18398604216054, -45.23969981400296, -0.01600000075995922, 0.17600000835955143, 0.5120000243186951, 0.0, 0.0, 0.0, 0.0, 0.0, 1.7632262723847742E9, 0.0, 2025-11-15 12:04:32.384
21.0, 16.47051940485835, 1554.1303861867636, 38.661215791944414, 32.52030006470159, -0.01600000075995922, 0.17600000835955143, 0.5120000243186951, 0.0, 0.0, 0.0, 0.0, 0.0, 1.7632262723847742E9, 0.0, 2025-11-15 12:04:32.384
22.0, 220.9028007327579, 1794.5853838878684, -185.65050375042483, -161.16163884056732, -0.03200000151991844, 0.17600000835955143, 0.5120000243186951, 0.0, 0.0, 0.0, 0.0, 0.0, 1.763226272398406E9, 0.0, 2025-11-15 12:04:32.398
22.0, 283.05993799632415, 1843.750108705368, -155.58170810667798, -129.2266331189312, -0.03200000151991844, 0.17600000835955143, 0.5120000243186951, 0.0, 0.0, 0.0, 0.0, 0.0, 1.763226272398406E9, 0.0, 2025-11-15 12:04:32.398
23.0, 49.42651781439781, 2086.682790127117, 66.28785676462576, 65.30052317632362, -0.03200000151991844, 0.17600000835955143, 0.5120000243186951, 0.0, 0.0, 0.0, 0.0, 0.0, 1.7632262724140751E9, 0.0, 2025-11-15 12:04:32.414
23.0, 275.9316886807792, 1849.3636985388584, -130.03445150936022, -112.50180051708594, -0.03200000151991844, 0.17600000835955143, 0.5120000243186951, 0.0, 0.0, 0.0, 0.0, 0.0, 1.7632262724140751E9, 0.0, 2025-11-15 12:04:32.414
24.0, 227.43640595534816, 1795.6736947749741, -185.93099624710158, -154.18672542320564, -0.03200000151991844, 0.17600000835955143, 0.5120000243186951, 0.0, 0.0, 0.0, 0.0, 0.0, 1.7632262724147859E9, 0.0, 2025-11-15 12:04:32.414
24.0, -5.467733735218644, 2024.091824468691, 11.771335110533983, 10.705463623162359, -0.03200000151991844, 0.17600000835955143, 0.5120000243186951, 0.0, 0.0, 0.0, 0.0, 0.0, 1.7632262724147859E9, 0.0, 2025-11-15 12:04:32.414
25.0, -119.26914948690683, 1933.5226672417484, -45.830604007001966, -37.96559440018609, -0.03200000151991844, 0.17600000835955143, 0.5120000243186951, 0.0, 0.0, 0.0, 0.0, 0.0, 1.7632262724283943E9, 0.0, 2025-11-15 12:04:32.428
25.0, -274.18702535144985, 1791.731840221677, -186.76499393722042, -150.00177737278864, -0.03200000151991844, 0.17600000835955143, 0.5120000243186951, 0.0, 0.0, 0.0, 0.0, 0.0, 1.7632262724283943E9, 0.0, 2025-11-15 12:04:32.428
26.0, -96.54551735613495, 1938.399496783968, -74.64279326563701, -66.08964206697419, -0.03200000151991844, 0.17600000835955143, 0.5120000243186951, 0.0, 0.0, 0.0, 0.0, 0.0, 1.7632262724441476E9, 0.0, 2025-11-15 12:04:32.444
26.0, -14.06576373334974, 2025.2324939551763, 15.48131586657837, 6.468156973365694, -0.03200000151991844, 0.17600000835955143, 0.5120000243186951, 0.0, 0.0, 0.0, 0.0, 0.0, 1.7632262724441476E9, 0.0, 2025-11-15 12:04:32.444
27.0, 217.3424159749411, 1793.4409745014273, -177.7667946438305, -142.3088031639345, -0.03200000151991844, 0.17600000835955143, 0.5120000243186951, 0.0, 0.0, 0.0, 0.0, 0.0, 1.7632262724448342E9, 0.0, 2025-11-15 12:04:32.444
27.0, 274.8171984939836, 1832.4256916395389, -155.27129641035572, -123.81499788304791, -0.03200000151991844, 0.17600000835955143, 0.5120000243186951, 0.0, 0.0, 0.0, 0.0, 0.0, 1.7632262724448342E9, 0.0, 2025-11-15 12:04:32.444
28.0, 53.04300107154995, 2068.3572803442366, 39.14366288622841, 23.10697187623009, -0.03200000151991844, 0.17600000835955143, 0.5120000243186951, 0.0, 0.0, 0.0, 0.0, 0.0, 1.7632262724584067E9, 0.0, 2025-11-15 12:04:32.458
28.0, 271.20071523683146, 1834.1049067196436, -145.1997458296828, -121.23446691362187, -0.03200000151991844, 0.17600000835955143, 0.5120000243186951, 0.0, 0.0, 0.0, 0.0, 0.0, 1.7632262724584067E9, 0.0, 2025-11-15 12:04:32.458
29.0, 226.61736786505207, 1787.1579425758682, -195.53131943335757, -159.56470155948773, -0.03200000151991844, 0.17600000835955143, 0.5120000243186951, 0.0, 0.0, 0.0, 0.0, 0.0, 1.763226272474116E9, 0.0, 2025-11-15 12:04:32.474
29.0, 0.7928587906062603, 2013.1787963979878, -5.353666786570102, 2.889072715770453, -0.03200000151991844, 0.17600000835955143, 0.5120000243186951, 0.0, 0.0, 0.0, 0.0, 0.0, 1.763226272474116E9, 0.0, 2025-11-15 12:04:32.474
30.0, -115.28241613414139, 1935.8451451142319, -54.750265401322395, -55.25515189534053, -0.03200000151991844, 0.17600000835955143, 0.7520000357180834, 0.0, 0.0, 0.0, 0.0, 0.0, 1.763226272474842E9, 0.0, 2025-11-15 12:04:32.474
30.0, -286.79048820212483, 1775.1753031178378, -206.06287770858034, -178.59705243399367, -0.03200000151991844, 0.17600000835955143, 0.7520000357180834, 0.0, 0.0, 0.0, 0.0, 0.0, 1.763226272474842E9, 0.0, 2025-11-15 12:04:32.474
31.0, -119.60948038287461, 1924.760081645567, -90.46630997816101, -82.74341656966135, -0.03200000151991844, 0.20800000987946987, 0.7520000357180834, 0.0, 0.0, 0.0, 0.0, 0.0, 1.7632262724884136E9, 0.0, 2025-11-15 12:04:32.488
31.0, -1.813851478509605, 2029.2865455071442, 24.37105806125328, 29.55829929979518, -0.03200000151991844, 0.20800000987946987, 0.7520000357180834, 0.0, 0.0, 0.0, 0.0, 0.0, 1.7632262724884136E9, 0.0, 2025-11-15 12:04:32.488
32.0, 191.4810077813454, 2261.958811400458, -206.20499390689656, -179.22161572659388, -0.03200000151991844, 0.20800000987946987, 0.7520000357180834, 0.0, 0.0, 0.0, 0.0, 0.0, 1.7632262725041397E9, 0.0, 2025-11-15 12:04:32.504
32.0, 273.4072562106885, 2316.0452445596457, -178.8850247305818, -142.17416676552966, -0.03200000151991844, 0.20800000987946987, 0.7520000357180834, 0.0, 0.0, 0.0, 0.0, 0.0, 1.7632262725041397E9, 0.0, 2025-11-15 12:04:32.504
33.0, 51.89859168510884, 2545.6302230395377, 29.322685602586716, 32.81575216120109, -0.03200000151991844, 0.20800000987946987, 0.7520000357180834, 0.0, 0.0, 0.0, 0.0, 0.0, 1.7632262725048287E9, 0.0, 2025-11-15 12:04:32.504
33.0, 251.66721776826307, 2314.4333476787433, -154.78510941611603, -125.4119351641275, -0.03200000151991844, 0.20800000987946987, 0.7520000357180834, 0.0, 0.0, 0.0, 0.0, 0.0, 1.7632262725048287E9, 0.0, 2025-11-15 12:04:32.504
34.0, 214.23829901171848, 2265.16764556244, -215.46498619718477, -188.2198150199838, -0.03200000151991844, 0.20800000987946987, 0.7520000357180834, 0.0, 0.0, 0.0, 0.0, 0.0, 1.76322627251838E9, 0.0, 2025-11-15 12:04:32.518
34.0, -24.627241208218038, 2482.6764870854095, -31.473128077108413, -15.574813365470618, -0.03200000151991844, 0.20800000987946987, 0.7520000357180834, 0.0, 0.0, 0.0, 0.0, 0.0, 1.76322627251838E9, 0.0, 2025-11-15 12:04:32.518
35.0, -148.61988433916122, 2390.9442209722474, -86.69275092286989, -57.79454396525398, -0.03200000151991844, 0.20800000987946987, 0.7520000357180834, 0.0, 0.0, 0.0, 0.0, 0.0, 1.7632262725341065E9, 0.0, 2025-11-15 12:04:32.534
35.0, -316.84058434609324, 2243.113455523737, -224.69879918778315, -188.75462071364745, -0.03200000151991844, 0.20800000987946987, 0.7520000357180834, 0.0, 0.0, 0.0, 0.0, 0.0, 1.7632262725341065E9, 0.0, 2025-11-15 12:04:32.534
36.0, -121.08300096541643, 2397.8892151899636, -108.00270087039098, -91.09087327076122, -0.03200000151991844, 0.20800000987946987, 0.7520000357180834, 0.0, 0.0, 0.0, 0.0, 0.0, 1.76322627253484E9, 0.0, 2025-11-15 12:04:32.534
36.0, -10.03789148107171, 2516.185990688391, 11.741415910888463, 6.65515197115019, -0.03200000151991844, 0.20800000987946987, 0.7520000357180834, 0.0, 0.0, 0.0, 0.0, 0.0, 1.76322627253484E9, 0.0, 2025-11-15 12:04:32.534
37.0, 188.1113579212688, 2748.9629737804644, -210.12814896041527, -183.6982759735547, -0.03200000151991844, 0.20800000987946987, 0.7520000357180834, 0.0, 0.0, 0.0, 0.0, 0.0, 1.7632262725483742E9, 0.0, 2025-11-15 12:04:32.548
37.0, 269.46540165739134, 2800.8802649653517, -182.89045758312568, -154.26526332227513, -0.03200000151991844, 0.20800000987946987, 0.7520000357180834, 0.0, 0.0, 0.0, 0.0, 0.0, 1.7632262725483742E9, 0.0, 2025-11-15 12:04:32.548
38.0, 503.13061098894104, 3024.9451511106454, 14.512681778054684, 7.635005759540945, -0.03200000151991844, 0.20800000987946987, 0.7520000357180834, 0.0, 0.0, 0.0, 0.0, 0.0, 1.7632262725641253E9, 0.0, 2025-11-15 12:04:32.564
38.0, 727.4255009815097, 2793.232169555966, -162.986710018944, -135.17307404847816, -0.03200000151991844, 0.20800000987946987, 0.7520000357180834, 0.0, 0.0, 0.0, 0.0, 0.0, 1.7632262725641253E9, 0.0, 2025-11-15 12:04:32.564
39.0, 695.3969977609813, 2746.1730084135197, -227.1297341589816, -193.72494775475934, -0.03200000151991844, 0.20800000987946987, 0.7520000357180834, 0.0, 0.0, 0.0, 0.0, 0.0, 1.76322627256483E9, 0.0, 2025-11-15 12:04:32.564
39.0, 467.29488961352035, 2971.2476675468497, -35.033512834925205, -28.41388991335407, -0.03200000151991844, 0.20800000987946987, 0.7520000357180834, 0.0, 0.0, 0.0, 0.0, 0.0, 1.76322627256483E9, 0.0, 2025-11-15 12:04:32.564
40.0, 313.6410999340005, 2865.3112614019774, -96.59974590549245, -78.21813762327656, -0.03200000151991844, 0.20800000987946987, 0.8960000425577164, 0.0, 0.0, 0.0, 0.0, 0.0, 1.7632262725783994E9, 0.0, 2025-11-15 12:04:32.578
40.0, 173.84737949026749, 2717.839526349213, -241.0197225944139, -203.10087694367394, -0.03200000151991844, 0.20800000987946987, 0.8960000425577164, 0.0, 0.0, 0.0, 0.0, 0.0, 1.7632262725783994E9, 0.0, 2025-11-15 12:04:32.578
41.0, 360.3000917811878, 2875.135978585575, -115.06363198673353, -89.04140809504315, -0.03200000151991844, 0.2240000106394291, 0.8960000425577164, 0.0, 0.0, 0.0, 0.0, 0.0, 1.76322627259411E9, 0.0, 2025-11-15 12:04:32.594
41.0, 459.81882960209623, 2984.296178492252, -9.665771435480565, -5.488303184974939, -0.03200000151991844, 0.2240000106394291, 0.8960000425577164, 0.0, 0.0, 0.0, 0.0, 0.0, 1.76322627259411E9, 0.0, 2025-11-15 12:04:32.594
42.0, 689.177544134669, 2750.0587644674815, -212.53290463192388, -178.89250453049317, -0.03200000151991844, 0.2240000106394291, 0.8960000425577164, 0.0, 0.0, 0.0, 0.0, 0.0, 1.7632262725948288E9, 0.0, 2025-11-15 12:04:32.594
42.0, 724.3363436181098, 2782.06108838832, -199.4133355873637, -157.9116657790728, -0.03200000151991844, 0.2240000106394291, 0.8960000425577164, 0.0, 0.0, 0.0, 0.0, 0.0, 1.7632262725948288E9, 0.0, 2025-11-15 12:04:32.594
43.0, 512.9104493730702, 2540.461681300774, 19.699923016596586, 19.385771420318633, -0.03200000151991844, 0.2240000106394291, 0.8960000425577164, 0.0, 0.0, 0.0, 0.0, 0.0, 1.7632262726084473E9, 0.0, 2025-11-15 12:04:32.608
43.0, 733.0316110150889, 2305.610923683271, -164.11615980556235, -129.1518351198174, -0.03200000151991844, 0.2240000106394291, 0.8960000425577164, 0.0, 0.0, 0.0, 0.0, 0.0, 1.7632262726084473E9, 0.0, 2025-11-15 12:04:32.608
44.0, 705.5134271411225, 2260.9789576120675, -220.6372678359039, -188.14501702087, -0.03200000151991844, 0.2240000106394291, 0.8960000425577164, 0.0, 0.0, 0.0, 0.0, 0.0, 1.7632262726241345E9, 0.0, 2025-11-15 12:04:32.624
44.0, 464.3777676480822, 2477.8146171430126, -43.261292737443, -38.83325118990615, -0.03200000151991844, 0.2240000106394291, 0.8960000425577164, 0.0, 0.0, 0.0, 0.0, 0.0, 1.7632262726241345E9, 0.0, 2025-11-15 12:04:32.624
45.0, 371.99101904267445, 2399.5646903701127, -86.41973822610453, -67.22657165350392, -0.03200000151991844, 0.2240000106394291, 0.8960000425577164, 0.0, 0.0, 0.0, 0.0, 0.0, 1.763226272624853E9, 0.0, 2025-11-15 12:04:32.624
45.0, 176.31197356106713, 2244.0484305126593, -230.55548251839355, -187.46061532897875, -0.03200000151991844, 0.2240000106394291, 0.8960000425577164, 0.0, 0.0, 0.0, 0.0, 0.0, 1.763226272624853E9, 0.0, 2025-11-15 12:04:32.624
46.0, 327.42263127071783, 2371.3695846041664, -135.2628316474147, -115.45258158212528, -0.03200000151991844, 0.2240000106394291, 0.8960000425577164, 0.0, 0.0, 0.0, 0.0, 0.0, 1.763226272638384E9, 0.0, 2025-11-15 12:04:32.638
46.0, 457.92270032456145, 2485.22709885519, -15.630911864805967, -1.5838476312346756, -0.03200000151991844, 0.2240000106394291, 0.8960000425577164, 0.0, 0.0, 0.0, 0.0, 0.0, 1.763226272638384E9, 0.0, 2025-11-15 12:04:32.638
47.0, 679.5248623490334, 2244.5907160062343, -225.61881457688287, -182.0639396929182, -0.03200000151991844, 0.2240000106394291, 0.8960000425577164, 0.0, 0.0, 0.0, 0.0, 0.0, 1.7632262726541643E9, 0.0, 2025-11-15 12:04:32.654
47.0, 737.7999834585935, 2287.397610899061, -204.29016512958333, -173.71648299181834, -0.03200000151991844, 0.2240000106394291, 0.8960000425577164, 0.0, 0.0, 0.0, 0.0, 0.0, 1.7632262726541643E9, 0.0, 2025-11-15 12:04:32.654
48.0, 550.1374135320075, 2051.8269225400873, 17.025894548278302, 15.690750264097005, -0.03200000151991844, 0.2240000106394291, 0.8960000425577164, 0.0, 0.0, 0.0, 0.0, 0.0, 1.7632262726548436E9, 0.0, 2025-11-15 12:04:32.654
48.0, 714.7210608320311, 2291.317026052624, -178.07346644019708, -146.4974911143072, -0.03200000151991844, 0.2240000106394291, 0.8960000425577164, 0.0, 0.0, 0.0, 0.0, 0.0, 1.7632262726548436E9, 0.0, 2025-11-15 12:04:32.654
49.0, 653.1473479615524, 2237.320350492373, -242.78869527345523, -195.95766802830622, -0.03200000151991844, 0.2240000106394291, 0.8960000425577164, 0.0, 0.0, 0.0, 0.0, 0.0, 1.7632262726683805E9, 0.0, 2025-11-15 12:04:32.668
49.0, 464.22817164985463, 2481.3263832014054, -36.55191221693531, -26.932889530900866, -0.03200000151991844, 0.2240000106394291, 0.8960000425577164, 0.0, 0.0, 0.0, 0.0, 0.0, 1.7632262726683805E9, 0.0, 2025-11-15 12:04:32.668
50.0, 338.1112653440796, 2394.287691532634, -78.68188521778211, -44.693674420472234, -0.03200000151991844, 0.2240000106394291, 0.944000044837594, 0.0, 0.0, 0.0, 0.0, 0.0, 1.763226272684141E9, 0.0, 2025-11-15 12:04:32.684
50.0, 194.68984194332734, 2252.1864528162405, -225.424339779187, -183.6197380744852, -0.03200000151991844, 0.2240000106394291, 0.944000044837594, 0.0, 0.0, 0.0, 0.0, 0.0, 1.763226272684141E9, 0.0, 2025-11-15 12:04:32.684
51.0, 369.05893747741356, 2391.927814660594, -114.21467469679192, -100.3620852609165, -0.03200000151991844, 0.2240000106394291, 0.944000044837594, 0.0, 0.0, 0.0, 0.0, 0.0, 1.763226272684842E9, 0.0, 2025-11-15 12:04:32.684
51.0, 473.8808534354903, 2499.203104989603, -5.8174143810756505, -2.8778530159033835, -0.03200000151991844, 0.2240000106394291, 0.944000044837594, 0.0, 0.0, 0.0, 0.0, 0.0, 1.763226272684842E9, 0.0, 2025-11-15 12:04:32.684
52.0, 665.4291794160381, 2733.3937702649273, -218.75983805814758, -178.86258533084765, -0.03200000151991844, 0.2240000106394291, 0.944000044837594, 0.0, 0.0, 0.0, 0.0, 0.0, 1.7632262726984477E9, 0.0, 2025-11-15 12:04:32.698
52.0, 750.216451311484, 2780.5352092063986, -198.38112319959328, -164.74820289807394, -0.03200000151991844, 0.2240000106394291, 0.944000044837594, 0.0, 0.0, 0.0, 0.0, 0.0, 1.7632262726984477E9, 0.0, 2025-11-15 12:04:32.698
53.0, 995.2771358080208, 3014.4135928354226, 13.689903787802905, 27.11240472877398, -0.03200000151991844, 0.2240000106394291, 0.944000044837594, 0.0, 0.0, 0.0, 0.0, 0.0, 1.7632262727141294E9, 0.0, 2025-11-15 12:04:32.714
53.0, 1222.0590592711233, 2792.7048436622135, -162.9493110193871, -133.38540186965838, -0.03200000151991844, 0.2240000106394291, 0.944000044837594, 0.0, 0.0, 0.0, 0.0, 0.0, 1.7632262727141294E9, 0.0, 2025-11-15 12:04:32.714
54.0, 1163.9971124590375, 2731.8865905827843, -239.62847981089726, -207.19980729511008, -0.03200000151991844, 0.2240000106394291, 0.944000044837594, 0.0, 0.0, 0.0, 0.0, 0.0, 1.7632262727148292E9, 0.0, 2025-11-15 12:04:32.714
54.0, 966.7828380456194, 2487.83006922435, -35.6281569278799, -32.11265096953139, -0.03200000151991844, 0.2240000106394291, 0.944000044837594, 0.0, 0.0, 0.0, 0.0, 0.0, 1.7632262727148292E9, 0.0, 2025-11-15 12:04:32.714
55.0, 843.7962280027568, 2404.3068835139275, -78.13585982425138, -61.63542121974751, -0.03200000151991844, 0.2240000106394291, 0.944000044837594, 0.0, 0.0, 0.0, 0.0, 0.0, 1.7632262727284932E9, 0.0, 2025-11-15 12:04:32.728
55.0, 679.1994910528883, 2249.093555552885, -224.56042288942263, -182.3668715893291, -0.03200000151991844, 0.2240000106394291, 0.944000044837594, 0.0, 0.0, 0.0, 0.0, 0.0, 1.7632262727284932E9, 0.0, 2025-11-15 12:04:32.728
56.0, 837.6440925756469, 2377.3870836328715, -133.3442629701458, -106.19632919179276, -0.03200000151991844, 0.2240000106394291, 0.944000044837594, 0.0, 0.0, 0.0, 0.0, 0.0, 1.763226272744154E9, 0.0, 2025-11-15 12:04:32.744
56.0, 957.1525956597179, 2489.3821277059615, -16.449949955102056, -11.752635610755533, -0.03200000151991844, 0.2240000106394291, 0.944000044837594, 0.0, 0.0, 0.0, 0.0, 0.0, 1.763226272744154E9, 0.0, 2025-11-15 12:04:32.744
57.0, 1169.8724952894263, 2251.479611724615, -224.33602889208123, -186.3311655423604, -0.03200000151991844, 0.2240000106394291, 0.944000044837594, 0.0, 0.0, 0.0, 0.0, 0.0, 1.7632262727448397E9, 0.0, 2025-11-15 12:04:32.744
57.0, 1246.364669083152, 2301.654109530151, -193.54169265693054, -172.5047554061748, -0.03200000151991844, 0.2240000106394291, 0.944000044837594, 0.0, 0.0, 0.0, 0.0, 0.0, 1.7632262727448397E9, 0.0, 2025-11-15 12:04:32.744
58.0, 1017.406123845838, 2540.596317699179, 22.27671408606693, 26.199869139585644, -0.03200000151991844, 0.2240000106394291, 0.944000044837594, 0.0, 0.0, 0.0, 0.0, 0.0, 1.7632262727584648E9, 0.0, 2025-11-15 12:04:32.758
58.0, 1254.1885397904553, 2311.5349252130836, -158.52874927176163, -134.98607905069366, -0.03200000151991844, 0.2240000106394291, 0.944000044837594, 0.0, 0.0, 0.0, 0.0, 0.0, 1.7632262727584648E9, 0.0, 2025-11-15 12:04:32.758
59.0, 1188.919805763755, 2260.429192318581, -221.72557872300968, -177.3217465491034, -0.03200000151991844, 0.2240000106394291, 0.944000044837594, 0.0, 0.0, 0.0, 0.0, 0.0, 1.7632262727741117E9, 0.0, 2025-11-15 12:04:32.774
59.0, 961.2141270115972, 2483.4581261761487, -39.012766387779266, -25.1788764516823, -0.03200000151991844, 0.2240000106394291, 0.944000044837594, 0.0, 0.0, 0.0, 0.0, 0.0, 1.7632262727741117E9, 0.0, 2025-11-15 12:04:32.774
60.0, 843.8411068022251, 2402.7024664329365, -82.14129267679527, -68.73375133564696, -0.03200000151991844, 0.2240000106394291, 0.9920000471174717, 0.0, 0.0, 0.0, 0.0, 0.0, 1.7632262727748287E9, 0.0, 2025-11-15 12:04:32.774
60.0, 686.4586368668824, 2252.6053216112778, -229.235297834035, -194.46170804603025, -0.03200000151991844, 0.2240000106394291, 0.9920000471174717, 0.0, 0.0, 0.0, 0.0, 0.0, 1.7632262727748287E9, 0.0, 2025-11-15 12:04:32.774
61.0, 863.4194830702618, 2399.54973077029, -110.51965354057029, -91.96226996043697, -0.03200000151991844, 0.2400000113993883, 0.9920000471174717, 0.0, 0.0, 0.0, 0.0, 0.0, 1.7632262727884543E9, 0.0, 2025-11-15 12:04:32.788
61.0, 956.5280323671177, 2499.8613273818046, 1.8232012283988297, 18.383478232193738, -0.03200000151991844, 0.2400000113993883, 0.9920000471174717, 0.0, 0.0, 0.0, 0.0, 0.0, 1.7632262727884543E9, 0.0, 2025-11-15 12:04:32.788
62.0, 1191.9566045277752, 2271.7349098846316, -204.2228469303809, -169.9466638364829, -0.03200000151991844, 0.2400000113993883, 0.9920000471174717, 0.0, 0.0, 0.0, 0.0, 0.0, 1.763226272804114E9, 0.0, 2025-11-15 12:04:32.804
62.0, 1261.4439457044937, 2315.585236865096, -182.38183118915185, -157.52271618368104, -0.03200000151991844, 0.2400000113993883, 0.9920000471174717, 0.0, 0.0, 0.0, 0.0, 0.0, 1.763226272804114E9, 0.0, 2025-11-15 12:04:32.804
63.0, 1042.0745039535686, 2560.6721006613225, 36.0358060230501, 39.869203477632254, -0.03200000151991844, 0.2400000113993883, 0.9920000471174717, 0.0, 0.0, 0.0, 0.0, 0.0, 1.763226272804816E9, 0.0, 2025-11-15 12:04:32.804
63.0, 1223.4877010541968, 2802.6043588449247, -156.47180429613218, -131.5603306912817, -0.03200000151991844, 0.2400000113993883, 0.9920000471174717, 0.0, 0.0, 0.0, 0.0, 0.0, 1.763226272804816E9, 0.0, 2025-11-15 12:04:32.804
64.0, 1222.6686629639007, 2777.0159633480944, -194.23731404868886, -154.47469771979377, -0.03200000151991844, 0.2400000113993883, 0.9920000471174717, 0.0, 0.0, 0.0, 0.0, 0.0, 1.7632262728184645E9, 0.0, 2025-11-15 12:04:32.818
64.0, 980.6990057807416, 2994.45000687195, -20.833112703170627, -21.56987299444154, -0.03200000151991844, 0.2400000113993883, 0.9920000471174717, 0.0, 0.0, 0.0, 0.0, 0.0, 1.7632262728184645E9, 0.0, 2025-11-15 12:04:32.818
65.0, 862.6041848799214, 2904.778425634373, -72.22307799430564, -60.89118112856522, -0.03200000151991844, 0.2400000113993883, 0.9920000471174717, 0.0, 0.0, 0.0, 0.0, 0.0, 1.7632262728341224E9, 0.0, 2025-11-15 12:04:32.834
65.0, 692.8015071917325, 2751.8688760460354, -213.9765060148202, -188.79201971320435, -0.03200000151991844, 0.2400000113993883, 0.9920000471174717, 0.0, 0.0, 0.0, 0.0, 0.0, 1.7632262728341224E9, 0.0, 2025-11-15 12:04:32.834
66.0, 867.5445927213877, 2896.6890220302157, -102.37041153712198, -92.08568665897474, -0.03200000151991844, 0.2400000113993883, 0.9920000471174717, 0.0, 0.0, 0.0, 0.0, 0.0, 1.763226272834829E9, 0.0, 2025-11-15 12:04:32.834
66.0, 972.0747964829206, 3003.4257667656057, 11.47214311407879, 15.200823369901627, -0.03200000151991844, 0.2400000113993883, 0.9920000471174717, 0.0, 0.0, 0.0, 0.0, 0.0, 1.763226272834829E9, 0.0, 2025-11-15 12:04:32.834
67.0, 1183.841021623928, 2761.5739164310507, -194.13259684992954, -152.0886415480636, -0.03200000151991844, 0.2400000113993883, 0.9920000471174717, 0.0, 0.0, 0.0, 0.0, 0.0, 1.7632262728484805E9, 0.0, 2025-11-15 12:04:32.848
67.0, 1259.125207731966, 2802.948429640848, -181.48799509974197, -160.0209693540819, -0.03200000151991844, 0.2400000113993883, 0.9920000471174717, 0.0, 0.0, 0.0, 0.0, 0.0, 1.7632262728484805E9, 0.0, 2025-11-15 12:04:32.848
68.0, 1029.0708718076348, 3043.1098451954313, 33.451535153668374, 40.42270867107436, -0.03200000151991844, 0.2400000113993883, 0.9920000471174717, 0.0, 0.0, 0.0, 0.0, 0.0, 1.7632262728641477E9, 0.0, 2025-11-15 12:04:32.864
68.0, 1251.8324028183706, 2820.9298686278053, -143.10914175445214, -117.43472855864093, -0.03200000151991844, 0.2400000113993883, 0.9920000471174717, 0.0, 0.0, 0.0, 0.0, 0.0, 1.7632262728641477E9, 0.0, 2025-11-15 12:04:32.864
69.0, 1195.7600827827118, 2758.2267059707083, -214.58236980764195, -176.3568523605354, -0.03200000151991844, 0.2400000113993883, 0.9920000471174717, 0.0, 0.0, 0.0, 0.0, 0.0, 1.763226272864837E9, 0.0, 2025-11-15 12:04:32.864
69.0, 971.0313643952832, 2995.6243354580365, -17.418584043625742, -8.768195446114987, -0.03200000151991844, 0.2400000113993883, 0.9920000471174717, 0.0, 0.0, 0.0, 0.0, 0.0, 1.763226272864837E9, 0.0, 2025-11-15 12:04:32.864
70.0, 870.3719570878893, 2914.943473713938, -61.538183820899576, -50.0417313571088, -0.03200000151991844, 0.2400000113993883, 0.9920000471174717, 0.0, 0.0, 0.0, 0.0, 0.0, 1.7632262728784547E9, 0.0, 2025-11-15 12:04:32.878
70.0, 695.292280562222, 2757.2131930827163, -215.55474379612133, -180.88961110683158, -0.03200000151991844, 0.2400000113993883, 0.9920000471174717, 0.0, 0.0, 0.0, 0.0, 0.0, 1.7632262728784547E9, 0.0, 2025-11-15 12:04:32.878
71.0, 868.6665627080947, 2894.804112452548, -110.67672933870926, -100.02175436494872, -0.03200000151991844, 0.2400000113993883, 0.9920000471174717, 0.0, 0.0, 0.0, 0.0, 0.0, 1.7632262728941233E9, 0.0, 2025-11-15 12:04:32.894
71.0, 988.7323108855635, 3012.214531661477, 14.090073083061725, 10.810180821921676, -0.03200000151991844, 0.2400000113993883, 0.9920000471174717, 0.0, 0.0, 0.0, 0.0, 0.0, 1.7632262728941233E9, 0.0, 2025-11-15 12:04:32.894
72.0, 1203.8569661867805, 2774.7682834747247, -190.2244013962336, -157.22352418722585, -0.03200000151991844, 0.2400000113993883, 0.9920000471174717, 0.0, 0.0, 0.0, 0.0, 0.0, 1.7632262728948312E9, 0.0, 2025-11-15 12:04:32.894
72.0, 1252.2587514133193, 2796.9982488113455, -183.97502857027575, -161.8310809326358, -0.03200000151991844, 0.2400000113993883, 0.9920000471174717, 0.0, 0.0, 0.0, 0.0, 0.0, 1.7632262728948312E9, 0.0, 2025-11-15 12:04:32.894
73.0, 1033.54379215464, 2559.4154942762107, 44.90310881799087, 55.44214689312503, -0.03200000151991844, 0.2400000113993883, 0.9920000471174717, 0.0, 0.0, 0.0, 0.0, 0.0, 1.7632262729084487E9, 0.0, 2025-11-15 12:04:32.908
73.0, 1233.398435936775, 2320.7986574033275, -148.50955729046836, -123.29141188925132, -0.03200000151991844, 0.2400000113993883, 0.9920000471174717, 0.0, 0.0, 0.0, 0.0, 0.0, 1.7632262729084487E9, 0.0, 2025-11-15 12:04:32.908
74.0, 1204.1337187835015, 2276.17043123208, -204.2639858298935, -158.91769886715338, -0.03200000151991844, 0.2400000113993883, 0.9920000471174717, 0.0, 0.0, 0.0, 0.0, 0.0, 1.763226272924156E9, 0.0, 2025-11-15 12:04:32.924
74.0, 968.0244848309085, 2504.016356232576, -16.72296265186742, 0.0766679490916431, -0.03200000151991844, 0.2400000113993883, 0.9920000471174717, 0.0, 0.0, 0.0, 0.0, 0.0, 1.763226272924156E9, 0.0, 2025-11-15 12:04:32.924
75.0, 862.1890559848398, 2428.6087534260005, -57.40559436986223, -42.15428235055879, -0.03200000151991844, 0.2400000113993883, 0.9920000471174717, 0.0, 0.0, 0.0, 0.0, 0.0, 1.7632262729248407E9, 0.0, 2025-11-15 12:04:32.924
75.0, 704.9786214474589, 2261.188392009586, -216.84874918079004, -173.3611924960278, -0.03200000151991844, 0.2400000113993883, 0.9920000471174717, 0.0, 0.0, 0.0, 0.0, 0.0, 1.7632262729248407E9, 0.0, 2025-11-15 12:04:32.924
76.0, 873.2329805539921, 2412.9759716112167, -99.86093866685405, -87.15275861741975, -0.03200000151991844, 0.2400000113993883, 0.9920000471174717, 0.0, 0.0, 0.0, 0.0, 0.0, 1.7632262729384434E9, 0.0, 2025-11-15 12:04:32.938
76.0, 983.5600292468444, 2522.424143814482, 12.758668698836118, 4.310234698932618, -0.03200000151991844, 0.2400000113993883, 0.9920000471174717, 0.0, 0.0, 0.0, 0.0, 0.0, 1.7632262729384434E9, 0.0, 2025-11-15 12:04:32.938
77.0, 1184.6525799143128, 2766.084235777613, -200.1538357785903, -176.70092315645888, -0.03200000151991844, 0.2400000113993883, 0.9920000471174717, 0.0, 0.0, 0.0, 0.0, 0.0, 1.7632262729541008E9, 0.0, 2025-11-15 12:04:32.954
77.0, 1256.6419141613878, 2819.5984642435797, -164.93145799590275, -134.95615985104814, -0.03200000151991844, 0.2400000113993883, 0.9920000471174717, 0.0, 0.0, 0.0, 0.0, 0.0, 1.7632262729541008E9, 0.0, 2025-11-15 12:04:32.954
78.0, 1036.7414066167548, 3051.0421730014496, 47.57339738635346, 52.13233543233946, -0.03200000151991844, 0.2400000113993883, 0.9920000471174717, 0.0, 0.0, 0.0, 0.0, 0.0, 1.7632262729548173E9, 0.0, 2025-11-15 12:04:32.954
78.0, 1243.9935725112446, 2820.477340733167, -134.88510175189003, -98.33505948493257, -0.03200000151991844, 0.2400000113993883, 0.9920000471174717, 0.0, 0.0, 0.0, 0.0, 0.0, 1.7632262729548173E9, 0.0, 2025-11-15 12:04:32.954
79.0, 1213.3862312738784, 2772.318649003748, -197.9323352049105, -168.62273925216869, -0.03200000151991844, 0.2400000113993883, 0.9920000471174717, 0.0, 0.0, 0.0, 0.0, 0.0, 1.7632262729684348E9, 0.0, 2025-11-15 12:04:32.968
79.0, 989.3942731777206, 3006.4326463299803, -1.1948980358429253, -5.402285485994071, -0.03200000151991844, 0.2400000113993883, 0.9920000471174717, 0.0, 0.0, 0.0, 0.0, 0.0, 1.7632262729684348E9, 0.0, 2025-11-15 12:04:32.968
80.0, 871.5500255739316, 2915.571776906494, -58.17601376073435, -47.105909891892225, -0.03200000151991844, 0.2400000113993883, 1.008000047877431, 0.0, 0.0, 0.0, 0.0, 0.0, 1.7632262729841275E9, 0.0, 2025-11-15 12:04:32.984
80.0, 694.3610454732552, 2763.3840280096047, -193.69502855511382, -150.92553266184404, -0.03200000151991844, 0.2400000113993883, 1.008000047877431, 0.0, 0.0, 0.0, 0.0, 0.0, 1.7632262729841275E9, 0.0, 2025-11-15 12:04:32.984
81.0, 859.7880402132869, 2894.2206880594604, -103.5148209235631, -95.64981131674722, -0.03200000151991844, 0.2400000113993883, 1.008000047877431, 0.0, 0.0, 0.0, 0.0, 0.0, 1.7632262729848351E9, 0.0, 2025-11-15 12:04:32.984
81.0, 996.5449618929997, 3025.794108400587, 30.79246628517285, 40.96125426469371, -0.03200000151991844, 0.2400000113993883, 1.008000047877431, 0.0, 0.0, 0.0, 0.0, 0.0, 1.7632262729848351E9, 0.0, 2025-11-15 12:04:32.984
82.0, 1193.0748346145265, 3263.23100683745, -180.51936101121828, -154.78510941611603, -0.03200000151991844, 0.2400000113993883, 1.008000047877431, 0.0, 0.0, 0.0, 0.0, 0.0, 1.7632262729984777E9, 0.0, 2025-11-15 12:04:32.998
82.0, 1256.3053231653757, 3303.431191461161, -169.2136434451677, -143.80476314621046, -0.03200000151991844, 0.2400000113993883, 1.008000047877431, 0.0, 0.0, 0.0, 0.0, 0.0, 1.7632262729984777E9, 0.0, 2025-11-15 12:04:32.998
83.0, 1030.3760968921706, 3535.9893904058263, 39.15488258609548, 35.95726812398061, -0.03200000151991844, 0.2400000113993883, 1.008000047877431, 0.0, 0.0, 0.0, 0.0, 0.0, 1.7632262730141103E9, 0.0, 2025-11-15 12:04:33.014
83.0, 1243.7990977135487, 3301.3480671858415, -151.17610595887527, -123.24653308978304, -0.03200000151991844, 0.2400000113993883, 1.008000047877431, 0.0, 0.0, 0.0, 0.0, 0.0, 1.7632262730141103E9, 0.0, 2025-11-15 12:04:33.014
84.0, 1199.7916949349456, 3254.1692292448133, -204.0807307320647, -163.48785661300644, -0.03200000151991844, 0.2400000113993883, 1.008000047877431, 0.0, 0.0, 0.0, 0.0, 0.0, 1.7632262730148172E9, 0.0, 2025-11-15 12:04:33.014
84.0, 975.6314413407817, 3488.1785093722865, -4.093320501502603, 20.414243908133358, -0.03200000151991844, 0.2400000113993883, 1.008000047877431, 0.0, 0.0, 0.0, 0.0, 0.0, 1.7632262730148172E9, 0.0, 2025-11-15 12:04:33.014
85.0, 856.7662010490894, 3407.7968396246433, -52.03883793344721, -27.99876101827249, -0.03200000151991844, 0.2400000113993883, 1.008000047877431, 0.0, 0.0, 0.0, 0.0, 0.0, 1.7632262730284665E9, 0.0, 2025-11-15 12:04:33.028
85.0, 682.7262167111039, 3234.8451661737636, -216.03719089040533, -186.9183298354037, -0.03200000151991844, 0.2400000113993883, 1.008000047877431, 0.0, 0.0, 0.0, 0.0, 0.0, 1.7632262730284665E9, 0.0, 2025-11-15 12:04:33.028
86.0, 853.1123187923804, 3371.9012798499316, -113.477914405521, -101.95902254199609, -0.03200000151991844, 0.2400000113993883, 1.008000047877431, 0.0, 0.0, 0.0, 0.0, 0.0, 1.7632262730441291E9, 0.0, 2025-11-15 12:04:33.044
86.0, 997.1358660859987, 3499.3458506399766, 10.903678320813924, 14.778214674908668, -0.03200000151991844, 0.2400000113993883, 1.008000047877431, 0.0, 0.0, 0.0, 0.0, 0.0, 1.7632262730441291E9, 0.0, 2025-11-15 12:04:33.044
87.0, 1172.4305868591182, 3736.173145384062, -198.05201200349256, -146.96871850872412, -0.03200000151991844, 0.2400000113993883, 1.008000047877431, 0.0, 0.0, 0.0, 0.0, 0.0, 1.7632262730448227E9, 0.0, 2025-11-15 12:04:33.044
87.0, 1264.540582867805, 3787.4359540767036, -172.53467460582033, -131.73610598919913, -0.03200000151991844, 0.2400000113993883, 1.008000047877431, 0.0, 0.0, 0.0, 0.0, 0.0, 1.7632262730448227E9, 0.0, 2025-11-15 12:04:33.044
88.0, 1030.4882938908413, 4019.8707363228314, 26.01661404175684, 25.50424774782732, -0.03200000151991844, 0.2400000113993883, 1.008000047877431, 0.0, 0.0, 0.0, 0.0, 0.0, 1.7632262730584538E9, 0.0, 2025-11-15 12:04:33.058
88.0, 1242.7968045254238, 3790.5138917402364, -152.95255843782797, -115.11599058611318, -0.03200000151991844, 0.2400000113993883, 1.008000047877431, 0.0, 0.0, 0.0, 0.0, 0.0, 1.7632262730584538E9, 0.0, 2025-11-15 12:04:33.058
89.0, 1207.5071085435338, 3743.821240793448, -209.3726891693659, -171.22944952128455, -0.03200000151991844, 0.2400000113993883, 1.008000047877431, 0.0, 0.0, 0.0, 0.0, 0.0, 1.76322627307386E9, 0.0, 2025-11-15 12:04:33.073
89.0, 968.4059546263888, 3968.7201246288605, -22.74046168057248, -6.269942275714129, -0.03200000151991844, 0.2400000113993883, 1.008000047877431, 0.0, 0.0, 0.0, 0.0, 0.0, 1.76322627307386E9, 0.0, 2025-11-15 12:04:33.073
90.0, 864.418036358431, 3892.1830720356666, -59.567256544250995, -27.381677525583655, -0.03200000151991844, 0.2400000113993883, 1.008000047877431, 0.0, 0.0, 0.0, 0.0, 0.0, 1.763226273089174E9, 0.0, 2025-11-15 12:04:33.089
90.0, 707.8433848135173, 3735.066134997178, -221.09727553045377, -182.65484388591722, -0.03200000151991844, 0.2400000113993883, 1.008000047877431, 0.0, 0.0, 0.0, 0.0, 0.0, 1.763226273089174E9, 0.0, 2025-11-15 12:04:33.089
91.0, 848.1644311510026, 3857.192568050232, -123.10067699151114, -106.50300098815933, -0.03200000151991844, 0.2400000113993883, 1.008000047877431, 0.0, 0.0, 0.0, 0.0, 0.0, 1.7632262730898547E9, 0.0, 2025-11-15 12:04:33.089
91.0, 976.9291866254061, 3984.4351842426695, 9.127225841861218, 22.665663681458682, -0.03200000151991844, 0.2400000113993883, 1.008000047877431, 0.0, 0.0, 0.0, 0.0, 0.0, 1.7632262730898547E9, 0.0, 2025-11-15 12:04:33.089
92.0, 1203.8120873873122, 3752.7259425879456, -187.5840320275165, -148.5357365901582, -0.03200000151991844, 0.2400000113993883, 1.008000047877431, 0.0, 0.0, 0.0, 0.0, 0.0, 1.7632262731041734E9, 0.0, 2025-11-15 12:04:33.104
92.0, 1258.3959272406064, 3782.813437731471, -175.3209000728093, -143.18019985361025, -0.03200000151991844, 0.2400000113993883, 1.008000047877431, 0.0, 0.0, 0.0, 0.0, 0.0, 1.7632262731041734E9, 0.0, 2025-11-15 12:04:33.104
93.0, 1042.889802143909, 3543.0914604216814, 47.20688719069585, 74.93076556222513, -0.03200000151991844, 0.2400000113993883, 1.008000047877431, 0.0, 0.0, 0.0, 0.0, 0.0, 1.763226273104818E9, 0.0, 2025-11-15 12:04:33.104
93.0, 816.7866705227643, 3320.238301862031, -141.9759520678781, -116.27909947233275, -0.03200000151991844, 0.2400000113993883, 1.008000047877431, 0.0, 0.0, 0.0, 0.0, 0.0, 1.763226273104818E9, 0.0, 2025-11-15 12:04:33.104
94.0, 687.2103567579761, 3241.846258890815, -219.90798734454438, -181.00180810550228, -0.03200000151991844, 0.2400000113993883, 1.008000047877431, 0.0, 0.0, 0.0, 0.0, 0.0, 1.763226273118507E9, 0.0, 2025-11-15 12:04:33.118
94.0, 467.92693270603195, 3475.051460527815, -22.79282027995214, -5.581800683867186, -0.03200000151991844, 0.2400000113993883, 1.008000047877431, 0.0, 0.0, 0.0, 0.0, 0.0, 1.763226273118507E9, 0.0, 2025-11-15 12:04:33.118
95.0, 384.8974137897603, 3413.952714951709, -53.05235082143918, -23.780153868254274, -0.03200000151991844, 0.2400000113993883, 1.008000047877431, 0.0, 0.0, 0.0, 0.0, 0.0, 1.7632262731340973E9, 0.0, 2025-11-15 12:04:33.134
95.0, 211.97939943848178, 3247.4149699248374, -206.25361260632053, -170.3991917311214, -0.03200000151991844, 0.2400000113993883, 1.008000047877431, 0.0, 0.0, 0.0, 0.0, 0.0, 1.7632262731340973E9, 0.0, 2025-11-15 12:04:33.134
96.0, 388.85796784283593, 3390.1370320338756, -92.46341655449942, -67.937152645085, -0.03200000151991844, 0.2400000113993883, 1.008000047877431, 0.0, 0.0, 0.0, 0.0, 0.0, 1.7632262731348171E9, 0.0, 2025-11-15 12:04:33.134
96.0, 480.75104965409264, 3497.565658261068, 18.480715631041676, 41.32028466043994, -0.03200000151991844, 0.2400000113993883, 1.008000047877431, 0.0, 0.0, 0.0, 0.0, 0.0, 1.7632262731348171E9, 0.0, 2025-11-15 12:04:33.134
97.0, 707.3571978192776, 3257.176108809188, -199.34975728811696, -167.37361266696826, -0.03200000151991844, 0.2400000113993883, 1.008000047877431, 0.0, 0.0, 0.0, 0.0, 0.0, 1.7632262731484215E9, 0.0, 2025-11-15 12:04:33.148
97.0, 763.7922881506383, 3289.5299833258614, -183.95258917054161, -157.85930717969313, -0.03200000151991844, 0.2400000113993883, 1.008000047877431, 0.0, 0.0, 0.0, 0.0, 0.0, 1.7632262731484215E9, 0.0, 2025-11-15 12:04:33.148
98.0, 541.7151588317938, 3531.89046005439, 30.81490568490699, 35.411242730449885, -0.03200000151991844, 0.2400000113993883, 1.008000047877431, 0.0, 0.0, 0.0, 0.0, 0.0, 1.7632262731641383E9, 0.0, 2025-11-15 12:04:33.164
98.0, 762.9358510607854, 3312.219956357032, -141.62440147204325, -99.61784516973421, -0.03200000151991844, 0.2400000113993883, 1.008000047877431, 0.0, 0.0, 0.0, 0.0, 0.0, 1.7632262731641383E9, 0.0, 2025-11-15 12:04:33.164
99.0, 710.8353047780693, 3250.279733290896, -210.5993763548322, -172.01108861202374, -0.03200000151991844, 0.2400000113993883, 1.008000047877431, 0.0, 0.0, 0.0, 0.0, 0.0, 1.7632262731648333E9, 0.0, 2025-11-15 12:04:33.164
99.0, 471.84634785959497, 3480.9305832581595, -15.761808363255113, -6.124086177442223, -0.03200000151991844, 0.2400000113993883, 1.008000047877431, 0.0, 0.0, 0.0, 0.0, 0.0, 1.7632262731648333E9, 0.0, 2025-11-15 12:04:33.164
100.0, 385.4957977826707, 3414.528659544885, -48.58691027434543, -31.099138081539422, -0.03200000151991844, 0.2400000113993883, 1.008000047877431, 0.0, 0.0, 0.0, 0.0, 0.0, 1.7632262731791673E9, 0.0, 2025-11-15 12:04:33.179
100.0, 206.23491310654208, 3244.6885828571394, -210.2253863592632, -175.00674847653136, -0.03200000151991844, 0.2400000113993883, 1.008000047877431, 0.0, 0.0, 0.0, 0.0, 0.0, 1.7632262731791673E9, 0.0, 2025-11-15 12:04:33.179
0.0, -109.03678320813924, -46.59167364798486, -106.60771818691865, -72.13893024530262, -0.03200000151991844, 0.2400000113993883, 1.008000047877431, 0.0, 0.0, 0.0, 0.0, 0.0, 1.7632262731798677E9, 0.0, 2025-11-15 12:04:33.179
1.0, -3.4369680592790246, 72.93926883582026, 18.981862225104123, 40.73125041741878, -0.03200000151991844, 0.2400000113993883, 1.008000047877431, 0.0, 0.0, 0.0, 0.0, 0.0, 1.7632262731934843E9, 0.0, 2025-11-15 12:04:33.193
1.0, 211.46329324459657, 310.8773138667457, -209.02113857353106, -184.7173987114802, -0.03200000151991844, 0.2400000113993883, 1.008000047877431, 0.0, 0.0, 0.0, 0.0, 0.0, 1.7632262731934843E9, 0.0, 2025-11-15 12:04:33.193
2.0, 286.1864943592809, 362.1214230596088, -168.48436295380816, -129.41175816673785, -0.03200000151991844, 0.2400000113993883, 1.008000047877431, 0.0, 0.0, 0.0, 0.0, 0.0, 1.763226273209164E9, 0.0, 2025-11-15 12:04:33.209
2.0, 67.29949970263988, 117.5001768078655, 41.39508265955374, 48.67105802334845, -0.03200000151991844, 0.2400000113993883, 1.008000047877431, 0.0, 0.0, 0.0, 0.0, 0.0, 1.763226273209164E9, 0.0, 2025-11-15 12:04:33.209
3.0, 272.3413847233169, -115.28241613414139, -139.1560675012879, -107.74277782347053, -0.03200000151991844, 0.2400000113993883, 1.008000047877431, 0.0, 0.0, 0.0, 0.0, 0.0, 1.7632262732098775E9, 0.0, 2025-11-15 12:04:33.209
3.0, 225.43929937900975, -172.40190815739334, -202.87648294633254, -159.98918020445853, -0.03200000151991844, 0.2400000113993883, 1.008000047877431, 0.0, 0.0, 0.0, 0.0, 0.0, 1.7632262732098775E9, 0.0, 2025-11-15 12:04:33.209
4.0, -3.867056554183364, 59.55416689440608, -7.590126960072666, -2.2813389729708433, -0.03200000151991844, 0.2400000113993883, 1.008000047877431, 0.0, 0.0, 0.0, 0.0, 0.0, 1.7632262732234304E9, 0.0, 2025-11-15 12:04:33.223
4.0, -103.8271025698632, -11.028964969329536, -47.66689488524571, -28.894467057660222, -0.03200000151991844, 0.2400000113993883, 1.008000047877431, 0.0, 0.0, 0.0, 0.0, 0.0, 1.7632262732234304E9, 0.0, 2025-11-15 12:04:33.223
5.0, -275.8064020322636, -176.10066921357065, -202.17338175466284, -167.8167908117175, -0.03200000151991844, 0.2400000113993883, 1.008000047877431, 0.0, 0.0, 0.0, 0.0, 0.0, 1.7632262732392073E9, 0.0, 2025-11-15 12:04:33.239
5.0, -104.53394366148859, -44.94237776752561, -101.00908795325086, -78.9642476644367, -0.03200000151991844, 0.2400000113993883, 1.008000047877431, 0.0, 0.0, 0.0, 0.0, 0.0, 1.7632262732392073E9, 0.0, 2025-11-15 12:04:33.239
6.0, 33.161692907102406, 92.3044708063826, 34.667002639267594, 48.25966902822256, -0.03200000151991844, 0.2400000113993883, 1.008000047877431, 0.0, 0.0, 0.0, 0.0, 0.0, 1.763226273239872E9, 0.0, 2025-11-15 12:04:33.239
6.0, 216.2690646876581, 322.40742543013766, -191.36133098276332, -160.01161960419267, -0.03200000151991844, 0.2400000113993883, 1.008000047877431, 0.0, 0.0, 0.0, 0.0, 0.0, 1.763226273239872E9, 0.0, 2025-11-15 12:04:33.239
7.0, 253.78774104313925, 347.46475513326004, -178.23428213829175, -148.2945130430162, -0.03200000151991844, 0.2400000113993883, 1.008000047877431, 0.0, 0.0, 0.0, 0.0, 0.0, 1.7632262732534149E9, 0.0, 2025-11-15 12:04:33.253
7.0, 64.19164283946157, 118.56978819519281, 50.36710265325382, 54.41180445533246, -0.03200000151991844, 0.2400000113993883, 1.008000047877431, 0.0, 0.0, 0.0, 0.0, 0.0, 1.7632262732534149E9, 0.0, 2025-11-15 12:04:33.253
8.0, 296.54227733658627, -106.37023453973234, -126.94529414596036, -97.71984594222158, -0.03200000151991844, 0.2400000113993883, 1.008000047877431, 0.0, 0.0, 0.0, 0.0, 0.0, 1.7632262732691658E9, 0.0, 2025-11-15 12:04:33.269
8.0, 209.79529786435887, -180.0462636668235, -212.6712809302844, -171.50807206798345, -0.03200000151991844, 0.2400000113993883, 1.008000047877431, 0.0, 0.0, 0.0, 0.0, 0.0, 1.7632262732691658E9, 0.0, 2025-11-15 12:04:33.269
9.0, -8.194120802916586, 53.96301646064967, -17.362485544290394, -4.211127350106835, -0.03200000151991844, 0.2400000113993883, 1.008000047877431, 0.0, 0.0, 0.0, 0.0, 0.0, 1.7632262732698689E9, 0.0, 2025-11-15 12:04:33.269
9.0, -99.53743732068688, -8.807464395649731, -44.312204624991864, -21.055636750534177, -0.03200000151991844, 0.2400000113993883, 1.008000047877431, 0.0, 0.0, 0.0, 0.0, 0.0, 1.7632262732698689E9, 0.0, 2025-11-15 12:04:33.269
10.0, -275.7278641331941, -179.46657917369157, -206.24613280640915, -164.03201205655932, -0.03200000151991844, 0.2400000113993883, 1.008000047877431, 0.0, 0.0, 0.0, 0.0, 0.0, 1.7632262732834485E9, 0.0, 2025-11-15 12:04:33.283
10.0, -119.21305098757148, -48.2821084279567, -104.96216220641509, -76.11444389820099, -0.03200000151991844, 0.2400000113993883, 1.008000047877431, 0.0, 0.0, 0.0, 0.0, 0.0, 1.7632262732834485E9, 0.0, 2025-11-15 12:04:33.283
11.0, 12.371589053422213, 78.26488637272269, 20.911650602240115, 28.262423965148628, -0.03200000151991844, 0.25600001215934753, 1.008000047877431, 0.0, 0.0, 0.0, 0.0, 0.0, 1.7632262732991357E9, 0.0, 2025-11-15 12:04:33.299
11.0, 222.7166522112675, -166.66490162536502, -188.4816080168821, -151.06577891018242, -0.03200000151991844, 0.25600001215934753, 1.008000047877431, 0.0, 0.0, 0.0, 0.0, 0.0, 1.7632262732991357E9, 0.0, 2025-11-15 12:04:33.299
12.0, 281.8930892101489, -126.12812600564212, -166.4685568776913, -135.07770659960806, -0.03200000151991844, 0.25600001215934753, 1.008000047877431, 0.0, 0.0, 0.0, 0.0, 0.0, 1.7632262732998483E9, 0.0, 2025-11-15 12:04:33.299
12.0, 53.64512496441603, 115.31981513369828, 43.15657553868368, 47.36957283876836, -0.03200000151991844, 0.25600001215934753, 1.008000047877431, 0.0, 0.0, 0.0, 0.0, 0.0, 1.7632262732998483E9, 0.0, 2025-11-15 12:04:33.299
13.0, 287.3832623451017, -102.79863008204848, -126.6348824496381, -101.47470549773425, -0.03200000151991844, 0.25600001215934753, 1.008000047877431, 0.0, 0.0, 0.0, 0.0, 0.0, 1.7632262733297963E9, 0.0, 2025-11-15 12:04:33.329
13.0, 247.953497112263, -148.42914944142103, -178.5072948350571, -139.1803768509999, -0.03200000151991844, 0.25600001215934753, 1.008000047877431, 0.0, 0.0, 0.0, 0.0, 0.0, 1.7632262733297963E9, 0.0, 2025-11-15 12:04:33.329
14.0, 8.366156200878322, 66.16257011611015, -3.304201610852033, 15.640261614695191, -0.03200000151991844, 0.25600001215934753, 1.008000047877431, 0.0, 0.0, 0.0, 0.0, 0.0, 1.763226273330504E9, 0.0, 2025-11-15 12:04:33.330
14.0, -88.82636384759098, 1.125709886662662, -43.033158840145916, -29.81822234671563, -0.03200000151991844, 0.25600001215934753, 1.008000047877431, 0.0, 0.0, 0.0, 0.0, 0.0, 1.763226273330504E9, 0.0, 2025-11-15 12:04:33.330
15.0, -291.41300454735756, -178.1202151896432, -206.20873380685225, -169.0060789976269, -0.03200000151991844, 0.25600001215934753, 1.008000047877431, 0.0, 0.0, 0.0, 0.0, 0.0, 1.763226273331307E9, 0.0, 2025-11-15 12:04:33.331
15.0, -113.26661005802453, -46.22142355237156, -102.81545963184908, -84.61897639743984, -0.03200000151991844, 0.25600001215934753, 1.008000047877431, 0.0, 0.0, 0.0, 0.0, 0.0, 1.763226273331307E9, 0.0, 2025-11-15 12:04:33.331
16.0, 6.110996527597308, 81.84023073036224, 31.510527076665312, 39.07821463700384, -0.03200000151991844, 0.25600001215934753, 1.008000047877431, 0.0, 0.0, 0.0, 0.0, 0.0, 1.76322627334345E9, 0.0, 2025-11-15 12:04:33.343
16.0, 240.5784143996425, -147.98784124664962, -175.76220826758072, -147.67742955032736, -0.03200000151991844, 0.25600001215934753, 1.008000047877431, 0.0, 0.0, 0.0, 0.0, 0.0, 1.76322627334345E9, 0.0, 2025-11-15 12:04:33.343
17.0, 273.05570561485365, -128.5478412769735, -176.27457456151024, -142.3592918133363, -0.03200000151991844, 0.25600001215934753, 1.008000047877431, 0.0, 0.0, 0.0, 0.0, 0.0, 1.7632262733591225E9, 0.0, 2025-11-15 12:04:33.359
17.0, 67.08258550520986, -367.2002071994357, 52.334290029946715, 58.63041160535067, -0.03200000151991844, 0.25600001215934753, 1.008000047877431, 0.0, 0.0, 0.0, 0.0, 0.0, 1.7632262733591225E9, 0.0, 2025-11-15 12:04:33.359
18.0, 272.5246398211457, -608.0086254463531, -143.95061924448237, -105.26322415284812, -0.03200000151991844, 0.25600001215934753, 1.008000047877431, 0.0, 0.0, 0.0, 0.0, 0.0, 1.7632262733598266E9, 0.0, 2025-11-15 12:04:33.359
18.0, 227.69071915233508, -662.3755511022173, -215.7118195942603, -180.48757186159492, -0.03200000151991844, 0.25600001215934753, 1.008000047877431, 0.0, 0.0, 0.0, 0.0, 0.0, 1.7632262733598266E9, 0.0, 2025-11-15 12:04:33.359
19.0, -7.105809915810823, -439.39523594407365, -30.078145393636078, -19.926186963915825, -0.03200000151991844, 0.25600001215934753, 1.008000047877431, 0.0, 0.0, 0.0, 0.0, 0.0, 1.7632262733734634E9, 0.0, 2025-11-15 12:04:33.373
19.0, -108.85352811031044, -511.2162746931426, -59.79913034150377, -35.596367778256536, -0.03200000151991844, 0.25600001215934753, 1.008000047877431, 0.0, 0.0, 0.0, 0.0, 0.0, 1.7632262733734634E9, 0.0, 2025-11-15 12:04:33.373
20.0, -279.5051630884409, -676.2057011383586, -213.35942252213135, -172.20743335969746, -0.03200000151991844, 0.25600001215934753, 1.008000047877431, 0.0, 0.0, 0.0, 0.0, 0.0, 1.763226273389171E9, 0.0, 2025-11-15 12:04:33.389
20.0, -114.65037304162979, -527.252965703141, -90.53362817736343, -72.16510954499245, -0.03200000151991844, 0.25600001215934753, 1.008000047877431, 0.0, 0.0, 0.0, 0.0, 0.0, 1.763226273389171E9, 0.0, 2025-11-15 12:04:33.389
21.0, 12.663301249966025, -412.15754456678405, 22.190696387086064, 32.70168521255255, -0.03200000151991844, 0.25600001215934753, 1.008000047877431, 0.0, 0.0, 0.0, 0.0, 0.0, 1.7632262733898418E9, 0.0, 2025-11-15 12:04:33.389
21.0, 212.97795272665098, -651.6195988296531, -186.50694084027782, -148.61988433916122, -0.03200000151991844, 0.25600001215934753, 1.008000047877431, 0.0, 0.0, 0.0, 0.0, 0.0, 1.7632262733898418E9, 0.0, 2025-11-15 12:04:33.389
22.0, 260.72151556098834, -627.7440775125287, -185.67668305011466, -147.0341667579487, -0.03200000151991844, 0.25600001215934753, 1.008000047877431, 0.0, 0.0, 0.0, 0.0, 0.0, 1.763226273403488E9, 0.0, 2025-11-15 12:04:33.403
22.0, 66.81705260835588, -854.5933191748336, 52.289411230478436, 51.98086948413402, -0.03200000151991844, 0.25600001215934753, 1.008000047877431, 0.0, 0.0, 0.0, 0.0, 0.0, 1.763226273403488E9, 0.0, 2025-11-15 12:04:33.403
23.0, 283.3329506930895, -1075.8009217539802, -121.4102422115393, -97.9330202396959, -0.03200000151991844, 0.25600001215934753, 1.008000047877431, 0.0, 0.0, 0.0, 0.0, 0.0, 1.7632262734191213E9, 0.0, 2025-11-15 12:04:33.419
23.0, 229.17171953478828, -1144.839474936016, -198.42226209910586, -164.57055765017867, -0.03200000151991844, 0.25600001215934753, 1.008000047877431, 0.0, 0.0, 0.0, 0.0, 0.0, 1.7632262734191213E9, 0.0, 2025-11-15 12:04:33.419
24.0, 0.18699499778449535, -908.6311336345971, -4.512189296539873, 4.966587141156197, -0.03200000151991844, 0.25600001215934753, 1.008000047877431, 0.0, 0.0, 0.0, 0.0, 0.0, 1.7632262734198363E9, 0.0, 2025-11-15 12:04:33.419
24.0, -116.11641382426023, -996.5935805924237, -51.21979984315112, -39.17919193580747, -0.03200000151991844, 0.25600001215934753, 1.008000047877431, 0.0, 0.0, 0.0, 0.0, 0.0, 1.7632262734198363E9, 0.0, 2025-11-15 12:04:33.419
25.0, -249.8253170400858, -1135.6655003447086, -188.4816080168821, -160.92041529342532, -0.03200000151991844, 0.25600001215934753, 1.008000047877431, 0.0, 0.0, 0.0, 0.0, 0.0, 1.7632262734334657E9, 0.0, 2025-11-15 12:04:33.433
25.0, -120.89226606767625, -1021.5611526966095, -100.98290865356103, -88.57953045051545, -0.03200000151991844, 0.25600001215934753, 1.008000047877431, 0.0, 0.0, 0.0, 0.0, 0.0, 1.7632262734334657E9, 0.0, 2025-11-15 12:04:33.433
26.0, 18.56112348008901, -884.6621148185804, 39.20350128551945, 37.77672945242375, -0.03200000151991844, 0.25600001215934753, 1.008000047877431, 0.0, 0.0, 0.0, 0.0, 0.0, 1.7632262734491303E9, 0.0, 2025-11-15 12:04:33.449
26.0, 252.246902261395, -1111.9881937252358, -159.74421675736085, -131.4313041428104, -0.03200000151991844, 0.25600001215934753, 1.008000047877431, 0.0, 0.0, 0.0, 0.0, 0.0, 1.7632262734491303E9, 0.0, 2025-11-15 12:04:33.449
27.0, 289.46638662042096, -1089.9527031863108, -159.9798304545693, -122.86319334432483, -0.03200000151991844, 0.25600001215934753, 1.008000047877431, 0.0, 0.0, 0.0, 0.0, 0.0, 1.7632262734498363E9, 0.0, 2025-11-15 12:04:33.449
27.0, 59.24001529812813, -856.1528574563563, 52.270711730699986, 61.03516727685928, -0.03200000151991844, 0.25600001215934753, 1.008000047877431, 0.0, 0.0, 0.0, 0.0, 0.0, 1.7632262734498363E9, 0.0, 2025-11-15 12:04:33.449
28.0, 292.76871828129515, -1074.1291864737868, -125.61762966169044, -98.47156583331525, -0.03200000151991844, 0.25600001215934753, 1.008000047877431, 0.0, 0.0, 0.0, 0.0, 0.0, 1.7632262734634829E9, 0.0, 2025-11-15 12:04:33.463
28.0, 249.19888379750773, -1125.5453310646117, -186.37978424178436, -153.8108654776588, -0.03200000151991844, 0.25600001215934753, 1.008000047877431, 0.0, 0.0, 0.0, 0.0, 0.0, 1.7632262734634829E9, 0.0, 2025-11-15 12:04:33.463
29.0, 15.752458613365889, -916.024915846996, -8.23338975245133, 3.298591760918498, -0.03200000151991844, 0.25600001215934753, 1.008000047877431, 0.0, 0.0, 0.0, 0.0, 0.0, 1.7632262734791355E9, 0.0, 2025-11-15 12:04:33.479
29.0, -93.2656250949949, -1001.6013066330925, -61.28387062391266, -32.776483211666346, -0.03200000151991844, 0.25600001215934753, 1.008000047877431, 0.0, 0.0, 0.0, 0.0, 0.0, 1.7632262734791355E9, 0.0, 2025-11-15 12:04:33.479
30.0, -283.6265328396112, -1154.1630455255508, -207.5663174907677, -158.15662922617048, -0.03200000151991844, 0.25600001215934753, 1.008000047877431, 0.0, 0.0, 0.0, 0.0, 0.0, 1.7632262734798443E9, 0.0, 2025-11-15 12:04:33.479
30.0, -112.2381375702098, -1018.1840230366215, -97.2504884977825, -65.08921882882714, -0.03200000151991844, 0.25600001215934753, 1.008000047877431, 0.0, 0.0, 0.0, 0.0, 0.0, 1.7632262734798443E9, 0.0, 2025-11-15 12:04:33.479
31.0, 13.160707944072783, -888.7086865706369, 35.860030725132674, 51.10947279445827, -0.03200000151991844, 0.25600001215934753, 1.008000047877431, 0.0, 0.0, 0.0, 0.0, 0.0, 1.7632262734934459E9, 0.0, 2025-11-15 12:04:33.493
31.0, 219.66115394746885, -647.8310801745392, -177.97996894130483, -140.29860693775117, -0.03200000151991844, 0.25600001215934753, 1.008000047877431, 0.0, 0.0, 0.0, 0.0, 0.0, 1.7632262734934459E9, 0.0, 2025-11-15 12:04:33.493
32.0, 281.590157313738, -610.3834619182162, -159.66941875824705, -110.43176589161158, -0.03200000151991844, 0.25600001215934753, 1.008000047877431, 0.0, 0.0, 0.0, 0.0, 0.0, 1.763226273509134E9, 0.0, 2025-11-15 12:04:33.509
32.0, 39.186671735718846, -386.66638646880165, 33.047625958453864, 42.15989220049232, -0.03200000151991844, 0.25600001215934753, 1.008000047877431, 0.0, 0.0, 0.0, 0.0, 0.0, 1.763226273509134E9, 0.0, 2025-11-15 12:04:33.509
33.0, 273.9532816042192, -593.3781368196942, -131.69496708968654, -100.2704577120021, -0.03200000151991844, 0.25600001215934753, 1.008000047877431, 0.0, 0.0, 0.0, 0.0, 0.0, 1.763226273509832E9, 0.0, 2025-11-15 12:04:33.509
33.0, 235.56694845901802, -651.7504953281023, -194.56268534483388, -153.75102707836777, -0.03200000151991844, 0.25600001215934753, 1.008000047877431, 0.0, 0.0, 0.0, 0.0, 0.0, 1.763226273509832E9, 0.0, 2025-11-15 12:04:33.509
34.0, -1.7128741797059774, -424.5141740203835, -11.704016911331564, 2.973220464773476, -0.03200000151991844, 0.25600001215934753, 1.008000047877431, 0.0, 0.0, 0.0, 0.0, 0.0, 1.7632262735234616E9, 0.0, 2025-11-15 12:04:33.523
34.0, -80.77061934303492, -491.2526887296699, -50.83833004767075, -28.281123464927077, -0.03200000151991844, 0.25600001215934753, 1.008000047877431, 0.0, 0.0, 0.0, 0.0, 0.0, 1.7632262735234616E9, 0.0, 2025-11-15 12:04:33.523
35.0, -300.04843354504555, -678.4608608116396, -217.18534017680213, -165.36715634074062, -0.03200000151991844, 0.25600001215934753, 1.008000047877431, 0.0, 0.0, 0.0, 0.0, 0.0, 1.7632262735391116E9, 0.0, 2025-11-15 12:04:33.539
35.0, -117.52261620759964, -540.2266786494292, -109.54727955209091, -75.06353201065212, -0.03200000151991844, 0.25600001215934753, 1.008000047877431, 0.0, 0.0, 0.0, 0.0, 0.0, 1.7632262735391116E9, 0.0, 2025-11-15 12:04:33.539
36.0, -26.298976488411427, -432.68959532352164, -0.4955367441289127, 14.039584433659911, -0.03200000151991844, 0.25600001215934753, 1.008000047877431, 0.0, 0.0, 0.0, 0.0, 0.0, 1.7632262735398252E9, 0.0, 2025-11-15 12:04:33.539
36.0, -267.21211193408817, -652.8537658150308, -192.31874537141994, -143.33540570177138, -0.03200000151991844, 0.25600001215934753, 1.008000047877431, 0.0, 0.0, 0.0, 0.0, 0.0, 1.7632262735398252E9, 0.0, 2025-11-15 12:04:33.539
37.0, -230.05620587430894, -630.0291563854553, -188.49282771674916, -141.81700631976128, -0.03200000151991844, 0.25600001215934753, 1.008000047877431, 0.0, 0.0, 0.0, 0.0, 0.0, 1.7632262735534537E9, 0.0, 2025-11-15 12:04:33.553
37.0, -463.3231158605777, -409.6966903959401, 3.9661639030091465, 30.12115424312651, -0.03200000151991844, 0.25600001215934753, 1.008000047877431, 0.0, 0.0, 0.0, 0.0, 0.0, 1.7632262735534537E9, 0.0, 2025-11-15 12:04:33.553
38.0, -221.9593224702403, -613.8989678765647, -152.13726024748757, -114.10060774814337, -0.03200000151991844, 0.25600001215934753, 1.008000047877431, 0.0, 0.0, 0.0, 0.0, 0.0, 1.763226273569122E9, 0.0, 2025-11-15 12:04:33.569
38.0, -276.5020234240219, -679.9568207939155, -227.26063065743074, -173.81559034064412, -0.03200000151991844, 0.25600001215934753, 1.008000047877431, 0.0, 0.0, 0.0, 0.0, 0.0, 1.763226273569122E9, 0.0, 2025-11-15 12:04:33.569
39.0, -519.6497490932234, -460.96323898853734, -45.71466710837558, -7.797691407613456, -0.03200000151991844, 0.25600001215934753, 1.008000047877431, 0.0, 0.0, 0.0, 0.0, 0.0, 1.7632262735698247E9, 0.0, 2025-11-15 12:04:33.569
39.0, -614.7217458668165, -531.389295054134, -80.0918275010772, -45.06205456610769, -0.03200000151991844, 0.25600001215934753, 1.008000047877431, 0.0, 0.0, 0.0, 0.0, 0.0, 1.7632262735698247E9, 0.0, 2025-11-15 12:04:33.569
40.0, -792.3221149626188, -697.294996988494, -240.30914160283282, -189.80366265121847, -0.03200000151991844, 0.25600001215934753, 1.008000047877431, 0.0, 0.0, 0.0, 0.0, 0.0, 1.763226273583492E9, 0.0, 2025-11-15 12:04:33.583
40.0, -645.6619382002391, -577.6742969057523, -149.99803747283295, -111.62105407752097, -0.03200000151991844, 0.25600001215934753, 1.008000047877431, 0.0, 0.0, 0.0, 0.0, 0.0, 1.763226273583492E9, 0.0, 2025-11-15 12:04:33.583
41.0, -514.5073866541497, -443.5315652950667, -15.694490164052695, 8.654128497466445, -0.03200000151991844, 0.25600001215934753, 1.008000047877431, 0.0, 0.0, 0.0, 0.0, 0.0, 1.7632262735991151E9, 0.0, 2025-11-15 12:04:33.599
41.0, -282.9570907475427, -677.3912494243123, -217.753804970067, -170.01585198566318, -0.03200000151991844, 0.25600001215934753, 1.008000047877431, 0.0, 0.0, 0.0, 0.0, 0.0, 1.7632262735991151E9, 0.0, 2025-11-15 12:04:33.599
42.0, -247.14006887190044, -654.7910339920782, -213.81569031672552, -162.13214287906885, -0.03200000151991844, 0.25600001215934753, 1.008000047877431, 0.0, 0.0, 0.0, 0.0, 0.0, 1.7632262735998352E9, 0.0, 2025-11-15 12:04:33.599
42.0, -470.85527437133715, -419.4129504808225, -10.338953427504748, 15.961893010884523, -0.03200000151991844, 0.25600001215934753, 1.008000047877431, 0.0, 0.0, 0.0, 0.0, 0.0, 1.7632262735998352E9, 0.0, 2025-11-15 12:04:33.599
43.0, -702.0558896320872, -618.1848932257853, -164.9501574956812, -114.52695634309202, -0.03200000151991844, 0.25600001215934753, 1.008000047877431, 0.0, 0.0, 0.0, 0.0, 0.0, 1.7632262736135144E9, 0.0, 2025-11-15 12:04:33.613
43.0, -771.599329308141, -673.7411070675589, -226.871681062039, -163.13443606719375, -0.03200000151991844, 0.25600001215934753, 1.008000047877431, 0.0, 0.0, 0.0, 0.0, 0.0, 1.7632262736135144E9, 0.0, 2025-11-15 12:04:33.613
44.0, -1002.9663701169193, -468.04286960465834, -52.17721423180774, -19.66813386697322, -0.03200000151991844, 0.25600001215934753, 1.008000047877431, 0.0, 0.0, 0.0, 0.0, 0.0, 1.7632262736288671E9, 0.0, 2025-11-15 12:04:33.628
44.0, -1125.1489016693085, -549.4567517400719, -107.14626378053799, -67.75950739718974, -0.03200000151991844, 0.25600001215934753, 1.008000047877431, 0.0, 0.0, 0.0, 0.0, 0.0, 1.7632262736288671E9, 0.0, 2025-11-15 12:04:33.628
45.0, -1268.2636532736942, -688.551110892091, -236.00077685387805, -174.91138102766126, -0.03200000151991844, 0.25600001215934753, 1.008000047877431, 0.0, 0.0, 0.0, 0.0, 0.0, 1.763226273644114E9, 0.0, 2025-11-15 12:04:33.644
45.0, -1113.891802802682, -555.8669402641244, -127.27440534206107, -80.59858394507319, -0.03200000151991844, 0.25600001215934753, 1.008000047877431, 0.0, 0.0, 0.0, 0.0, 0.0, 1.763226273644114E9, 0.0, 2025-11-15 12:04:33.644
46.0, -990.0898945694789, -433.19822171749547, -12.451996902469546, 18.639661379158497, -0.03200000151991844, 0.25600001215934753, 1.008000047877431, 0.0, 0.0, 0.0, 0.0, 0.0, 1.7632262736448162E9, 0.0, 2025-11-15 12:04:33.644
46.0, -761.396882229019, -664.1968823806383, -207.0464713969268, -160.3706499999389, -0.03200000151991844, 0.25600001215934753, 1.008000047877431, 0.0, 0.0, 0.0, 0.0, 0.0, 1.7632262736448162E9, 0.0, 2025-11-15 12:04:33.644
47.0, -722.9544505844824, -637.9240851919167, -196.30921862414107, -148.2234549438581, -0.03200000151991844, 0.25600001215934753, 1.008000047877431, 0.0, 0.0, 0.0, 0.0, 0.0, 1.7632262736591964E9, 0.0, 2025-11-15 12:04:33.659
47.0, -943.7749735182151, -402.41884508216754, 14.149911482352763, 41.48671020846814, -0.03200000151991844, 0.25600001215934753, 1.008000047877431, 0.0, 0.0, 0.0, 0.0, 0.0, 1.7632262736591964E9, 0.0, 2025-11-15 12:04:33.659
48.0, -704.4756049034186, -614.3402760713361, -166.62189277587458, -117.74327030498534, -0.03200000151991844, 0.25600001215934753, 1.008000047877431, 0.0, 0.0, 0.0, 0.0, 0.0, 1.7632262736598864E9, 0.0, 2025-11-15 12:04:33.659
48.0, -791.6713723703288, -699.7558511593379, -247.97219661204144, -193.52112320717424, -0.03200000151991844, 0.25600001215934753, 1.008000047877431, 0.0, 0.0, 0.0, 0.0, 0.0, 1.7632262736598864E9, 0.0, 2025-11-15 12:04:33.659
49.0, -1011.6840769136325, -465.43989923549816, -49.01699876924977, -18.288110783323646, -0.03200000151991844, 0.25600001215934753, 1.008000047877431, 0.0, 0.0, 0.0, 0.0, 0.0, 1.763226273673476E9, 0.0, 2025-11-15 12:04:33.673
49.0, -1079.2229302134365, -506.7096952465363, -67.48088485049084, -31.867687522433698, -0.03200000151991844, 0.25600001215934753, 1.008000047877431, 0.0, 0.0, 0.0, 0.0, 0.0, 1.763226273673476E9, 0.0, 2025-11-15 12:04:33.673
50.0, -1255.1889630286023, -671.3662705956958, -218.47186576155946, -171.35099626984447, -0.03200000151991844, 0.25600001215934753, 1.008000047877431, 0.0, 0.0, 0.0, 0.0, 0.0, 1.763226273689222E9, 0.0, 2025-11-15 12:04:33.689
50.0, -1109.2019682582468, -547.1679329671897, -123.82621758291498, -88.22050005476922, -0.03200000151991844, 0.25600001215934753, 1.008000047877431, 0.0, 0.0, 0.0, 0.0, 0.0, 1.763226273689222E9, 0.0, 2025-11-15 12:04:33.689
51.0, -988.5340961879119, -422.5806457432918, 0.7049711416475475, 26.123201190494, -0.03200000151991844, 0.25600001215934753, 1.008000047877431, 0.0, 0.0, 0.0, 0.0, 0.0, 1.7632262736898909E9, 0.0, 2025-11-15 12:04:33.689
51.0, -763.1359357084148, -664.9972209711559, -207.29704469395801, -159.27859921287745, -0.03200000151991844, 0.25600001215934753, 1.008000047877431, 0.0, 0.0, 0.0, 0.0, 0.0, 1.7632262736898909E9, 0.0, 2025-11-15 12:04:33.689
52.0, -719.6595987235196, -636.8357743048109, -198.99446679232642, -151.30139260739088, -0.03200000151991844, 0.25600001215934753, 1.008000047877431, 0.0, 0.0, 0.0, 0.0, 0.0, 1.7632262737034798E9, 0.0, 2025-11-15 12:04:33.703
52.0, -936.2016761079431, -880.5968435667455, 13.525348189752549, 44.426271573640406, -0.03200000151991844, 0.25600001215934753, 1.008000047877431, 0.0, 0.0, 0.0, 0.0, 0.0, 1.7632262737034798E9, 0.0, 2025-11-15 12:04:33.703
53.0, -711.140106624458, -1091.9572895625606, -143.48313175002113, -90.40086172893643, -0.03200000151991844, 0.25600001215934753, 1.008000047877431, 0.0, 0.0, 0.0, 0.0, 0.0, 1.7632262737191837E9, 0.0, 2025-11-15 12:04:33.719
53.0, -764.7066936898045, -1163.9952425090596, -230.8696341146715, -175.47236602101475, -0.03200000151991844, 0.25600001215934753, 1.008000047877431, 0.0, 0.0, 0.0, 0.0, 0.0, 1.7632262737191837E9, 0.0, 2025-11-15 12:04:33.719
54.0, -1008.4079245524481, -942.4286095341668, -44.86944971838966, -16.597676003351808, -0.03200000151991844, 0.25600001215934753, 1.008000047877431, 0.0, 0.0, 0.0, 0.0, 0.0, 1.763226273719886E9, 0.0, 2025-11-15 12:04:33.719
54.0, -1087.3123338175938, -1003.9200446056202, -73.87237387476489, -42.6124200951308, -0.03200000151991844, 0.25600001215934753, 1.008000047877431, 0.0, 0.0, 0.0, 0.0, 0.0, 1.763226273719886E9, 0.0, 2025-11-15 12:04:33.719
55.0, -1267.6465697810054, -1173.700282894075, -228.7603305396624, -175.86879541631788, -0.03200000151991844, 0.25600001215934753, 1.008000047877431, 0.0, 0.0, 0.0, 0.0, 0.0, 1.7632262737334745E9, 0.0, 2025-11-15 12:04:33.733
55.0, -1105.0319798076525, -1037.511826007627, -127.3379836413078, -86.69462087284774, -0.03200000151991844, 0.25600001215934753, 1.008000047877431, 0.0, 0.0, 0.0, 0.0, 0.0, 1.7632262737334745E9, 0.0, 2025-11-15 12:04:33.733
56.0, -990.2357506677508, -916.1558123454452, -3.334120810497552, 22.648834131658077, -0.03200000151991844, 0.25600001215934753, 1.008000047877431, 0.0, 0.0, 0.0, 0.0, 0.0, 1.7632262737492485E9, 0.0, 2025-11-15 12:04:33.749
56.0, -763.1546352081932, -1151.0514487624168, -197.4124891110696, -152.8871101886034, -0.03200000151991844, 0.25600001215934753, 1.008000047877431, 0.0, 0.0, 0.0, 0.0, 0.0, 1.7632262737492485E9, 0.0, 2025-11-15 12:04:33.749
57.0, -712.3854933097027, -1119.4904330363497, -191.56328558037058, -141.30464002583176, -0.03200000151991844, 0.25600001215934753, 1.008000047877431, 0.0, 0.0, 0.0, 0.0, 0.0, 1.7632262737498944E9, 0.0, 2025-11-15 12:04:33.749
57.0, -944.029286715202, -888.4730728734285, 9.351619839202613, 34.825948387384415, -0.03200000151991844, 0.25600001215934753, 1.008000047877431, 0.0, 0.0, 0.0, 0.0, 0.0, 1.7632262737498944E9, 0.0, 2025-11-15 12:04:33.749
58.0, -705.1263474957086, -1101.4341960502788, -157.03278928948566, -115.1290802359581, -0.03200000151991844, 0.25600001215934753, 1.008000047877431, 0.0, 0.0, 0.0, 0.0, 0.0, 1.7632262737798607E9, 0.0, 2025-11-15 12:04:33.779
58.0, -772.0593370026909, -1172.600752307102, -232.6086875940673, -180.29309706389904, -0.03200000151991844, 0.25600001215934753, 1.008000047877431, 0.0, 0.0, 0.0, 0.0, 0.0, 1.7632262737798607E9, 0.0, 2025-11-15 12:04:33.779
59.0, -1010.5658468268812, -951.9952736208215, -50.262385454494506, -9.005679093301296, -0.03200000151991844, 0.25600001215934753, 1.008000047877431, 0.0, 0.0, 0.0, 0.0, 0.0, 1.763226273780547E9, 0.0, 2025-11-15 12:04:33.780
59.0, -1089.0962660964578, -1004.6007063975558, -70.00905722053722, -40.92572521511465, -0.03200000151991844, 0.25600001215934753, 1.008000047877431, 0.0, 0.0, 0.0, 0.0, 0.0, 1.763226273780547E9, 0.0, 2025-11-15 12:04:33.780
60.0, -1264.7406675154343, -1170.925277126953, -230.96313161356375, -186.17595969419926, -0.03200000151991844, 0.25600001215934753, 1.0240000486373901, 0.0, 0.0, 0.0, 0.0, 0.0, 1.763226273781322E9, 0.0, 2025-11-15 12:04:33.781
60.0, -1121.6745346104726, -1049.5879629645497, -131.5266715916805, -92.34560970589519, -0.03200000151991844, 0.25600001215934753, 1.0240000486373901, 0.0, 0.0, 0.0, 0.0, 0.0, 1.763226273781322E9, 0.0, 2025-11-15 12:04:33.781
61.0, -985.2729034265503, -921.5450081815943, -4.594467095565051, 18.243231983855367, -0.03200000151991844, 0.25600001215934753, 1.0240000486373901, 0.0, 0.0, 0.0, 0.0, 0.0, 1.763226273793494E9, 0.0, 2025-11-15 12:04:33.793
61.0, -768.9514801395126, -1160.5807138495147, -215.5285644964315, -169.73535948898643, -0.03200000151991844, 0.25600001215934753, 1.0240000486373901, 0.0, 0.0, 0.0, 0.0, 0.0, 1.763226273793494E9, 0.0, 2025-11-15 12:04:33.793
62.0, -719.4202451263554, -1125.1937804687768, -198.02583270380273, -152.8459712890908, -0.03200000151991844, 0.25600001215934753, 1.0240000486373901, 0.0, 0.0, 0.0, 0.0, 0.0, 1.763226273809163E9, 0.0, 2025-11-15 12:04:33.809
62.0, -930.9508565701544, -882.8146042404696, 12.358499403577298, 31.654513224959373, -0.03200000151991844, 0.25600001215934753, 1.0240000486373901, 0.0, 0.0, 0.0, 0.0, 0.0, 1.763226273809163E9, 0.0, 2025-11-15 12:04:33.809
63.0, -692.7996372417547, -1092.7426685532555, -153.40882623242214, -107.6081414250657, -0.03200000151991844, 0.25600001215934753, 1.0240000486373901, 0.0, 0.0, 0.0, 0.0, 0.0, 1.763226273809862E9, 0.0, 2025-11-15 12:04:33.809
63.0, -751.2617533490993, -1155.4570509102196, -220.7120658350177, -166.32831062935293, -0.03200000151991844, 0.25600001215934753, 1.0240000486373901, 0.0, 0.0, 0.0, 0.0, 0.0, 1.763226273809862E9, 0.0, 2025-11-15 12:04:33.809
64.0, -526.7256398093887, -953.0798446079716, -45.056444716174155, -16.709873002022505, -0.03200000151991844, 0.25600001215934753, 1.0240000486373901, 0.0, 0.0, 0.0, 0.0, 0.0, 1.763226273823577E9, 0.0, 2025-11-15 12:04:33.823
64.0, -597.6266631693579, -1000.0380284516141, -59.930026839952916, -23.74088491871953, -0.03200000151991844, 0.25600001215934753, 1.0240000486373901, 0.0, 0.0, 0.0, 0.0, 0.0, 1.763226273823577E9, 0.0, 2025-11-15 12:04:33.823
65.0, -778.9781519207172, -1165.5622605904937, -222.07712931884453, -169.60820289049298, -0.03200000151991844, 0.25600001215934753, 1.0240000486373901, 0.0, 0.0, 0.0, 0.0, 0.0, 1.7632262738391442E9, 0.0, 2025-11-15 12:04:33.839
65.0, -613.0200913869776, -1036.7713258164003, -127.30806444166228, -88.68050774931908, -0.03200000151991844, 0.25600001215934753, 1.0240000486373901, 0.0, 0.0, 0.0, 0.0, 0.0, 1.7632262738391442E9, 0.0, 2025-11-15 12:04:33.839
66.0, -485.90089189307764, -902.4528189077973, 6.744909570086747, 35.42807228025049, -0.03200000151991844, 0.25600001215934753, 1.0240000486373901, 0.0, 0.0, 0.0, 0.0, 0.0, 1.76322627383988E9, 0.0, 2025-11-15 12:04:33.839
66.0, -282.2128506563604, -667.43189584231, -211.82980344025418, -167.9663868099451, -0.03200000151991844, 0.25600001215934753, 1.0240000486373901, 0.0, 0.0, 0.0, 0.0, 0.0, 1.76322627383988E9, 0.0, 2025-11-15 12:04:33.839
67.0, -225.4037703294307, -633.4062860454433, -196.94126171665266, -152.56921869236976, -0.03200000151991844, 0.25600001215934753, 1.0240000486373901, 0.0, 0.0, 0.0, 0.0, 0.0, 1.763226273853475E9, 0.0, 2025-11-15 12:04:33.853
67.0, -450.70095351012424, -395.89271965948865, 16.543447453994304, 41.666225406341255, -0.03200000151991844, 0.25600001215934753, 1.0240000486373901, 0.0, 0.0, 0.0, 0.0, 0.0, 1.763226273853475E9, 0.0, 2025-11-15 12:04:33.853
68.0, -212.50111548230052, -600.7345200325362, -149.10794128337875, -99.62719491962343, -0.03200000151991844, 0.25600001215934753, 1.0240000486373901, 0.0, 0.0, 0.0, 0.0, 0.0, 1.7632262738691661E9, 0.0, 2025-11-15 12:04:33.869
68.0, -283.77612883783877, -673.9281020653434, -236.6141204466112, -187.99355107266456, -0.03200000151991844, 0.25600001215934753, 1.0240000486373901, 0.0, 0.0, 0.0, 0.0, 0.0, 1.7632262738691661E9, 0.0, 2025-11-15 12:04:33.869
69.0, -512.1325501822866, -450.4466403131373, -45.935321205761284, -12.423947652801871, -0.03200000151991844, 0.25600001215934753, 1.0240000486373901, 0.0, 0.0, 0.0, 0.0, 0.0, 1.7632262738698652E9, 0.0, 2025-11-15 12:04:33.869
69.0, -590.5432926532812, -508.1869557290338, -66.41501336311921, -23.045263526961207, -0.03200000151991844, 0.25600001215934753, 1.0240000486373901, 0.0, 0.0, 0.0, 0.0, 0.0, 1.7632262738698652E9, 0.0, 2025-11-15 12:04:33.869
70.0, -783.926039562095, -684.3923421413638, -231.99534400133416, -177.02068460267037, -0.03200000151991844, 0.25600001215934753, 1.0240000486373901, 0.0, 0.0, 0.0, 0.0, 0.0, 1.7632262738835208E9, 0.0, 2025-11-15 12:04:33.883
70.0, -625.3580213407986, -551.566055315081, -128.68808752531186, -89.40978824067861, -0.03200000151991844, 0.25600001215934753, 1.0240000486373901, 0.0, 0.0, 0.0, 0.0, 0.0, 1.7632262738835208E9, 0.0, 2025-11-15 12:04:33.883
71.0, -500.6211381186731, -430.97298124386, -8.154851853381842, 17.24093879573047, -0.03200000151991844, 0.2400000113993883, 1.0240000486373901, 0.0, 0.0, 0.0, 0.0, 0.0, 1.7632262738991516E9, 0.0, 2025-11-15 12:04:33.899
71.0, -281.71170406229794, -666.3622844549827, -215.03489770228043, -162.7828854713589, -0.03200000151991844, 0.2400000113993883, 1.0240000486373901, 0.0, 0.0, 0.0, 0.0, 0.0, 1.7632262738991516E9, 0.0, 2025-11-15 12:04:33.899
72.0, -214.89091155398637, -627.0260167210363, -192.35988427093253, -140.8782914308831, -0.03200000151991844, 0.2400000113993883, 1.0240000486373901, 0.0, 0.0, 0.0, 0.0, 0.0, 1.763226273899864E9, 0.0, 2025-11-15 12:04:33.899
72.0, -452.488625688944, -399.40822561783716, 8.768195446114987, 28.277383564971387, -0.03200000151991844, 0.2400000113993883, 1.0240000486373901, 0.0, 0.0, 0.0, 0.0, 0.0, 1.763226273899864E9, 0.0, 2025-11-15 12:04:33.899
73.0, -692.4181674462743, -596.6168901813217, -145.89536722144112, -102.54431688506156, -0.03200000151991844, 0.2400000113993883, 1.0240000486373901, 0.0, 0.0, 0.0, 0.0, 0.0, 1.7632262739135132E9, 0.0, 2025-11-15 12:04:33.913
73.0, -764.8525497880764, -674.4890870586969, -224.02561719575897, -170.7077334774658, -0.03200000151991844, 0.2400000113993883, 1.0240000486373901, 0.0, 0.0, 0.0, 0.0, 0.0, 1.7632262739135132E9, 0.0, 2025-11-15 12:04:33.913
74.0, -1002.5587210217491, -454.7624848620035, -49.944493958260864, -18.347949182614684, -0.03200000151991844, 0.2400000113993883, 1.0240000486373901, 0.0, 0.0, 0.0, 0.0, 0.0, 1.763226273929162E9, 0.0, 2025-11-15 12:04:33.929
74.0, -1083.0264084683731, -509.20046861702576, -66.85632155789062, -24.062516314908862, -0.03200000151991844, 0.2400000113993883, 1.0240000486373901, 0.0, 0.0, 0.0, 0.0, 0.0, 1.763226273929162E9, 0.0, 2025-11-15 12:04:33.929
75.0, -1258.9288629842922, -676.7405068320222, -228.161946546752, -178.8607153808698, -0.03200000151991844, 0.2400000113993883, 1.0240000486373901, 0.0, 0.0, 0.0, 0.0, 0.0, 1.7632262739298575E9, 0.0, 2025-11-15 12:04:33.929
75.0, -1117.6990209575742, -557.3815997461788, -131.85204288782552, -95.85737576428801, -0.03200000151991844, 0.2400000113993883, 1.0240000486373901, 0.0, 0.0, 0.0, 0.0, 0.0, 1.7632262739298575E9, 0.0, 2025-11-15 12:04:33.929
76.0, -968.3760354267433, -412.12762536713853, 7.294674863573164, 31.063609031960368, -0.03200000151991844, 0.2400000113993883, 1.0240000486373901, 0.0, 0.0, 0.0, 0.0, 0.0, 1.7632262739434805E9, 0.0, 2025-11-15 12:04:33.943
76.0, -760.9518341342919, -176.7888108054176, -214.1223621130921, -165.46065383963287, -0.03200000151991844, 0.2400000113993883, 1.0240000486373901, 0.0, 0.0, 0.0, 0.0, 0.0, 1.7632262739434805E9, 0.0, 2025-11-15 12:04:33.943
77.0, -705.1899257949553, -135.45169659517705, -193.0742051624693, -146.4357827650383, -0.03200000151991844, 0.2400000113993883, 1.0240000486373901, 0.0, 0.0, 0.0, 0.0, 0.0, 1.763226273959152E9, 0.0, 2025-11-15 12:04:33.959
77.0, -927.5662471102551, 102.14788748975843, 18.420877231750637, 34.463178091682494, -0.03200000151991844, 0.2400000113993883, 1.0240000486373901, 0.0, 0.0, 0.0, 0.0, 0.0, 1.763226273959152E9, 0.0, 2025-11-15 12:04:33.959
78.0, -697.6652470841072, -107.84749502222985, -146.99489780841395, -100.13208141364157, -0.03200000151991844, 0.2400000113993883, 1.0240000486373901, 0.0, 0.0, 0.0, 0.0, 0.0, 1.7632262739598432E9, 0.0, 2025-11-15 12:04:33.959
78.0, -749.7209145673551, -179.69471307098866, -225.91052677342668, -172.6375218546018, -0.03200000151991844, 0.2400000113993883, 1.0240000486373901, 0.0, 0.0, 0.0, 0.0, 0.0, 1.7632262739598432E9, 0.0, 2025-11-15 12:04:33.959
79.0, -994.177605221048, 41.10150051303208, -44.02423232840374, -9.607802986167371, -0.03200000151991844, 0.2400000113993883, 1.0240000486373901, 0.0, 0.0, 0.0, 0.0, 0.0, 1.7632262739734652E9, 0.0, 2025-11-15 12:04:33.973
79.0, -1080.314981000498, -14.320076930336654, -58.42658705776557, -25.7903500944376, -0.03200000151991844, 0.2400000113993883, 1.0240000486373901, 0.0, 0.0, 0.0, 0.0, 0.0, 1.7632262739734652E9, 0.0, 2025-11-15 12:04:33.973
80.0, -1265.3427914083004, -181.27669075224549, -217.7912039696239, -167.31190431769937, -0.03200000151991844, 0.2400000113993883, 1.0240000486373901, 0.0, 0.0, 0.0, 0.0, 0.0, 1.7632262739891458E9, 0.0, 2025-11-15 12:04:33.989
80.0, -1101.5725723486394, -56.03118113614619, -118.97556734038517, -79.12880326248705, -0.03200000151991844, 0.2400000113993883, 1.0240000486373901, 0.0, 0.0, 0.0, 0.0, 0.0, 1.7632262739891458E9, 0.0, 2025-11-15 12:04:33.989
81.0, -958.8018915401772, 88.21302025485784, 20.410504008177668, 32.20801841840148, -0.03200000151991844, 0.2400000113993883, 1.0240000486373901, 0.0, 0.0, 0.0, 0.0, 0.0, 1.7632262739898515E9, 0.0, 2025-11-15 12:04:33.989
81.0, -751.7703797430731, 327.9424773645587, -197.06467841519043, -150.23926101997495, -0.03200000151991844, 0.2400000113993883, 1.0240000486373901, 0.0, 0.0, 0.0, 0.0, 0.0, 1.7632262739898515E9, 0.0, 2025-11-15 12:04:33.989
82.0, -696.3525421996601, 361.1602687709965, -183.59355877479538, -135.92666388954967, -0.03200000151991844, 0.2400000113993883, 1.0240000486373901, 0.0, 0.0, 0.0, 0.0, 0.0, 1.7632262740035157E9, 0.0, 2025-11-15 12:04:34.003
82.0, -921.1934575857595, 604.2201067912392, 30.04822619399056, 46.78988834563643, -0.03200000151991844, 0.2400000113993883, 1.0240000486373901, 0.0, 0.0, 0.0, 0.0, 0.0, 1.7632262740035157E9, 0.0, 2025-11-15 12:04:34.003
83.0, -699.187386366073, 383.1359209106304, -142.73141185892746, -95.91347426362336, -0.03200000151991844, 0.2400000113993883, 1.0240000486373901, 0.0, 0.0, 0.0, 0.0, 0.0, 1.7632262740191703E9, 0.0, 2025-11-15 12:04:34.019
83.0, -744.3952970304526, 326.5774138807319, -213.13876842474565, -158.25012672506273, -0.03200000151991844, 0.2400000113993883, 1.0240000486373901, 0.0, 0.0, 0.0, 0.0, 0.0, 1.7632262740191703E9, 0.0, 2025-11-15 12:04:34.019
84.0, -506.0103339548223, 533.0311111346819, -40.703201167751104, -10.344563277438283, -0.03200000151991844, 0.2400000113993883, 1.0240000486373901, 0.0, 0.0, 0.0, 0.0, 0.0, 1.7632262740198543E9, 0.0, 2025-11-15 12:04:34.019
84.0, -577.1394912120886, 487.52400847384706, -54.21545970765874, -22.20004613697529, -0.03200000151991844, 0.2400000113993883, 1.0240000486373901, 0.0, 0.0, 0.0, 0.0, 0.0, 1.7632262740198543E9, 0.0, 2025-11-15 12:04:34.019
85.0, -763.809117700439, 314.5835547228344, -214.87408200418577, -162.65572887286544, -0.03200000151991844, 0.2400000113993883, 1.0240000486373901, 0.0, 0.0, 0.0, 0.0, 0.0, 1.7632262740334983E9, 0.0, 2025-11-15 12:04:34.033
85.0, -599.0702645522542, 446.1158361644484, -116.87000366533175, -77.46080788224936, -0.03200000151991844, 0.2400000113993883, 1.0240000486373901, 0.0, 0.0, 0.0, 0.0, 0.0, 1.7632262740334983E9, 0.0, 2025-11-15 12:04:34.033
86.0, -474.85322742396966, 578.2016227995045, 17.725255839992315, 43.96626387909055, -0.03200000151991844, 0.2400000113993883, 1.0240000486373901, 0.0, 0.0, 0.0, 0.0, 0.0, 1.763226274049162E9, 0.0, 2025-11-15 12:04:34.049
86.0, -256.7104728585109, 820.3021764811128, -195.34432443557307, -139.00460155308247, -0.03200000151991844, 0.2400000113993883, 1.0240000486373901, 0.0, 0.0, 0.0, 0.0, 0.0, 1.763226274049162E9, 0.0, 2025-11-15 12:04:34.049
87.0, -224.00504774600267, 843.9346043011174, -193.85958415316418, -142.2134357150644, -0.03200000151991844, 0.2400000113993883, 1.0240000486373901, 0.0, 0.0, 0.0, 0.0, 0.0, 1.7632262740498648E9, 0.0, 2025-11-15 12:04:34.049
87.0, -429.28628636384383, 600.3418305371888, 26.970288530457765, 58.544393906369805, -0.03200000151991844, 0.2400000113993883, 1.0240000486373901, 0.0, 0.0, 0.0, 0.0, 0.0, 1.7632262740498648E9, 0.0, 2025-11-15 12:04:34.049
88.0, -672.4246622831561, 394.77822947269306, -137.98547881515697, -100.35273551102728, -0.03200000151991844, 0.2400000113993883, 1.0240000486373901, 0.0, 0.0, 0.0, 0.0, 0.0, 1.7632262740634737E9, 0.0, 2025-11-15 12:04:34.063
88.0, -759.4596140519716, 317.1379063925706, -220.77938403422013, -160.06397820357233, -0.03200000151991844, 0.2400000113993883, 1.0240000486373901, 0.0, 0.0, 0.0, 0.0, 0.0, 1.7632262740634737E9, 0.0, 2025-11-15 12:04:34.063
89.0, -987.1989519037306, 547.4596451637335, -28.993574406486005, 13.332743342034519, -0.03200000151991844, 0.2400000113993883, 1.0240000486373901, 0.0, 0.0, 0.0, 0.0, 0.0, 1.7632262740792315E9, 0.0, 2025-11-15 12:04:34.079
89.0, -1066.107101068832, 489.5211150501855, -54.01350511005148, -11.982639458030462, -0.03200000151991844, 0.2400000113993883, 1.0240000486373901, 0.0, 0.0, 0.0, 0.0, 0.0, 1.7632262740792315E9, 0.0, 2025-11-15 12:04:34.079
90.0, -1253.7154424460605, 314.22826422704384, -214.88156180409715, -169.27161189448088, -0.03200000151991844, 0.2400000113993883, 1.008000047877431, 0.0, 0.0, 0.0, 0.0, 0.0, 1.763226274079858E9, 0.0, 2025-11-15 12:04:34.079
90.0, -1103.1657697297633, 435.42346219113097, -124.94818756962195, -90.4120814288035, -0.03200000151991844, 0.2400000113993883, 1.008000047877431, 0.0, 0.0, 0.0, 0.0, 0.0, 1.763226274079858E9, 0.0, 2025-11-15 12:04:34.079
91.0, -950.1477630427107, 579.4283099849708, 16.562146953772753, 40.52555591985583, -0.03200000151991844, 0.2400000113993883, 1.008000047877431, 0.0, 0.0, 0.0, 0.0, 0.0, 1.7632262740935953E9, 0.0, 2025-11-15 12:04:34.093
91.0, -757.6308029736392, 814.59508914873, -199.17772189015523, -145.32129257824272, -0.03200000151991844, 0.2400000113993883, 1.008000047877431, 0.0, 0.0, 0.0, 0.0, 0.0, 1.7632262740935953E9, 0.0, 2025-11-15 12:04:34.093
92.0, -703.361114716623, 847.6445850571617, -187.6663098265417, -124.1721583288163, -0.03200000151991844, 0.2400000113993883, 1.008000047877431, 0.0, 0.0, 0.0, 0.0, 0.0, 1.7632262741091511E9, 0.0, 2025-11-15 12:04:34.109
92.0, -920.4679169943556, 1090.6184053784236, 17.332566344644874, 50.41011150274426, -0.03200000151991844, 0.2400000113993883, 1.008000047877431, 0.0, 0.0, 0.0, 0.0, 0.0, 1.7632262741091511E9, 0.0, 2025-11-15 12:04:34.109
93.0, -695.8027769061737, 878.5922571904957, -145.62609442463145, -110.4579451913014, -0.03200000151991844, 0.2400000113993883, 1.008000047877431, 0.0, 0.0, 0.0, 0.0, 0.0, 1.763226274109857E9, 0.0, 2025-11-15 12:04:34.109
93.0, -751.1121573508717, 805.0396447619423, -222.3090031160973, -160.58008439745754, -0.03200000151991844, 0.2400000113993883, 1.008000047877431, 0.0, 0.0, 0.0, 0.0, 0.0, 1.763226274109857E9, 0.0, 2025-11-15 12:04:34.109
94.0, -511.99043398397043, 1017.6753966426477, -46.279392001684755, -4.252266249619424, -0.03200000151991844, 0.2400000113993883, 1.008000047877431, 0.0, 0.0, 0.0, 0.0, 0.0, 1.7632262741235068E9, 0.0, 2025-11-15 12:04:34.123
94.0, -578.9982214900665, 970.7059930991381, -63.969118792098016, -22.17760673724115, -0.03200000151991844, 0.2400000113993883, 1.008000047877431, 0.0, 0.0, 0.0, 0.0, 0.0, 1.7632262741235068E9, 0.0, 2025-11-15 12:04:34.123
95.0, -760.4693870400079, 800.3198910178617, -224.0181373958476, -166.9678335217759, -0.03200000151991844, 0.2400000113993883, 1.008000047877431, 0.0, 0.0, 0.0, 0.0, 0.0, 1.7632262741391368E9, 0.0, 2025-11-15 12:04:34.139
95.0, -612.6760205910541, 921.8030612785369, -127.00887244520709, -80.00767975207418, -0.03200000151991844, 0.2400000113993883, 1.008000047877431, 0.0, 0.0, 0.0, 0.0, 0.0, 1.7632262741391368E9, 0.0, 2025-11-15 12:04:34.139
96.0, -488.4739430625923, 1054.9173204014078, 2.60858021909371, 24.13357441406697, -0.03200000151991844, 0.2400000113993883, 1.008000047877431, 0.0, 0.0, 0.0, 0.0, 0.0, 1.7632262741398408E9, 0.0, 2025-11-15 12:04:34.139
96.0, -268.21814502216876, 811.4273938862607, -208.96130017424002, -157.54328563343734, -0.03200000151991844, 0.2400000113993883, 1.008000047877431, 0.0, 0.0, 0.0, 0.0, 0.0, 1.7632262741398408E9, 0.0, 2025-11-15 12:04:34.139
97.0, -207.23159644473344, 848.4486635476351, -191.89613667642698, -138.04344726447016, -0.03200000151991844, 0.2400000113993883, 1.008000047877431, 0.0, 0.0, 0.0, 0.0, 0.0, 1.763226274153508E9, 0.0, 2025-11-15 12:04:34.153
97.0, -439.3466172446497, 1087.177697419189, 14.112512482795864, 43.76804918143898, -0.03200000151991844, 0.2400000113993883, 1.008000047877431, 0.0, 0.0, 0.0, 0.0, 0.0, 1.763226274153508E9, 0.0, 2025-11-15 12:04:34.153
98.0, -202.74745639786124, 878.6333960900083, -145.98512482037768, -87.98114645760506, -0.03200000151991844, 0.2400000113993883, 1.008000047877431, 0.0, 0.0, 0.0, 0.0, 0.0, 1.763226274169139E9, 0.0, 2025-11-15 12:04:34.169
98.0, -243.6021235138178, 821.1361741712317, -213.95406661508605, -152.41588279418647, -0.03200000151991844, 0.2400000113993883, 1.008000047877431, 0.0, 0.0, 0.0, 0.0, 0.0, 1.763226274169139E9, 0.0, 2025-11-15 12:04:34.169
99.0, -15.131635220721364, 1023.3563046753407, -50.63263555010781, -10.658714873716235, -0.03200000151991844, 0.2400000113993883, 1.008000047877431, 0.0, 0.0, 0.0, 0.0, 0.0, 1.763226274169839E9, 0.0, 2025-11-15 12:04:34.169
99.0, -83.13423611503094, 976.9965048246086, -57.64120806707069, -26.310196188278496, -0.03200000151991844, 0.2400000113993883, 1.008000047877431, 0.0, 0.0, 0.0, 0.0, 0.0, 1.763226274169839E9, 0.0, 2025-11-15 12:04:34.169
100.0, -272.0178833771497, 806.5692638438195, -222.00607121968642, -164.65283544920385, -0.03200000151991844, 0.2400000113993883, 1.0240000486373901, 0.0, 0.0, 0.0, 0.0, 0.0, 1.7632262741842237E9, 0.0, 2025-11-15 12:04:34.184
100.0, -131.79781433846802, 927.2109566144645, -130.05315100913867, -84.61523649748415, -0.03200000151991844, 0.2400000113993883, 1.0240000486373901, 0.0, 0.0, 0.0, 0.0, 0.0, 1.7632262741842237E9, 0.0, 2025-11-15 12:04:34.184
0.0, 19.606425517704338, 86.7058405727148, 9.213243540842086, 35.54774907883257, -0.03200000151991844, 0.2400000113993883, 1.0240000486373901, 0.0, 0.0, 0.0, 0.0, 0.0, 1.7632262741849034E9, 0.0, 2025-11-15 12:04:34.184
1.0, 240.53540555015206, -151.64172350335866, -197.24045371310785, -138.0621467642486, -0.03200000151991844, 0.2400000113993883, 1.0240000486373901, 0.0, 0.0, 0.0, 0.0, 0.0, 1.7632262741985092E9, 0.0, 2025-11-15 12:04:34.198
1.0, 298.08872596826404, -120.5743745714426, -177.85655224276707, -113.07213526032865, -0.03200000151991844, 0.2400000113993883, 1.0240000486373901, 0.0, 0.0, 0.0, 0.0, 0.0, 1.7632262741985092E9, 0.0, 2025-11-15 12:04:34.198
2.0, 56.60899567930028, 108.0494496198371, 16.004901860374957, 42.26086949929595, -0.03200000151991844, 0.2400000113993883, 1.0240000486373901, 0.0, 0.0, 0.0, 0.0, 0.0, 1.763226274214186E9, 0.0, 2025-11-15 12:04:34.214
2.0, 298.3991376645863, -92.45780670456588, -136.98318562703207, -89.56686403881758, -0.03200000151991844, 0.2400000113993883, 1.0240000486373901, 0.0, 0.0, 0.0, 0.0, 0.0, 1.763226274214186E9, 0.0, 2025-11-15 12:04:34.214
3.0, 246.3771292809397, -163.43362806364894, -214.9750593029894, -157.41612903494388, -0.03200000151991844, 0.2400000113993883, 1.0240000486373901, 0.0, 0.0, 0.0, 0.0, 0.0, 1.7632262742149034E9, 0.0, 2025-11-15 12:04:34.214
3.0, 490.3158437907696, 54.957829848863184, -30.35489799035713, 13.224286243319511, -0.03200000151991844, 0.2400000113993883, 1.0240000486373901, 0.0, 0.0, 0.0, 0.0, 0.0, 1.7632262742149034E9, 0.0, 2025-11-15 12:04:34.214
4.0, 409.95287354290485, 2.165402074344456, -55.973212686832994, -17.3419160945341, -0.03200000151991844, 0.2400000113993883, 1.0240000486373901, 0.0, 0.0, 0.0, 0.0, 0.0, 1.7632262742286088E9, 0.0, 2025-11-15 12:04:34.228
4.0, 240.32597115263343, -160.34821060020477, -206.19751410698518, -148.50394744053483, -0.03200000151991844, 0.2400000113993883, 1.0240000486373901, 0.0, 0.0, 0.0, 0.0, 0.0, 1.7632262742286088E9, 0.0, 2025-11-15 12:04:34.228
5.0, 365.3882256709039, -53.6563446642831, -129.16305481968448, -83.87099640630186, -0.03200000151991844, 0.2400000113993883, 1.0240000486373901, 0.0, 0.0, 0.0, 0.0, 0.0, 1.7632262742441838E9, 0.0, 2025-11-15 12:04:34.244
5.0, 510.1971519552171, 91.39941501710564, 7.84070025710389, 36.62110036611557, -0.03200000151991844, 0.2400000113993883, 1.0240000486373901, 0.0, 0.0, 0.0, 0.0, 0.0, 1.7632262742441838E9, 0.0, 2025-11-15 12:04:34.244
6.0, 733.6991831571795, -146.8845707597211, -189.98878769902512, -133.5780067173764, -0.03200000151991844, 0.2400000113993883, 1.0240000486373901, 0.0, 0.0, 0.0, 0.0, 0.0, 1.7632262742449012E9, 0.0, 2025-11-15 12:04:34.244
6.0, 789.7378440932371, -112.85148116294295, -176.29701396124437, -123.32694093883038, -0.03200000151991844, 0.2400000113993883, 1.0240000486373901, 0.0, 0.0, 0.0, 0.0, 0.0, 1.7632262742449012E9, 0.0, 2025-11-15 12:04:34.244
7.0, 559.8929425664246, 118.84654079191387, 24.060646364931017, 54.70351665187627, -0.03200000151991844, 0.2400000113993883, 1.0240000486373901, 0.0, 0.0, 0.0, 0.0, 0.0, 1.763226274258494E9, 0.0, 2025-11-15 12:04:34.258
7.0, 788.0661088130437, -94.44743348099291, -140.05738339060917, -89.043278045021, -0.03200000151991844, 0.2400000113993883, 1.0240000486373901, 0.0, 0.0, 0.0, 0.0, 0.0, 1.763226274258494E9, 0.0, 2025-11-15 12:04:34.258
8.0, 743.7782135377638, -156.1109039504081, -203.80023823538795, -140.01811444107443, -0.03200000151991844, 0.2400000113993883, 1.0240000486373901, 0.0, 0.0, 0.0, 0.0, 0.0, 1.7632262742748609E9, 0.0, 2025-11-15 12:04:34.274
8.0, 972.3982978290878, 50.03238160721958, -39.94400147674605, -0.13089649844914675, -0.03200000151991844, 0.2400000113993883, 1.0240000486373901, 0.0, 0.0, 0.0, 0.0, 0.0, 1.7632262742748609E9, 0.0, 2025-11-15 12:04:34.274
9.0, 909.0219531799667, 6.211973826400936, -52.16225463198498, -12.121015756390989, -0.03200000151991844, 0.2400000113993883, 1.0240000486373901, 0.0, 0.0, 0.0, 0.0, 0.0, 1.7632262742755573E9, 0.0, 2025-11-15 12:04:34.275
9.0, 728.2277095220052, -160.49032679852098, -209.98977266205475, -152.82353188935667, -0.03200000151991844, 0.2400000113993883, 1.0240000486373901, 0.0, 0.0, 0.0, 0.0, 0.0, 1.7632262742755573E9, 0.0, 2025-11-15 12:04:34.275
10.0, 869.2929959506728, -41.16133891232312, -120.80437841871753, -75.45622150599957, -0.03200000151991844, 0.2400000113993883, 1.008000047877431, 0.0, 0.0, 0.0, 0.0, 0.0, 1.7632262742884636E9, 0.0, 2025-11-15 12:04:34.288
10.0, 1002.8410834684037, 87.18454776704311, 10.888718720991164, 40.850927216000855, -0.03200000151991844, 0.2400000113993883, 1.008000047877431, 0.0, 0.0, 0.0, 0.0, 0.0, 1.7632262742884636E9, 0.0, 2025-11-15 12:04:34.288
11.0, 1225.5203366801143, -146.26748726703227, -191.79889927757904, -128.52914177719504, -0.03200000151991844, 0.2400000113993883, 1.008000047877431, 0.0, 0.0, 0.0, 0.0, 0.0, 1.7632262743042011E9, 0.0, 2025-11-15 12:04:34.304
11.0, 1274.284892202355, -123.3905192380771, -187.41573652951047, -129.060207570903, -0.03200000151991844, 0.2400000113993883, 1.008000047877431, 0.0, 0.0, 0.0, 0.0, 0.0, 1.7632262743042011E9, 0.0, 2025-11-15 12:04:34.304
12.0, 1046.6839306489564, 115.18891863524914, 23.305186573881656, 48.55512112472206, -0.03200000151991844, 0.2400000113993883, 1.008000047877431, 0.0, 0.0, 0.0, 0.0, 0.0, 1.7632262743048909E9, 0.0, 2025-11-15 12:04:34.304
12.0, 1279.180421244353, -95.6030625673011, -143.78232374647632, -102.85846848133951, -0.03200000151991844, 0.2400000113993883, 1.008000047877431, 0.0, 0.0, 0.0, 0.0, 0.0, 1.7632262743048909E9, 0.0, 2025-11-15 12:04:34.304
13.0, 1225.1575663844123, -155.0412925630808, -211.2688184469007, -156.41383584681898, -0.03200000151991844, 0.2400000113993883, 1.008000047877431, 0.0, 0.0, 0.0, 0.0, 0.0, 1.7632262743184729E9, 0.0, 2025-11-15 12:04:34.318
13.0, 1467.9593513077125, 50.82898029778153, -37.9618545002304, -2.4421546710655093, -0.03200000151991844, 0.2400000113993883, 1.008000047877431, 0.0, 0.0, 0.0, 0.0, 0.0, 1.7632262743184729E9, 0.0, 2025-11-15 12:04:34.318
14.0, 1401.3891320964321, 12.618422450497746, -44.45058092335239, -4.132589451037347, -0.03200000151991844, 0.2400000113993883, 1.008000047877431, 0.0, 0.0, 0.0, 0.0, 0.0, 1.763226274334226E9, 0.0, 2025-11-15 12:04:34.334
14.0, 1222.9959042100236, -150.57211211603135, -200.2622928773053, -146.52554036397487, -0.03200000151991844, 0.2400000113993883, 1.008000047877431, 0.0, 0.0, 0.0, 0.0, 0.0, 1.763226274334226E9, 0.0, 2025-11-15 12:04:34.334
15.0, 1363.978912839666, -32.353874516673386, -108.14107716875151, -59.24749509803951, -0.03200000151991844, 0.2400000113993883, 1.008000047877431, 0.0, 0.0, 0.0, 0.0, 0.0, 1.7632262743349016E9, 0.0, 2025-11-15 12:04:34.334
15.0, 1502.8713173940778, 111.44153887964785, 34.77919963793829, 60.130111487582326, -0.03200000151991844, 0.2400000113993883, 1.008000047877431, 0.0, 0.0, 0.0, 0.0, 0.0, 1.7632262743349016E9, 0.0, 2025-11-15 12:04:34.334
16.0, 1707.4905937197618, 346.7728736414574, -184.04234676947817, -129.48281626589596, -0.03200000151991844, 0.2400000113993883, 1.008000047877431, 0.0, 0.0, 0.0, 0.0, 0.0, 1.7632262743484762E9, 0.0, 2025-11-15 12:04:34.348
16.0, 1761.5171884796582, 381.18369313376024, -165.48870308930054, -113.90239305049181, -0.03200000151991844, 0.2400000113993883, 1.008000047877431, 0.0, 0.0, 0.0, 0.0, 0.0, 1.7632262743484762E9, 0.0, 2025-11-15 12:04:34.348
17.0, 1533.6245147297159, 618.4242468229495, 44.19252782640979, 76.53705259319395, -0.03200000151991844, 0.2400000113993883, 1.008000047877431, 0.0, 0.0, 0.0, 0.0, 0.0, 1.7632262743641868E9, 0.0, 2025-11-15 12:04:34.364
17.0, 1289.5623835213482, 413.23089585406706, -114.09873779816553, -69.19936888013035, -0.03200000151991844, 0.2400000113993883, 1.008000047877431, 0.0, 0.0, 0.0, 0.0, 0.0, 1.7632262743641868E9, 0.0, 2025-11-15 12:04:34.364
18.0, 1234.95610426832, 356.54149232571945, -185.1044783568941, -133.79492091480643, -0.03200000151991844, 0.2400000113993883, 1.008000047877431, 0.0, 0.0, 0.0, 0.0, 0.0, 1.7632262743648868E9, 0.0, 2025-11-15 12:04:34.364
18.0, 1475.031502123922, 559.019675926771, -20.982708701398224, 2.01580607611686, -0.03200000151991844, 0.2400000113993883, 1.008000047877431, 0.0, 0.0, 0.0, 0.0, 0.0, 1.7632262743648868E9, 0.0, 2025-11-15 12:04:34.364
19.0, 1402.0922332881019, 521.0559514765628, -28.069819117430598, 12.741839149035513, -0.03200000151991844, 0.2400000113993883, 1.008000047877431, 0.0, 0.0, 0.0, 0.0, 0.0, 1.7632262743785655E9, 0.0, 2025-11-15 12:04:34.378
19.0, 1215.718058896251, 346.8065327410586, -191.23417438426986, -135.09266619943082, -0.03200000151991844, 0.2400000113993883, 1.008000047877431, 0.0, 0.0, 0.0, 0.0, 0.0, 1.7632262743785655E9, 0.0, 2025-11-15 12:04:34.378
20.0, 1363.073857050389, 462.246024673339, -107.04528648173437, -68.90017688367516, -0.03200000151991844, 0.2400000113993883, 1.008000047877431, 0.0, 0.0, 0.0, 0.0, 0.0, 1.7632262743942013E9, 0.0, 2025-11-15 12:04:34.394
20.0, 1519.1099630016834, 607.9001683476381, 38.668695591855794, 57.94600991345942, -0.03200000151991844, 0.2400000113993883, 1.008000047877431, 0.0, 0.0, 0.0, 0.0, 0.0, 1.7632262743942013E9, 0.0, 2025-11-15 12:04:34.394
21.0, 1725.1728407102637, 852.5027150996029, -167.75134256249294, -104.04027686733752, -0.03200000151991844, 0.2240000106394291, 1.008000047877431, 0.0, 0.0, 0.0, 0.0, 0.0, 1.7632262743948796E9, 0.0, 2025-11-15 12:04:34.394
21.0, 1754.127146167215, 866.8040925301611, -176.289534161333, -122.69115794636309, -0.03200000151991844, 0.2240000106394291, 1.008000047877431, 0.0, 0.0, 0.0, 0.0, 0.0, 1.7632262743948796E9, 0.0, 2025-11-15 12:04:34.394
22.0, 1540.3600745499134, 624.6399605493061, 38.91552898893133, 64.42351663671434, -0.03200000151991844, 0.2240000106394291, 1.008000047877431, 0.0, 0.0, 0.0, 0.0, 0.0, 1.7632262744085345E9, 0.0, 2025-11-15 12:04:34.408
22.0, 1778.9376424732618, 415.56833332637325, -112.67757581500337, -48.68227772321552, -0.03200000151991844, 0.2240000106394291, 1.008000047877431, 0.0, 0.0, 0.0, 0.0, 0.0, 1.7632262744085345E9, 0.0, 2025-11-15 12:04:34.408
23.0, 1723.1158957346343, 353.2578601646237, -198.54193889768794, -152.68515559099615, -0.03200000151991844, 0.2240000106394291, 1.008000047877431, 0.0, 0.0, 0.0, 0.0, 0.0, 1.7632262744405909E9, 0.0, 2025-11-15 12:04:34.440
23.0, 1956.1266225739382, 549.3333350415342, -39.15862248605117, -10.363262777216733, -0.03200000151991844, 0.2240000106394291, 1.008000047877431, 0.0, 0.0, 0.0, 0.0, 0.0, 1.7632262744405909E9, 0.0, 2025-11-15 12:04:34.440
24.0, 1901.6923787188716, 518.2809457094409, -41.451181158889085, 0.3141515962779522, -0.03200000151991844, 0.2240000106394291, 1.008000047877431, 0.0, 0.0, 0.0, 0.0, 0.0, 1.7632262744413302E9, 0.0, 2025-11-15 12:04:34.441
24.0, 1707.187661823351, 335.8523657708429, -212.94429362704977, -153.9268023762852, -0.03200000151991844, 0.2240000106394291, 1.008000047877431, 0.0, 0.0, 0.0, 0.0, 0.0, 1.7632262744413302E9, 0.0, 2025-11-15 12:04:34.441
25.0, 1848.8438524450175, 450.341923114378, -124.10297017963603, -77.32617148384452, -0.03200000151991844, 0.2240000106394291, 1.008000047877431, 0.0, 0.0, 0.0, 0.0, 0.0, 1.7632262744420207E9, 0.0, 2025-11-15 12:04:34.442
25.0, 1999.307507462334, 596.2242006859742, 24.026987265329808, 55.13360514678061, -0.03200000151991844, 0.2240000106394291, 1.008000047877431, 0.0, 0.0, 0.0, 0.0, 0.0, 1.7632262744420207E9, 0.0, 2025-11-15 12:04:34.442
26.0, 2218.5610123146325, 354.219014453236, -185.81879924843088, -116.58390131872147, -0.03200000151991844, 0.2240000106394291, 1.008000047877431, 0.0, 0.0, 0.0, 0.0, 0.0, 1.7632262744427657E9, 0.0, 2025-11-15 12:04:34.442
26.0, 2255.630900675431, 375.3457093029283, -179.5843860222958, -109.00312410853803, -0.03200000151991844, 0.2240000106394291, 1.008000047877431, 0.0, 0.0, 0.0, 0.0, 0.0, 1.7632262744427657E9, 0.0, 2025-11-15 12:04:34.442
27.0, 2013.418149995152, 604.6875942857005, 18.693889928516, 36.91655246261507, -0.03200000151991844, 0.2240000106394291, 1.008000047877431, 0.0, 0.0, 0.0, 0.0, 0.0, 1.7632262744535067E9, 0.0, 2025-11-15 12:04:34.453
27.0, 1777.295826392714, 411.1776907783933, -128.5609309268184, -81.35778363607824, -0.03200000151991844, 0.2240000106394291, 1.008000047877431, 0.0, 0.0, 0.0, 0.0, 0.0, 1.7632262744535067E9, 0.0, 2025-11-15 12:04:34.453
28.0, 1722.4763728422113, 343.3022464825772, -203.8899958343245, -136.85789897851646, -0.03200000151991844, 0.2240000106394291, 1.008000047877431, 0.0, 0.0, 0.0, 0.0, 0.0, 1.7632262744685428E9, 0.0, 2025-11-15 12:04:34.468
28.0, 1957.1700546615757, 547.4671249636449, -43.066817939747125, -0.022439399734139442, -0.03200000151991844, 0.2240000106394291, 1.008000047877431, 0.0, 0.0, 0.0, 0.0, 0.0, 1.7632262744685428E9, 0.0, 2025-11-15 12:04:34.468
29.0, 1899.3549412465654, 512.2260476811789, -43.5941438334994, 3.2836321610957384, -0.03200000151991844, 0.2240000106394291, 1.008000047877431, 0.0, 0.0, 0.0, 0.0, 0.0, 1.763226274484167E9, 0.0, 2025-11-15 12:04:34.484
29.0, 1703.3355648689903, 328.19679056154564, -218.2736510639079, -154.87299706507474, -0.03200000151991844, 0.2240000106394291, 1.008000047877431, 0.0, 0.0, 0.0, 0.0, 0.0, 1.763226274484167E9, 0.0, 2025-11-15 12:04:34.484
30.0, 1839.9653299502097, 445.1659015757032, -128.57589052664116, -70.54573286417872, -0.03200000151991844, 0.2240000106394291, 1.008000047877431, 0.0, 0.0, 0.0, 0.0, 0.0, 1.7632262744848742E9, 0.0, 2025-11-15 12:04:34.484
30.0, 2012.6365109044127, 608.7491256375797, 30.01830699434504, 65.23881482705474, -0.03200000151991844, 0.2240000106394291, 1.008000047877431, 0.0, 0.0, 0.0, 0.0, 0.0, 1.7632262744848742E9, 0.0, 2025-11-15 12:04:34.484
31.0, 2188.5034363707528, 832.5092099364847, -194.1849554493092, -128.10653308220208, -0.03200000151991844, 0.2240000106394291, 1.008000047877431, 0.0, 0.0, 0.0, 0.0, 0.0, 1.7632262744985197E9, 0.0, 2025-11-15 12:04:34.498
31.0, 2243.8988345144317, 859.7543811136857, -188.01412052242085, -132.16806443408132, -0.03200000151991844, 0.2240000106394291, 1.008000047877431, 0.0, 0.0, 0.0, 0.0, 0.0, 1.7632262744985197E9, 0.0, 2025-11-15 12:04:34.498
32.0, 2025.707461249549, 1098.4834149852395, 18.585432829800993, 48.046494730748236, -0.03200000151991844, 0.2240000106394291, 1.008000047877431, 0.0, 0.0, 0.0, 0.0, 0.0, 1.763226274514156E9, 0.0, 2025-11-15 12:04:34.514
32.0, 2252.6539403107017, 887.1229689894244, -144.5265638376586, -87.23316646646708, -0.03200000151991844, 0.2240000106394291, 1.008000047877431, 0.0, 0.0, 0.0, 0.0, 0.0, 1.763226274514156E9, 0.0, 2025-11-15 12:04:34.514
33.0, 2191.9778034295887, 823.9336193380877, -217.6827468709089, -141.71976892091334, -0.03200000151991844, 0.2240000106394291, 1.008000047877431, 0.0, 0.0, 0.0, 0.0, 0.0, 1.7632262745148604E9, 0.0, 2025-11-15 12:04:34.514
33.0, 1952.8691697125323, 1034.6246232418343, -41.67931505618617, 10.763432072475553, -0.03200000151991844, 0.2240000106394291, 1.008000047877431, 0.0, 0.0, 0.0, 0.0, 0.0, 1.7632262745148604E9, 0.0, 2025-11-15 12:04:34.514
34.0, 1896.3144025825895, 995.2883555078879, -54.62310880282894, -7.64061560947448, -0.03200000151991844, 0.2240000106394291, 1.008000047877431, 0.0, 0.0, 0.0, 0.0, 0.0, 1.763226274528505E9, 0.0, 2025-11-15 12:04:34.528
34.0, 1682.8521328116767, 811.9734192797914, -228.43495924351737, -169.0060789976269, -0.03200000151991844, 0.2240000106394291, 1.008000047877431, 0.0, 0.0, 0.0, 0.0, 0.0, 1.763226274528505E9, 0.0, 2025-11-15 12:04:34.528
35.0, 1847.58350615995, 937.5667395917699, -131.18260079575703, -85.82696408312768, -0.03200000151991844, 0.2240000106394291, 1.008000047877431, 0.0, 0.0, 0.0, 0.0, 0.0, 1.7632262745441635E9, 0.0, 2025-11-15 12:04:34.544
35.0, 1984.448884938378, 1077.2370433369651, 10.911158120725304, 44.27667557541281, -0.03200000151991844, 0.2240000106394291, 1.008000047877431, 0.0, 0.0, 0.0, 0.0, 0.0, 1.7632262745441635E9, 0.0, 2025-11-15 12:04:34.544
36.0, 2207.195456349291, 841.9225381249562, -193.7399073545821, -136.16227758675814, -0.03200000151991844, 0.2240000106394291, 1.008000047877431, 0.0, 0.0, 0.0, 0.0, 0.0, 1.7632262745448575E9, 0.0, 2025-11-15 12:04:34.544
36.0, 2243.1919934228063, 860.6856162026525, -193.2200612607412, -130.53372815344483, -0.03200000151991844, 0.2240000106394291, 1.008000047877431, 0.0, 0.0, 0.0, 0.0, 0.0, 1.7632262745448575E9, 0.0, 2025-11-15 12:04:34.544
37.0, 2020.7072150087915, 1099.0107408789918, 12.220123105216771, 44.863839868456125, -0.03200000151991844, 0.2240000106394291, 1.008000047877431, 0.0, 0.0, 0.0, 0.0, 0.0, 1.7632262745585644E9, 0.0, 2025-11-15 12:04:34.558
37.0, 1776.6600434002466, 898.7989366510883, -134.73550575366244, -79.33823766000569, -0.03200000151991844, 0.2240000106394291, 1.008000047877431, 0.0, 0.0, 0.0, 0.0, 0.0, 1.7632262745585644E9, 0.0, 2025-11-15 12:04:34.558
38.0, 1704.1284236595966, 824.9695716258138, -220.41287383856252, -151.98579429928213, -0.03200000151991844, 0.2240000106394291, 1.008000047877431, 0.0, 0.0, 0.0, 0.0, 0.0, 1.7632262745741708E9, 0.0, 2025-11-15 12:04:34.574
38.0, 1470.3491473793983, 1034.1907948469743, -43.21641393797472, 4.555198146030307, -0.03200000151991844, 0.2240000106394291, 1.008000047877431, 0.0, 0.0, 0.0, 0.0, 0.0, 1.7632262745741708E9, 0.0, 2025-11-15 12:04:34.574
39.0, 1406.0153883416206, 1008.4864624515176, -40.97621386451647, 1.3800230836495757, -0.03200000151991844, 0.2240000106394291, 1.008000047877431, 0.0, 0.0, 0.0, 0.0, 0.0, 1.7632262745748649E9, 0.0, 2025-11-15 12:04:34.574
39.0, 1212.6289015328512, 832.5914877355099, -206.8557364991866, -133.2526354212314, -0.03200000151991844, 0.2240000106394291, 1.008000047877431, 0.0, 0.0, 0.0, 0.0, 0.0, 1.7632262745748649E9, 0.0, 2025-11-15 12:04:34.574
40.0, 1363.7919178418815, 950.626470237039, -119.27849923679605, -57.07461322378367, -0.03200000151991844, 0.2240000106394291, 1.008000047877431, 0.0, 0.0, 0.0, 0.0, 0.0, 1.763226274588498E9, 0.0, 2025-11-15 12:04:34.588
40.0, 1516.0769041376188, 1093.845939040184, 32.3669641665183, 70.34377826657146, -0.03200000151991844, 0.2240000106394291, 1.008000047877431, 0.0, 0.0, 0.0, 0.0, 0.0, 1.763226274588498E9, 0.0, 2025-11-15 12:04:34.588
41.0, 1717.221813404467, 1337.6294477018528, -182.43044988857582, -119.69175818189979, -0.03200000151991844, 0.2240000106394291, 1.008000047877431, 0.0, 0.0, 0.0, 0.0, 0.0, 1.7632262746041934E9, 0.0, 2025-11-15 12:04:34.604
41.0, 1762.9084312631749, 1364.4108712845482, -179.52828752296045, -114.35492094513029, -0.03200000151991844, 0.2240000106394291, 1.008000047877431, 0.0, 0.0, 0.0, 0.0, 0.0, 1.7632262746041934E9, 0.0, 2025-11-15 12:04:34.604
42.0, 1549.6013673404232, 1122.1083630053326, 34.3678106428124, 70.44849546533078, -0.03200000151991844, 0.2240000106394291, 1.008000047877431, 0.0, 0.0, 0.0, 0.0, 0.0, 1.763226274604869E9, 0.0, 2025-11-15 12:04:34.604
42.0, 1306.3096555229276, 910.2991290148348, -129.14809521986172, -77.49072708189487, -0.03200000151991844, 0.2240000106394291, 1.008000047877431, 0.0, 0.0, 0.0, 0.0, 0.0, 1.763226274604869E9, 0.0, 2025-11-15 12:04:34.604
43.0, 1240.5210754023865, 846.7619686676189, -201.4067022637464, -129.63241226412356, -0.03200000151991844, 0.2240000106394291, 1.008000047877431, 0.0, 0.0, 0.0, 0.0, 0.0, 1.76322627461853E9, 0.0, 2025-11-15 12:04:34.618
43.0, 1471.4785971660167, 1050.1452080579475, -33.54129275260493, 2.5618314696475863, -0.03200000151991844, 0.2240000106394291, 1.008000047877431, 0.0, 0.0, 0.0, 0.0, 0.0, 1.76322627461853E9, 0.0, 2025-11-15 12:04:34.618
44.0, 1401.4003517962992, 1006.1116259796545, -49.447087264154106, -9.68260098528117, -0.03200000151991844, 0.2240000106394291, 1.008000047877431, 0.0, 0.0, 0.0, 0.0, 0.0, 1.7632262746341488E9, 0.0, 2025-11-15 12:04:34.634
44.0, 1211.5405906457454, 828.1335269883275, -216.43736018566415, -149.6221775272861, -0.03200000151991844, 0.2240000106394291, 1.008000047877431, 0.0, 0.0, 0.0, 0.0, 0.0, 1.7632262746341488E9, 0.0, 2025-11-15 12:04:34.634
45.0, 1371.986038644798, 956.8833228629082, -113.56019220454618, -63.036013753153384, -0.03200000151991844, 0.2240000106394291, 1.008000047877431, 0.0, 0.0, 0.0, 0.0, 0.0, 1.7632262746348567E9, 0.0, 2025-11-15 12:04:34.634
45.0, 1519.3418367989361, 1096.1160583132878, 23.372504773084074, 61.90656396653503, -0.03200000151991844, 0.2240000106394291, 1.008000047877431, 0.0, 0.0, 0.0, 0.0, 0.0, 1.7632262746348567E9, 0.0, 2025-11-15 12:04:34.634
46.0, 1716.2531793159433, 1331.0023449803703, -194.94041524035856, -133.8435396142304, -0.03200000151991844, 0.2240000106394291, 1.008000047877431, 0.0, 0.0, 0.0, 0.0, 0.0, 1.7632262746484716E9, 0.0, 2025-11-15 12:04:34.648
46.0, 1750.7761958069168, 1352.316034827847, -197.10581731470302, -131.85765273775905, -0.03200000151991844, 0.2240000106394291, 1.008000047877431, 0.0, 0.0, 0.0, 0.0, 0.0, 1.7632262746484716E9, 0.0, 2025-11-15 12:04:34.648
47.0, 1533.4150803321972, 1593.3675465718843, 15.09236627118662, 55.92646393738687, -0.03200000151991844, 0.2240000106394291, 1.008000047877431, 0.0, 0.0, 0.0, 0.0, 0.0, 1.7632262746642044E9, 0.0, 2025-11-15 12:04:34.664
47.0, 1772.0898856543936, 1388.3798901005648, -138.59134260797873, -75.93866860028356, -0.03200000151991844, 0.2240000106394291, 1.008000047877431, 0.0, 0.0, 0.0, 0.0, 0.0, 1.7632262746642044E9, 0.0, 2025-11-15 12:04:34.664
48.0, 1702.3444913807325, 1314.0194592815824, -227.52242365432903, -146.08049226924777, -0.03200000151991844, 0.2240000106394291, 1.008000047877431, 0.0, 0.0, 0.0, 0.0, 0.0, 1.7632262746649132E9, 0.0, 2025-11-15 12:04:34.664
48.0, 1464.649539846927, 1520.7162500326522, -54.312697106506675, -2.857283566147089, -0.03200000151991844, 0.2240000106394291, 1.008000047877431, 0.0, 0.0, 0.0, 0.0, 0.0, 1.7632262746649132E9, 0.0, 2025-11-15 12:04:34.664
49.0, 1394.963983972557, 1490.5689164898358, -51.934120734687895, -0.5460253935307264, -0.03200000151991844, 0.2240000106394291, 1.008000047877431, 0.0, 0.0, 0.0, 0.0, 0.0, 1.7632262746784878E9, 0.0, 2025-11-15 12:04:34.678
49.0, 1203.4212678419426, 1311.177135315258, -226.15362027054653, -162.5547515740618, -0.03200000151991844, 0.2240000106394291, 1.008000047877431, 0.0, 0.0, 0.0, 0.0, 0.0, 1.7632262746784878E9, 0.0, 2025-11-15 12:04:34.678
50.0, 1346.214388050139, 1417.5623294548132, -148.43849919131026, -88.16814145538956, -0.03200000151991844, 0.2240000106394291, 1.008000047877431, 0.0, 0.0, 0.0, 0.0, 0.0, 1.7632262746942103E9, 0.0, 2025-11-15 12:04:34.694
50.0, 1497.6242377562448, 1564.689993711654, 1.0565217374823987, 42.21973059978336, -0.03200000151991844, 0.2240000106394291, 1.008000047877431, 0.0, 0.0, 0.0, 0.0, 0.0, 1.7632262746942103E9, 0.0, 2025-11-15 12:04:34.694
51.0, 1704.7455071522854, 1806.6820902945474, -205.3410770171322, -139.96575584169477, -0.03200000151991844, 0.2240000106394291, 1.008000047877431, 0.0, 0.0, 0.0, 0.0, 0.0, 1.7632262746949203E9, 0.0, 2025-11-15 12:04:34.694
51.0, 1740.2670769314282, 1823.0665920004249, -205.62904931372032, -121.92073855549097, -0.03200000151991844, 0.2240000106394291, 1.008000047877431, 0.0, 0.0, 0.0, 0.0, 0.0, 1.7632262746949203E9, 0.0, 2025-11-15 12:04:34.694
52.0, 1522.5544108608738, 1579.1334873405285, 5.484563285019249, 43.251942987553775, -0.03200000151991844, 0.2240000106394291, 1.008000047877431, 0.0, 0.0, 0.0, 0.0, 0.0, 1.7632262747085006E9, 0.0, 2025-11-15 12:04:34.708
52.0, 1277.5460849637166, 1378.0315869231708, -153.6893187290989, -106.14210064243525, -0.03200000151991844, 0.2240000106394291, 1.008000047877431, 0.0, 0.0, 0.0, 0.0, 0.0, 1.7632262747085006E9, 0.0, 2025-11-15 12:04:34.708
53.0, 1212.7560581313446, 1306.980967564974, -234.40383957279846, -166.05155803263187, -0.03200000151991844, 0.2240000106394291, 1.008000047877431, 0.0, 0.0, 0.0, 0.0, 0.0, 1.7632262747242277E9, 0.0, 2025-11-15 12:04:34.724
53.0, 1445.7667849706486, 1503.08636164153, -74.64279326563701, -20.59562905598432, -0.03200000151991844, 0.2240000106394291, 1.008000047877431, 0.0, 0.0, 0.0, 0.0, 0.0, 1.7632262747242277E9, 0.0, 2025-11-15 12:04:34.724
54.0, 1389.413972438313, 1475.130609472748, -75.26361665828153, -30.020176944322884, -0.03200000151991844, 0.2240000106394291, 1.008000047877431, 0.0, 0.0, 0.0, 0.0, 0.0, 1.7632262747249148E9, 0.0, 2025-11-15 12:04:34.724
54.0, 1193.6040304582566, 1290.3458925620653, -247.3999919188209, -178.5652632843703, -0.03200000151991844, 0.2240000106394291, 1.008000047877431, 0.0, 0.0, 0.0, 0.0, 0.0, 1.7632262747249148E9, 0.0, 2025-11-15 12:04:34.724
55.0, 1342.0668389992788, 1411.1820601304062, -149.93445917358622, -92.58122340310365, -0.03200000151991844, 0.2240000106394291, 1.008000047877431, 0.0, 0.0, 0.0, 0.0, 0.0, 1.763226274738492E9, 0.0, 2025-11-15 12:04:34.738
55.0, 1485.0619138050824, 1551.6714019658975, -3.6407926068641245, 36.91281256265938, -0.03200000151991844, 0.2240000106394291, 1.008000047877431, 0.0, 0.0, 0.0, 0.0, 0.0, 1.763226274738492E9, 0.0, 2025-11-15 12:04:34.738
56.0, 1704.3789969566278, 1312.5571583989076, -210.00099236192182, -143.1783299036324, -0.03200000151991844, 0.2240000106394291, 1.008000047877431, 0.0, 0.0, 0.0, 0.0, 0.0, 1.763226274754239E9, 0.0, 2025-11-15 12:04:34.754
56.0, 1736.845068471972, 1330.680713584181, -207.39054219285026, -142.4789686119184, -0.03200000151991844, 0.2240000106394291, 1.008000047877431, 0.0, 0.0, 0.0, 0.0, 0.0, 1.763226274754239E9, 0.0, 2025-11-15 12:04:34.754
57.0, 1514.289231958799, 1570.804730139207, -0.10284724878147244, 38.33023464586586, -0.03200000151991844, 0.2240000106394291, 1.008000047877431, 0.0, 0.0, 0.0, 0.0, 0.0, 1.763226274754924E9, 0.0, 2025-11-15 12:04:34.754
57.0, 1271.6819218331948, 1370.0656000175513, -157.62369348248467, -98.93905332777649, -0.03200000151991844, 0.2240000106394291, 1.008000047877431, 0.0, 0.0, 0.0, 0.0, 0.0, 1.763226274754924E9, 0.0, 2025-11-15 12:04:34.754
58.0, 1223.2464775070548, 1308.6489629452117, -226.65476686460897, -157.03091933950782, -0.03200000151991844, 0.2240000106394291, 1.008000047877431, 0.0, 0.0, 0.0, 0.0, 0.0, 1.7632262747684968E9, 0.0, 2025-11-15 12:04:34.768
58.0, 1438.8442301526666, 1491.3094166810624, -76.91291253874078, -31.43759902752936, -0.03200000151991844, 0.2240000106394291, 1.008000047877431, 0.0, 0.0, 0.0, 0.0, 0.0, 1.7632262747684968E9, 0.0, 2025-11-15 12:04:34.768
59.0, 1386.6464464711025, 1469.12433014391, -69.7173450239934, -20.408634058199823, -0.03200000151991844, 0.2240000106394291, 1.008000047877431, 0.0, 0.0, 0.0, 0.0, 0.0, 1.763226274784304E9, 0.0, 2025-11-15 12:04:34.784
59.0, 1191.6854617809877, 1285.6036994182505, -236.16159255197272, -164.7089339485392, -0.03200000151991844, 0.2240000106394291, 1.008000047877431, 0.0, 0.0, 0.0, 0.0, 0.0, 1.763226274784304E9, 0.0, 2025-11-15 12:04:34.784
60.0, 1337.8220525495708, 1403.4816061216407, -146.6433472125791, -92.1922738077119, -0.03200000151991844, 0.2240000106394291, 1.0240000486373901, 0.0, 0.0, 0.0, 0.0, 0.0, 1.7632262747849195E9, 0.0, 2025-11-15 12:04:34.784
60.0, 1492.6800900148228, 1556.1667617126368, 2.8741131159476936, 37.612173854373395, -0.03200000151991844, 0.2240000106394291, 1.0240000486373901, 0.0, 0.0, 0.0, 0.0, 0.0, 1.7632262747849195E9, 0.0, 2025-11-15 12:04:34.784
61.0, 1700.010793808382, 1795.5446682265028, -214.50383190857247, -149.12477083317935, -0.03200000151991844, 0.2240000106394291, 1.0240000486373901, 0.0, 0.0, 0.0, 0.0, 0.0, 1.763226274798526E9, 0.0, 2025-11-15 12:04:34.798
61.0, 1744.7773962779902, 1822.774879803881, -206.90061529865488, -144.5845322869718, -0.03200000151991844, 0.2240000106394291, 1.0240000486373901, 0.0, 0.0, 0.0, 0.0, 0.0, 1.763226274798526E9, 0.0, 2025-11-15 12:04:34.798
62.0, 1518.717273506336, 2066.919288811274, -0.22626394731923938, 32.28281641751528, -0.03200000151991844, 0.2240000106394291, 1.0240000486373901, 0.0, 0.0, 0.0, 0.0, 0.0, 1.7632262748141887E9, 0.0, 2025-11-15 12:04:34.814
62.0, 1282.1274624094367, 1869.9724172446877, -148.2328046937473, -94.38759508170187, -0.03200000151991844, 0.2240000106394291, 1.0240000486373901, 0.0, 0.0, 0.0, 0.0, 0.0, 1.7632262748141887E9, 0.0, 2025-11-15 12:04:34.814
63.0, 1225.8083089767024, 1801.9286774508655, -223.3112963042222, -158.27256612479687, -0.03200000151991844, 0.2240000106394291, 1.0240000486373901, 0.0, 0.0, 0.0, 0.0, 0.0, 1.763226274814906E9, 0.0, 2025-11-15 12:04:34.814
63.0, 1459.017250513658, 2006.097295831889, -53.40764131722972, -3.855836854316294, -0.03200000151991844, 0.2240000106394291, 1.0240000486373901, 0.0, 0.0, 0.0, 0.0, 0.0, 1.763226274814906E9, 0.0, 2025-11-15 12:04:34.814
64.0, 1404.5456076590344, 1974.4315629070625, -60.94727962790057, -21.35482874698937, -0.03200000151991844, 0.2240000106394291, 1.0240000486373901, 0.0, 0.0, 0.0, 0.0, 0.0, 1.7632262748285155E9, 0.0, 2025-11-15 12:04:34.828
64.0, 1206.9442536002025, 1792.8968190578744, -224.11537479469553, -163.18305476661772, -0.03200000151991844, 0.2240000106394291, 1.0240000486373901, 0.0, 0.0, 0.0, 0.0, 0.0, 1.7632262748285155E9, 0.0, 2025-11-15 12:04:34.828
65.0, 1326.9800825780258, 1887.57612633612, -155.6116273063235, -108.74881091155112, -0.03200000151991844, 0.2240000106394291, 1.0240000486373901, 0.0, 0.0, 0.0, 0.0, 0.0, 1.7632262748442695E9, 0.0, 2025-11-15 12:04:34.844
65.0, 1492.350978818722, 2053.134017574601, 3.259322811383754, 41.209957611747086, -0.03200000151991844, 0.2240000106394291, 1.0240000486373901, 0.0, 0.0, 0.0, 0.0, 0.0, 1.7632262748442695E9, 0.0, 2025-11-15 12:04:34.844
66.0, 1701.035526396241, 2295.4589652535506, -206.23491310654208, -142.79686010815203, -0.03200000151991844, 0.2240000106394291, 1.0240000486373901, 0.0, 0.0, 0.0, 0.0, 0.0, 1.7632262748449204E9, 0.0, 2025-11-15 12:04:34.844
