%OpenBCI Raw EXG Data
%Number of channels = 4
%Sample Rate = 200 Hz
%Board = OpenBCI_GUI$BoardGanglionBLE
Sample Index, EXG Channel 0, EXG Channel 1, EXG Channel 2, EXG Channel 3, Accel Channel 0, Accel Channel 1, Accel Channel 2, Other, Other, Other, Other, Other, Timestamp, Marker Channel, Timestamp (Formatted)
0.0, -223.5656095012091, -138.37255846057087, -180.89709090674296, -147.0135973081924, 0.0, 0.0, 0.0, 0.0, 0.0, 0.0, 0.0, 0.0, 1.7632277685258553E9, 0.0, 2025-11-15 12:29:28.525
1.0, -46.0400384045206, 24.17845321353525, -35.800192325841635, -28.481208112556487, 0.0, 0.288000013679266, 0.0, 0.0, 0.0, 0.0, 0.0, 0.0, 1.7632277685393507E9, 0.0, 2025-11-15 12:29:28.539
1.0, -275.0453323912807, -171.59408976696432, -181.89564419491217, -153.91745262639597, 0.0, 0.288000013679266, 0.0, 0.0, 0.0, 0.0, 0.0, 0.0, 1.7632277685393507E9, 0.0, 2025-11-15 12:29:28.539
2.0, -261.3012000541203, -169.01729869749397, -203.20185424247757, -178.79900703160092, -0.03200000151991844, 0.288000013679266, 0.0, 0.0, 0.0, 0.0, 0.0, 0.0, 1.7632277685560334E9, 0.0, 2025-11-15 12:29:28.556
2.0, -76.44542504427955, -9.495605987496674, -80.11052700085565, -81.30355508672073, -0.03200000151991844, 0.288000013679266, 0.0, 0.0, 0.0, 0.0, 0.0, 0.0, 1.7632277685560334E9, 0.0, 2025-11-15 12:29:28.556
3.0, -206.3770293048583, -116.50536341965199, -133.54621756775305, -107.6249709748663, -0.03200000151991844, 0.288000013679266, 0.0, 0.0, 0.0, 0.0, 0.0, 0.0, 1.7632277685567892E9, 0.0, 2025-11-15 12:29:28.556
3.0, -296.6769137349911, -203.04290849436074, -215.09847600152716, -183.6982759735547, -0.03200000151991844, 0.288000013679266, 0.0, 0.0, 0.0, 0.0, 0.0, 0.0, 1.7632277685567892E9, 0.0, 2025-11-15 12:29:28.556
4.0, -142.33498246362433, -70.70654856227338, -128.78906482411548, -118.42580204689875, -0.03200000151991844, 0.288000013679266, 0.0, 0.0, 0.0, 0.0, 0.0, 0.0, 1.7632277685691564E9, 0.0, 2025-11-15 12:29:28.569
4.0, -124.54427837440744, -41.14263941254467, -77.44397833244875, -63.00422460353002, -0.03200000151991844, 0.288000013679266, 0.0, 0.0, 0.0, 0.0, 0.0, 0.0, 1.7632277685691564E9, 0.0, 2025-11-15 12:29:28.569
5.0, -286.35852975724265, -195.32749488577247, -206.5640243026428, -162.14523252891377, -0.03200000151991844, 0.288000013679266, 0.0, 0.0, 0.0, 0.0, 0.0, 0.0, 1.763227768584882E9, 0.0, 2025-11-15 12:29:28.584
5.0, -214.11488231318071, -139.37859154865146, -179.60308552207425, -153.6818389291875, -0.03200000151991844, 0.288000013679266, 0.0, 0.0, 0.0, 0.0, 0.0, 0.0, 1.763227768584882E9, 0.0, 2025-11-15 12:29:28.584
6.0, -55.43466709321365, 6.45132742356509, -60.715405830647796, -62.764871006365865, -0.03200000151991844, 0.288000013679266, 0.0, 0.0, 0.0, 0.0, 0.0, 0.0, 1.763227768585595E9, 0.0, 2025-11-15 12:29:28.585
6.0, -259.9585759700276, -161.46644068695605, -176.72336255619302, -136.94952652743086, -0.03200000151991844, 0.288000013679266, 0.0, 0.0, 0.0, 0.0, 0.0, 0.0, 1.763227768585595E9, 0.0, 2025-11-15 12:29:28.585
7.0, -274.4469483983703, -186.9015002856031, -214.3392763105221, -186.215228643734, -0.03200000151991844, 0.288000013679266, 0.0, 0.0, 0.0, 0.0, 0.0, 0.0, 1.763227768599167E9, 0.0, 2025-11-15 12:29:28.599
7.0, -67.06575595540926, -6.04741822835058, -75.77972285216674, -80.87720649177209, -0.03200000151991844, 0.288000013679266, 0.0, 0.0, 0.0, 0.0, 0.0, 0.0, 1.763227768599167E9, 0.0, 2025-11-15 12:29:28.599
8.0, -194.28967264806852, -103.96921876817942, -125.598930161912, -96.00884171249345, -0.03200000151991844, 0.288000013679266, 0.0, 0.0, 0.0, 0.0, 0.0, 0.0, 1.7632277686149514E9, 0.0, 2025-11-15 12:29:28.614
8.0, -288.4977525318973, -199.37032673787326, -223.6067484007217, -179.09819902805611, -0.03200000151991844, 0.288000013679266, 0.0, 0.0, 0.0, 0.0, 0.0, 0.0, 1.7632277686149514E9, 0.0, 2025-11-15 12:29:28.614
9.0, -130.27380510652438, -66.11021151673049, -118.62401674455032, -104.46475551230833, -0.03200000151991844, 0.288000013679266, 0.0, 0.0, 0.0, 0.0, 0.0, 0.0, 1.763227768615622E9, 0.0, 2025-11-15 12:29:28.615
9.0, -126.09633685601875, -47.19379754085094, -82.17869167635217, -64.67221998376772, -0.03200000151991844, 0.288000013679266, 0.0, 0.0, 0.0, 0.0, 0.0, 0.0, 1.763227768615622E9, 0.0, 2025-11-15 12:29:28.615
10.0, -297.26033812807873, -204.27707547973841, -216.1606075889431, -170.8068408262916, -0.03200000151991844, 0.288000013679266, 1.008000047877431, 0.0, 0.0, 0.0, 0.0, 0.0, 1.763227768629202E9, 0.0, 2025-11-15 12:29:28.629
10.0, -214.08870301349089, -136.4315503835678, -180.0331740169786, -147.54840300185606, -0.03200000151991844, 0.288000013679266, 1.008000047877431, 0.0, 0.0, 0.0, 0.0, 0.0, 1.763227768629202E9, 0.0, 2025-11-15 12:29:28.629
11.0, -59.45879944553599, 8.45217389985919, -53.2655251189135, -49.35732966521755, -0.03200000151991844, 0.09600000455975533, 1.008000047877431, 0.0, 0.0, 0.0, 0.0, 0.0, 1.7632277686448848E9, 0.0, 2025-11-15 12:29:28.644
11.0, -261.1777833555825, -158.9681875165552, -172.5047554061748, -135.28527104714885, -0.03200000151991844, 0.09600000455975533, 1.008000047877431, 0.0, 0.0, 0.0, 0.0, 0.0, 1.7632277686448848E9, 0.0, 2025-11-15 12:29:28.644
12.0, -269.843131552916, -183.28875692840666, -206.28353180596605, -169.23608284490183, -0.01600000075995922, 0.09600000455975533, 1.008000047877431, 0.0, 0.0, 0.0, 0.0, 0.0, 1.763227768645598E9, 0.0, 2025-11-15 12:29:28.645
12.0, -64.0476566911675, -5.957660629414022, -73.97335117356852, -71.47883790312335, -0.01600000075995922, 0.09600000455975533, 1.008000047877431, 0.0, 0.0, 0.0, 0.0, 0.0, 1.763227768645598E9, 0.0, 2025-11-15 12:29:28.645
13.0, -211.33239674614742, -119.04849538952112, -141.32520947558805, -117.33001135988161, -0.01600000075995922, 0.09600000455975533, 1.008000047877431, 0.0, 0.0, 0.0, 0.0, 0.0, 1.7632277686755931E9, 0.0, 2025-11-15 12:29:28.675
13.0, -283.54612499056384, -195.7949823802337, -215.58840289572254, -178.75786813208833, -0.01600000075995922, 0.09600000455975533, 1.008000047877431, 0.0, 0.0, 0.0, 0.0, 0.0, 1.7632277686755931E9, 0.0, 2025-11-15 12:29:28.675
14.0, -146.43765271501616, -83.91587520577013, -141.04097707895562, -122.97726029297337, -0.01600000075995922, 0.09600000455975533, 1.008000047877431, 0.0, 0.0, 0.0, 0.0, 0.0, 1.7632277686762536E9, 0.0, 2025-11-15 12:29:28.676
14.0, -105.70266239764169, -30.57742203772068, -71.55363590223715, -54.783924500923604, -0.01600000075995922, 0.09600000455975533, 1.008000047877431, 0.0, 0.0, 0.0, 0.0, 0.0, 1.7632277686762536E9, 0.0, 2025-11-15 12:29:28.676
15.0, -288.43043433269486, -199.48626363649964, -209.69058066559955, -168.20013055717573, -0.01600000075995922, 0.09600000455975533, 1.008000047877431, 0.0, 0.0, 0.0, 0.0, 0.0, 1.7632277686769943E9, 0.0, 2025-11-15 12:29:28.676
15.0, -212.9330739271827, -135.23478239774704, -179.16551722725853, -150.62260076543316, -0.01600000075995922, 0.09600000455975533, 1.008000047877431, 0.0, 0.0, 0.0, 0.0, 0.0, 1.7632277686769943E9, 0.0, 2025-11-15 12:29:28.676
16.0, -55.74133888958022, 13.127048844471574, -56.07045008568093, -53.02617152174935, -0.01600000075995922, 0.09600000455975533, 1.008000047877431, 0.0, 0.0, 0.0, 0.0, 0.0, 1.763227768689228E9, 0.0, 2025-11-15 12:29:28.689
16.0, -262.6288645383902, -161.672135184519, -174.8795918780379, -129.34630991751328, -0.01600000075995922, 0.09600000455975533, 1.008000047877431, 0.0, 0.0, 0.0, 0.0, 0.0, 1.763227768689228E9, 0.0, 2025-11-15 12:29:28.689
17.0, -270.2919195475988, -184.2686107167974, -206.53036520304158, -179.57690622238442, -0.01600000075995922, 0.09600000455975533, 1.008000047877431, 0.0, 0.0, 0.0, 0.0, 0.0, 1.763227768704869E9, 0.0, 2025-11-15 12:29:28.704
17.0, -63.32959589967504, -5.766925731673837, -76.43420534441248, -74.07058857241645, -0.01600000075995922, 0.09600000455975533, 1.008000047877431, 0.0, 0.0, 0.0, 0.0, 0.0, 1.763227768704869E9, 0.0, 2025-11-15 12:29:28.704
18.0, -188.27217361936346, -106.4188532391563, -125.49047306319699, -97.2504884977825, -0.01600000075995922, 0.09600000455975533, 1.008000047877431, 0.0, 0.0, 0.0, 0.0, 0.0, 1.763227768705567E9, 0.0, 2025-11-15 12:29:28.705
18.0, -285.8573831631802, -190.52920324262232, -209.6344821662642, -178.81396663142368, -0.01600000075995922, 0.09600000455975533, 1.008000047877431, 0.0, 0.0, 0.0, 0.0, 0.0, 1.763227768705567E9, 0.0, 2025-11-15 12:29:28.705
19.0, -136.81115022907034, -68.67204298637807, -128.35149652929977, -118.47816064627841, -0.01600000075995922, 0.09600000455975533, 1.008000047877431, 0.0, 0.0, 0.0, 0.0, 0.0, 1.763227768719212E9, 0.0, 2025-11-15 12:29:28.719
19.0, -99.9170371661894, -24.806756406091154, -67.94837234495208, -44.12520962720737, -0.01600000075995922, 0.09600000455975533, 1.008000047877431, 0.0, 0.0, 0.0, 0.0, 0.0, 1.763227768719212E9, 0.0, 2025-11-15 12:29:28.719
20.0, -286.7549591525458, -190.03927634842694, -197.98469380429015, -160.37999974982813, -0.01600000075995922, 0.09600000455975533, 0.5280000250786543, 0.0, 0.0, 0.0, 0.0, 0.0, 1.763227768734856E9, 0.0, 2025-11-15 12:29:28.734
20.0, -213.58007661951706, -126.84244689717889, -167.6204460640438, -145.46527872653678, -0.01600000075995922, 0.09600000455975533, 0.5280000250786543, 0.0, 0.0, 0.0, 0.0, 0.0, 1.763227768734856E9, 0.0, 2025-11-15 12:29:28.734
21.0, -44.82831081887707, 19.76537126582116, -38.51535969367251, -30.197822192218155, -0.01600000075995922, 0.144000006839633, 0.5280000250786543, 0.0, 0.0, 0.0, 0.0, 0.0, 1.7632277687355533E9, 0.0, 2025-11-15 12:29:28.735
21.0, -245.97882993565872, -145.7775603728369, -152.43645224394277, -115.68819527933374, -0.01600000075995922, 0.144000006839633, 0.5280000250786543, 0.0, 0.0, 0.0, 0.0, 0.0, 1.7632277687355533E9, 0.0, 2025-11-15 12:29:28.735
22.0, -240.7616694974713, -144.4386761886999, -168.7237165509723, -133.18718717200682, -0.03200000151991844, 0.144000006839633, 0.5280000250786543, 0.0, 0.0, 0.0, 0.0, 0.0, 1.7632277687492998E9, 0.0, 2025-11-15 12:29:28.749
22.0, -43.912035329733044, 22.97794532775879, -46.54492489853874, -53.7105732136406, -0.03200000151991844, 0.144000006839633, 0.5280000250786543, 0.0, 0.0, 0.0, 0.0, 0.0, 1.7632277687492998E9, 0.0, 2025-11-15 12:29:28.749
23.0, -179.64422442158684, -87.97366665769368, -109.25930725550279, -90.03248158330098, -0.03200000151991844, 0.144000006839633, 0.5280000250786543, 0.0, 0.0, 0.0, 0.0, 0.0, 1.7632277687648497E9, 0.0, 2025-11-15 12:29:28.764
23.0, -261.49193495186046, -164.64161574933678, -188.04403972206637, -152.9824776374735, -0.03200000151991844, 0.144000006839633, 0.5280000250786543, 0.0, 0.0, 0.0, 0.0, 0.0, 1.7632277687648497E9, 0.0, 2025-11-15 12:29:28.764
24.0, -127.09115024423227, -45.61929965950549, -102.86781823122874, -74.77368976408616, -0.03200000151991844, 0.144000006839633, 0.5280000250786543, 0.0, 0.0, 0.0, 0.0, 0.0, 1.7632277687655597E9, 0.0, 2025-11-15 12:29:28.765
24.0, -85.03971514245495, -8.01834550499916, -50.277345054317266, -43.54926503403112, -0.03200000151991844, 0.144000006839633, 0.5280000250786543, 0.0, 0.0, 0.0, 0.0, 0.0, 1.7632277687655597E9, 0.0, 2025-11-15 12:29:28.765
25.0, -276.69088837178424, -173.0040320502594, -180.7699343082495, -158.67460537003353, -0.03200000151991844, 0.144000006839633, 0.5280000250786543, 0.0, 0.0, 0.0, 0.0, 0.0, 1.7632277687792153E9, 0.0, 2025-11-15 12:29:28.779
25.0, -203.968533733394, -117.01024991367012, -158.00516327796504, -134.70184665406123, -0.03200000151991844, 0.144000006839633, 0.5280000250786543, 0.0, 0.0, 0.0, 0.0, 0.0, 1.7632277687792153E9, 0.0, 2025-11-15 12:29:28.779
26.0, -28.544786411803216, 37.08858786057681, -33.68714885087684, -37.14655630989, -0.03200000151991844, 0.144000006839633, 0.5280000250786543, 0.0, 0.0, 0.0, 0.0, 0.0, 1.76322776879489E9, 0.0, 2025-11-15 12:29:28.794
26.0, -248.10683301044628, -149.39778352994472, -161.0531817418523, -132.07269698521122, -0.03200000151991844, 0.144000006839633, 0.5280000250786543, 0.0, 0.0, 0.0, 0.0, 0.0, 1.76322776879489E9, 0.0, 2025-11-15 12:29:28.794
27.0, -241.11695999326184, -147.98410134669393, -180.5866792104207, -150.865694262553, -0.03200000151991844, 0.144000006839633, 0.5280000250786543, 0.0, 0.0, 0.0, 0.0, 0.0, 1.7632277687955616E9, 0.0, 2025-11-15 12:29:28.795
27.0, -60.87996142869815, 9.312350889667869, -66.65436696028337, -59.552296944428235, -0.03200000151991844, 0.144000006839633, 0.5280000250786543, 0.0, 0.0, 0.0, 0.0, 0.0, 1.7632277687955616E9, 0.0, 2025-11-15 12:29:28.795
28.0, -174.6215387810953, -84.83963049482554, -111.65658312710002, -87.60528651205823, -0.03200000151991844, 0.144000006839633, 0.5280000250786543, 0.0, 0.0, 0.0, 0.0, 0.0, 1.7632277688092048E9, 0.0, 2025-11-15 12:29:28.809
28.0, -271.1483566374518, -181.3851478509605, -204.08447063202038, -180.9531894060783, -0.03200000151991844, 0.144000006839633, 0.5280000250786543, 0.0, 0.0, 0.0, 0.0, 0.0, 1.7632277688092048E9, 0.0, 2025-11-15 12:29:28.809
29.0, -128.3402768294327, -52.6540514761582, -115.41144268261269, -108.68710256228223, -0.03200000151991844, 0.144000006839633, 0.5280000250786543, 0.0, 0.0, 0.0, 0.0, 0.0, 1.7632277688248863E9, 0.0, 2025-11-15 12:29:28.824
29.0, -95.5450941179879, -15.31863021850586, -59.967425839509815, -55.483285792637616, -0.03200000151991844, 0.144000006839633, 0.5280000250786543, 0.0, 0.0, 0.0, 0.0, 0.0, 1.7632277688248863E9, 0.0, 2025-11-15 12:29:28.824
30.0, -276.5113731739111, -178.75973808206618, -200.1164367790334, -164.49388970108703, -0.03200000151991844, 0.144000006839633, 0.7680000364780426, 0.0, 0.0, 0.0, 0.0, 0.0, 1.7632277688255947E9, 0.0, 2025-11-15 12:29:28.825
30.0, -220.3492955393158, -141.03536722902209, -184.89504395937547, -176.45782965933904, -0.03200000151991844, 0.144000006839633, 0.7680000364780426, 0.0, 0.0, 0.0, 0.0, 0.0, 1.7632277688255947E9, 0.0, 2025-11-15 12:29:28.825
31.0, -54.98961899848655, 3.908195453695953, -61.50078482134268, -62.60031540831551, -0.03200000151991844, 0.17600000835955143, 0.7680000364780426, 0.0, 0.0, 0.0, 0.0, 0.0, 1.7632277688391707E9, 0.0, 2025-11-15 12:29:28.839
31.0, -274.16271600173786, -177.77240449376404, -188.91169651178643, -160.97838374273852, -0.03200000151991844, 0.17600000835955143, 0.7680000364780426, 0.0, 0.0, 0.0, 0.0, 0.0, 1.7632277688391707E9, 0.0, 2025-11-15 12:29:28.839
32.0, -261.6228314503096, -185.62245450075716, -216.42614048579708, -183.0699727809988, -0.03200000151991844, 0.17600000835955143, 0.7680000364780426, 0.0, 0.0, 0.0, 0.0, 0.0, 1.7632277688549018E9, 0.0, 2025-11-15 12:29:28.854
32.0, -81.59152738330886, -20.610588655807078, -88.24854930443689, -88.58514030044898, -0.03200000151991844, 0.17600000835955143, 0.7680000364780426, 0.0, 0.0, 0.0, 0.0, 0.0, 1.7632277688549018E9, 0.0, 2025-11-15 12:29:28.854
33.0, -199.06178499152884, -109.31727570481598, -133.53499786788598, -112.97676781145856, -0.03200000151991844, 0.17600000835955143, 0.7680000364780426, 0.0, 0.0, 0.0, 0.0, 0.0, 1.763227768855579E9, 0.0, 2025-11-15 12:29:28.855
33.0, -276.46275447448716, -183.67022672388703, -206.67996120126918, -172.81516710249707, -0.03200000151991844, 0.17600000835955143, 0.7680000364780426, 0.0, 0.0, 0.0, 0.0, 0.0, 1.763227768855579E9, 0.0, 2025-11-15 12:29:28.855
34.0, -152.32799514522776, -85.10142349172384, -153.92119252635166, -145.6821929239668, -0.03200000151991844, 0.17600000835955143, 0.7680000364780426, 0.0, 0.0, 0.0, 0.0, 0.0, 1.7632277688691883E9, 0.0, 2025-11-15 12:29:28.869
34.0, -110.17558274464682, -36.73329736478627, -90.03996138321236, -81.04550198977813, -0.03200000151991844, 0.17600000835955143, 0.7680000364780426, 0.0, 0.0, 0.0, 0.0, 0.0, 1.7632277688691883E9, 0.0, 2025-11-15 12:29:28.869
35.0, -283.3703496926464, -198.18851835187525, -217.0095648788847, -175.8818850661628, -0.03200000151991844, 0.17600000835955143, 0.7680000364780426, 0.0, 0.0, 0.0, 0.0, 0.0, 1.7632277688848548E9, 0.0, 2025-11-15 12:29:28.884
35.0, -224.7212385875173, -146.065532669425, -199.72374728368595, -171.23318942124024, -0.03200000151991844, 0.17600000835955143, 0.7680000364780426, 0.0, 0.0, 0.0, 0.0, 0.0, 1.7632277688848548E9, 0.0, 2025-11-15 12:29:28.884
36.0, -61.29509032377973, 0.160815698094666, -70.5700422138907, -71.37786060431972, -0.03200000151991844, 0.17600000835955143, 0.7680000364780426, 0.0, 0.0, 0.0, 0.0, 0.0, 1.763227768885556E9, 0.0, 2025-11-15 12:29:28.885
36.0, -264.02010732190683, -180.73440525867045, -193.6314502558671, -164.86787969665602, -0.03200000151991844, 0.17600000835955143, 0.7680000364780426, 0.0, 0.0, 0.0, 0.0, 0.0, 1.763227768885556E9, 0.0, 2025-11-15 12:29:28.885
37.0, -274.58158479677513, -191.03034983668476, -220.7906037340872, -186.98190813465044, -0.03200000151991844, 0.17600000835955143, 0.7680000364780426, 0.0, 0.0, 0.0, 0.0, 0.0, 1.7632277688991816E9, 0.0, 2025-11-15 12:29:28.899
37.0, -82.204870976042, -21.837275841273367, -94.71483632782474, -95.89290481386706, -0.03200000151991844, 0.17600000835955143, 0.7680000364780426, 0.0, 0.0, 0.0, 0.0, 0.0, 1.7632277688991816E9, 0.0, 2025-11-15 12:29:28.899
38.0, -196.58597122086212, -112.0137435728684, -135.4498266451992, -116.85504406550899, -0.03200000151991844, 0.17600000835955143, 0.7680000364780426, 0.0, 0.0, 0.0, 0.0, 0.0, 1.7632277689149609E9, 0.0, 2025-11-15 12:29:28.914
38.0, -292.10301608918235, -200.70547102205455, -225.10644828295335, -187.21004203194752, -0.03200000151991844, 0.17600000835955143, 0.7680000364780426, 0.0, 0.0, 0.0, 0.0, 0.0, 1.7632277689149609E9, 0.0, 2025-11-15 12:29:28.914
39.0, -149.52681007841602, -79.87678325362504, -144.07029604306445, -129.76517871255055, -0.03200000151991844, 0.17600000835955143, 0.7680000364780426, 0.0, 0.0, 0.0, 0.0, 0.0, 1.7632277689156425E9, 0.0, 2025-11-15 12:29:28.915
39.0, -115.39648308278993, -36.95021156221628, -79.75149660510942, -71.69949200050905, -0.03200000151991844, 0.17600000835955143, 0.7680000364780426, 0.0, 0.0, 0.0, 0.0, 0.0, 1.7632277689156425E9, 0.0, 2025-11-15 12:29:28.915
40.0, -307.18229271052405, -211.614759192802, -231.7933894037269, -204.8548900228925, -0.03200000151991844, 0.17600000835955143, 0.8960000425577164, 0.0, 0.0, 0.0, 0.0, 0.0, 1.7632277689292042E9, 0.0, 2025-11-15 12:29:28.929
40.0, -221.63582112407312, -138.2902806615457, -179.1729970271699, -151.96148494957015, -0.03200000151991844, 0.17600000835955143, 0.8960000425577164, 0.0, 0.0, 0.0, 0.0, 0.0, 1.7632277689292042E9, 0.0, 2025-11-15 12:29:28.929
41.0, -61.968272315803915, 5.658468632958829, -63.28471710020676, -64.0139975915663, -0.03200000151991844, 0.17600000835955143, 0.8960000425577164, 0.0, 0.0, 0.0, 0.0, 0.0, 1.763227768944909E9, 0.0, 2025-11-15 12:29:28.944
41.0, -260.5120811634697, -168.0075257094577, -183.89275077125058, -155.89585970295593, -0.03200000151991844, 0.17600000835955143, 0.8960000425577164, 0.0, 0.0, 0.0, 0.0, 0.0, 1.763227768944909E9, 0.0, 2025-11-15 12:29:28.944
42.0, -268.2985528712161, -181.43002665042877, -211.58297004317865, -186.82109243655577, -0.03200000151991844, 0.17600000835955143, 0.8960000425577164, 0.0, 0.0, 0.0, 0.0, 0.0, 1.7632277689456086E9, 0.0, 2025-11-15 12:29:28.945
42.0, -86.93958431994542, -20.09822236187756, -97.30658699711785, -85.68297793483362, -0.03200000151991844, 0.17600000835955143, 0.8960000425577164, 0.0, 0.0, 0.0, 0.0, 0.0, 1.7632277689456086E9, 0.0, 2025-11-15 12:29:28.945
43.0, -196.13718322617933, -114.44093864411116, -144.76965733477846, -123.1118966913782, -0.03200000151991844, 0.17600000835955143, 0.8960000425577164, 0.0, 0.0, 0.0, 0.0, 0.0, 1.7632277689591885E9, 0.0, 2025-11-15 12:29:28.959
43.0, -296.84894913295284, -203.78340868558735, -231.6886722049676, -198.2577065010555, -0.03200000151991844, 0.17600000835955143, 0.8960000425577164, 0.0, 0.0, 0.0, 0.0, 0.0, 1.7632277689591885E9, 0.0, 2025-11-15 12:29:28.959
44.0, -158.55118867149577, -92.31195060629398, -158.15475927619264, -146.92009980930015, -0.03200000151991844, 0.17600000835955143, 0.8960000425577164, 0.0, 0.0, 0.0, 0.0, 0.0, 1.7632277689749174E9, 0.0, 2025-11-15 12:29:28.974
44.0, -109.52484015235677, -36.396706368774176, -90.16711798170581, -82.11511337710544, -0.03200000151991844, 0.17600000835955143, 0.8960000425577164, 0.0, 0.0, 0.0, 0.0, 0.0, 1.7632277689749174E9, 0.0, 2025-11-15 12:29:28.974
45.0, -296.66195413516834, -203.88064608443528, -224.26123089296743, -190.8078257893212, -0.03200000151991844, 0.17600000835955143, 0.8960000425577164, 0.0, 0.0, 0.0, 0.0, 0.0, 1.763227768975613E9, 0.0, 2025-11-15 12:29:28.975
45.0, -220.84670223342255, -141.27846072614193, -191.13319708546624, -164.0638012061827, -0.03200000151991844, 0.17600000835955143, 0.8960000425577164, 0.0, 0.0, 0.0, 0.0, 0.0, 1.763227768975613E9, 0.0, 2025-11-15 12:29:28.975
46.0, -57.7496651657857, 9.963093481957912, -68.06430924357846, -59.208226148504764, -0.03200000151991844, 0.17600000835955143, 0.8960000425577164, 0.0, 0.0, 0.0, 0.0, 0.0, 1.7632277689891975E9, 0.0, 2025-11-15 12:29:28.989
46.0, -270.4153362461366, -179.2347053764388, -197.53216590965167, -158.43525177286938, -0.03200000151991844, 0.17600000835955143, 0.8960000425577164, 0.0, 0.0, 0.0, 0.0, 0.0, 1.7632277689891975E9, 0.0, 2025-11-15 12:29:28.989
47.0, -266.6679564905353, -187.7579373754561, -221.7554979226552, -186.16287004435435, -0.03200000151991844, 0.17600000835955143, 0.8960000425577164, 0.0, 0.0, 0.0, 0.0, 0.0, 1.7632277690049095E9, 0.0, 2025-11-15 12:29:29.004
47.0, -90.37655237922445, -25.943685992620885, -99.05312027642503, -89.04140809504315, -0.03200000151991844, 0.17600000835955143, 0.8960000425577164, 0.0, 0.0, 0.0, 0.0, 0.0, 1.7632277690049095E9, 0.0, 2025-11-15 12:29:29.004
48.0, -200.17253527836874, -116.28470932226628, -141.3439089753665, -113.49287400534377, -0.03200000151991844, 0.17600000835955143, 0.8960000425577164, 0.0, 0.0, 0.0, 0.0, 0.0, 1.7632277690056093E9, 0.0, 2025-11-15 12:29:29.005
48.0, -291.8711422919296, -207.81502083782107, -230.32734862109646, -190.6320504914038, -0.03200000151991844, 0.17600000835955143, 0.8960000425577164, 0.0, 0.0, 0.0, 0.0, 0.0, 1.7632277690056093E9, 0.0, 2025-11-15 12:29:29.005
49.0, -149.81852227495983, -88.7478259485215, -152.26815674593672, -131.0853633969091, -0.03200000151991844, 0.17600000835955143, 0.8960000425577164, 0.0, 0.0, 0.0, 0.0, 0.0, 1.7632277690191982E9, 0.0, 2025-11-15 12:29:29.019
49.0, -108.64970356272534, -43.78300878126174, -92.9159444491379, -77.70577132934704, -0.03200000151991844, 0.17600000835955143, 0.8960000425577164, 0.0, 0.0, 0.0, 0.0, 0.0, 1.7632277690191982E9, 0.0, 2025-11-15 12:29:29.019
50.0, -294.58256975980476, -198.29697545059025, -218.35966876288876, -181.813366395887, -0.03200000151991844, 0.17600000835955143, 0.9920000471174717, 0.0, 0.0, 0.0, 0.0, 0.0, 1.763227769034902E9, 0.0, 2025-11-15 12:29:29.034
50.0, -228.82016893895343, -164.3050247533247, -206.706140500959, -177.86029214272276, -0.03200000151991844, 0.17600000835955143, 0.9920000471174717, 0.0, 0.0, 0.0, 0.0, 0.0, 1.763227769034902E9, 0.0, 2025-11-15 12:29:29.034
51.0, -50.95426694629714, 4.353243548423052, -64.88913418119773, -69.04790293192491, -0.03200000151991844, 0.17600000835955143, 0.9920000471174717, 0.0, 0.0, 0.0, 0.0, 0.0, 1.7632277690356023E9, 0.0, 2025-11-15 12:29:29.035
51.0, -259.34149247733876, -173.20224674791098, -188.8069793130271, -151.5725353541784, -0.03200000151991844, 0.17600000835955143, 0.9920000471174717, 0.0, 0.0, 0.0, 0.0, 0.0, 1.7632277690356023E9, 0.0, 2025-11-15 12:29:29.035
52.0, -269.0016540628858, -188.61437446530908, -220.89158103289083, -187.53167342813686, -0.03200000151991844, 0.17600000835955143, 0.9920000471174717, 0.0, 0.0, 0.0, 0.0, 0.0, 1.763227769049212E9, 0.0, 2025-11-15 12:29:29.049
52.0, -80.80240849265829, -25.34904189966619, -107.8493649722077, -93.4357905429788, -0.03200000151991844, 0.17600000835955143, 0.9920000471174717, 0.0, 0.0, 0.0, 0.0, 0.0, 1.763227769049212E9, 0.0, 2025-11-15 12:29:29.049
53.0, -205.0007461211644, -122.54904174804688, -156.56904169498011, -124.38720257626846, -0.03200000151991844, 0.17600000835955143, 0.9920000471174717, 0.0, 0.0, 0.0, 0.0, 0.0, 1.7632277690649624E9, 0.0, 2025-11-15 12:29:29.064
53.0, -282.8542434987612, -195.73888388089836, -229.95709852548316, -198.10063070291653, -0.03200000151991844, 0.17600000835955143, 0.9920000471174717, 0.0, 0.0, 0.0, 0.0, 0.0, 1.7632277690649624E9, 0.0, 2025-11-15 12:29:29.064
54.0, -147.81767579866573, -72.87569053657353, -147.38010750385, -133.16474777227268, -0.03200000151991844, 0.17600000835955143, 0.9920000471174717, 0.0, 0.0, 0.0, 0.0, 0.0, 1.7632277690656195E9, 0.0, 2025-11-15 12:29:29.065
54.0, -95.60493251727894, -22.682493231259286, -79.84125420404598, -66.4935512621887, -0.03200000151991844, 0.17600000835955143, 0.9920000471174717, 0.0, 0.0, 0.0, 0.0, 0.0, 1.7632277690656195E9, 0.0, 2025-11-15 12:29:29.065
55.0, -281.5265790144913, -188.55453606601804, -216.21670608827844, -175.8407461666502, -0.03200000151991844, 0.17600000835955143, 0.9920000471174717, 0.0, 0.0, 0.0, 0.0, 0.0, 1.7632277690791907E9, 0.0, 2025-11-15 12:29:29.079
55.0, -241.0982604934834, -160.75585969537497, -204.35374342883006, -173.05078079970554, -0.03200000151991844, 0.17600000835955143, 0.9920000471174717, 0.0, 0.0, 0.0, 0.0, 0.0, 1.7632277690791907E9, 0.0, 2025-11-15 12:29:29.079
56.0, -61.27639082400128, 0.0523585993796587, -72.88878018641844, -62.791050306055695, -0.03200000151991844, 0.17600000835955143, 0.9920000471174717, 0.0, 0.0, 0.0, 0.0, 0.0, 1.763227769094912E9, 0.0, 2025-11-15 12:29:29.094
56.0, -264.4726352165453, -172.64500165451318, -189.49138100491837, -153.22557113459334, -0.03200000151991844, 0.17600000835955143, 0.9920000471174717, 0.0, 0.0, 0.0, 0.0, 0.0, 1.763227769094912E9, 0.0, 2025-11-15 12:29:29.094
57.0, -265.94241589913145, -185.43919940292835, -219.31334325158969, -178.92990353005007, -0.03200000151991844, 0.17600000835955143, 0.9920000471174717, 0.0, 0.0, 0.0, 0.0, 0.0, 1.76322776909562E9, 0.0, 2025-11-15 12:29:29.095
57.0, -86.18412452889606, -25.498637897893786, -103.00619452958927, -97.80025379126891, -0.03200000151991844, 0.17600000835955143, 0.9920000471174717, 0.0, 0.0, 0.0, 0.0, 0.0, 1.76322776909562E9, 0.0, 2025-11-15 12:29:29.095
58.0, -190.67318939091638, -98.91287402808666, -132.91417447524145, -107.65489017451182, -0.03200000151991844, 0.17600000835955143, 0.9920000471174717, 0.0, 0.0, 0.0, 0.0, 0.0, 1.763227769109224E9, 0.0, 2025-11-15 12:29:29.109
58.0, -276.27575947670266, -184.24617131706327, -218.3035702635534, -174.26998818526044, -0.03200000151991844, 0.17600000835955143, 0.9920000471174717, 0.0, 0.0, 0.0, 0.0, 0.0, 1.763227769109224E9, 0.0, 2025-11-15 12:29:29.109
59.0, -146.16837991820648, -78.71741426736116, -145.2745438287966, -131.39203519327566, -0.03200000151991844, 0.17600000835955143, 0.9920000471174717, 0.0, 0.0, 0.0, 0.0, 0.0, 1.763227769124982E9, 0.0, 2025-11-15 12:29:29.124
59.0, -106.39080398948863, -28.688772560097277, -86.22900332836434, -76.946571638342, -0.03200000151991844, 0.17600000835955143, 0.9920000471174717, 0.0, 0.0, 0.0, 0.0, 0.0, 1.763227769124982E9, 0.0, 2025-11-15 12:29:29.124
60.0, -282.4802535031922, -187.6083413772285, -216.96094617946073, -182.71468228520826, -0.03200000151991844, 0.17600000835955143, 1.008000047877431, 0.0, 0.0, 0.0, 0.0, 0.0, 1.7632277691255987E9, 0.0, 2025-11-15 12:29:29.125
60.0, -216.72159258229658, -141.4018774246797, -190.6694494909607, -168.63395895203575, -0.03200000151991844, 0.17600000835955143, 1.008000047877431, 0.0, 0.0, 0.0, 0.0, 0.0, 1.7632277691255987E9, 0.0, 2025-11-15 12:29:29.125
61.0, -55.180353896226734, 3.6501423567533493, -66.50477096205577, -66.69176595984027, -0.03200000151991844, 0.19200000911951065, 1.008000047877431, 0.0, 0.0, 0.0, 0.0, 0.0, 1.7632277691392355E9, 0.0, 2025-11-15 12:29:29.139
61.0, -247.71040361514315, -156.13334335014224, -171.18831062177196, -128.7441860246472, -0.03200000151991844, 0.19200000911951065, 1.008000047877431, 0.0, 0.0, 0.0, 0.0, 0.0, 1.7632277691392355E9, 0.0, 2025-11-15 12:29:29.139
62.0, -260.63549786200747, -178.06411669030786, -209.57090386701748, -172.81142720254138, -0.03200000151991844, 0.19200000911951065, 1.008000047877431, 0.0, 0.0, 0.0, 0.0, 0.0, 1.7632277691549003E9, 0.0, 2025-11-15 12:29:29.154
62.0, -70.6822392125614, -12.723139649257064, -91.57332036504522, -87.06300101848319, -0.03200000151991844, 0.19200000911951065, 1.008000047877431, 0.0, 0.0, 0.0, 0.0, 0.0, 1.7632277691549003E9, 0.0, 2025-11-15 12:29:29.154
63.0, -184.09470536885783, -100.16200061328709, -129.28273161826655, -104.61435151053593, -0.03200000151991844, 0.19200000911951065, 1.008000047877431, 0.0, 0.0, 0.0, 0.0, 0.0, 1.7632277691555989E9, 0.0, 2025-11-15 12:29:29.155
63.0, -276.05510537931696, -183.96567882038653, -215.84645599266514, -181.38701780093834, -0.03200000151991844, 0.19200000911951065, 1.008000047877431, 0.0, 0.0, 0.0, 0.0, 0.0, 1.7632277691555989E9, 0.0, 2025-11-15 12:29:29.155
64.0, -149.7512040757574, -84.91816839389503, -144.53404363757, -122.05350500391796, -0.03200000151991844, 0.19200000911951065, 1.008000047877431, 0.0, 0.0, 0.0, 0.0, 0.0, 1.7632277691692383E9, 0.0, 2025-11-15 12:29:29.169
64.0, -99.95817606570199, -28.344701764173806, -85.10703334165737, -67.42478635115549, -0.03200000151991844, 0.19200000911951065, 1.008000047877431, 0.0, 0.0, 0.0, 0.0, 0.0, 1.7632277691692383E9, 0.0, 2025-11-15 12:29:29.169
65.0, -287.6787144416012, -191.96906472556293, -208.05624438496307, -167.78500166209415, -0.03200000151991844, 0.19200000911951065, 1.008000047877431, 0.0, 0.0, 0.0, 0.0, 0.0, 1.7632277691849067E9, 0.0, 2025-11-15 12:29:29.184
65.0, -221.59094232460484, -152.30368579551578, -195.60985733242705, -160.49593664845452, -0.03200000151991844, 0.19200000911951065, 1.008000047877431, 0.0, 0.0, 0.0, 0.0, 0.0, 1.7632277691849067E9, 0.0, 2025-11-15 12:29:29.184
66.0, -62.87332810508087, -4.113889951258898, -82.56390137178823, -81.58778748335317, -0.03200000151991844, 0.19200000911951065, 1.008000047877431, 0.0, 0.0, 0.0, 0.0, 0.0, 1.7632277691856053E9, 0.0, 2025-11-15 12:29:29.185
66.0, -251.66347786830738, -160.4828469986096, -178.41753723612055, -145.92528642108664, -0.03200000151991844, 0.19200000911951065, 1.008000047877431, 0.0, 0.0, 0.0, 0.0, 0.0, 1.7632277691856053E9, 0.0, 2025-11-15 12:29:29.185
67.0, -262.09405884472653, -178.26233138795942, -213.03779112594202, -182.97647528210655, -0.03200000151991844, 0.19200000911951065, 1.008000047877431, 0.0, 0.0, 0.0, 0.0, 0.0, 1.7632277691992755E9, 0.0, 2025-11-15 12:29:29.199
67.0, -83.49139656079933, -16.014251610264182, -95.31696022069082, -92.99448234820738, -0.03200000151991844, 0.19200000911951065, 1.008000047877431, 0.0, 0.0, 0.0, 0.0, 0.0, 1.7632277691992755E9, 0.0, 2025-11-15 12:29:29.199
68.0, -182.1050785924308, -90.71501332521439, -118.84841074189171, -97.42252389574423, -0.03200000151991844, 0.19200000911951065, 1.008000047877431, 0.0, 0.0, 0.0, 0.0, 0.0, 1.763227769214898E9, 0.0, 2025-11-15 12:29:29.214
68.0, -269.4504420575686, -185.17366650607437, -213.55389731982723, -176.23717556195334, -0.03200000151991844, 0.19200000911951065, 1.008000047877431, 0.0, 0.0, 0.0, 0.0, 0.0, 1.763227769214898E9, 0.0, 2025-11-15 12:29:29.214
69.0, -143.14280085405335, -79.32701796013862, -143.62524794833735, -123.80751808313653, -0.03200000151991844, 0.19200000911951065, 1.008000047877431, 0.0, 0.0, 0.0, 0.0, 0.0, 1.7632277692156107E9, 0.0, 2025-11-15 12:29:29.215
69.0, -94.89435152569786, -30.730757935903966, -83.75318955769762, -60.98467862745747, -0.03200000151991844, 0.19200000911951065, 1.008000047877431, 0.0, 0.0, 0.0, 0.0, 0.0, 1.7632277692156107E9, 0.0, 2025-11-15 12:29:29.215
70.0, -278.6992146479897, -192.88908011466265, -216.70663298247382, -178.327779637184, -0.03200000151991844, 0.19200000911951065, 1.0240000486373901, 0.0, 0.0, 0.0, 0.0, 0.0, 1.7632277692292645E9, 0.0, 2025-11-15 12:29:29.229
70.0, -204.68285462493077, -133.75004211533815, -183.19338947953656, -147.98971119662747, -0.03200000151991844, 0.19200000911951065, 1.0240000486373901, 0.0, 0.0, 0.0, 0.0, 0.0, 1.7632277692292645E9, 0.0, 2025-11-15 12:29:29.229
71.0, -54.61188910296187, 9.914474782533944, -64.97141198022291, -55.31125039467588, -0.03200000151991844, 0.19200000911951065, 1.0240000486373901, 0.0, 0.0, 0.0, 0.0, 0.0, 1.7632277692448974E9, 0.0, 2025-11-15 12:29:29.244
71.0, -249.89450518926606, -156.34651764761657, -174.65145798074082, -142.49953806167468, -0.03200000151991844, 0.19200000911951065, 1.0240000486373901, 0.0, 0.0, 0.0, 0.0, 0.0, 1.7632277692448974E9, 0.0, 2025-11-15 12:29:29.244
72.0, -260.3250861656852, -179.72837217058986, -208.51251217955723, -173.04330099979416, -0.03200000151991844, 0.19200000911951065, 1.0240000486373901, 0.0, 0.0, 0.0, 0.0, 0.0, 1.7632277692456088E9, 0.0, 2025-11-15 12:29:29.245
72.0, -86.22526342840865, -25.8277490939945, -106.61519798683003, -94.12019223487005, -0.03200000151991844, 0.19200000911951065, 1.0240000486373901, 0.0, 0.0, 0.0, 0.0, 0.0, 1.7632277692456088E9, 0.0, 2025-11-15 12:29:29.245
73.0, -180.366025113035, -96.29120415914804, -132.39432838140056, -101.56259314669296, -0.03200000151991844, 0.19200000911951065, 1.0240000486373901, 0.0, 0.0, 0.0, 0.0, 0.0, 1.7632277692592432E9, 0.0, 2025-11-15 12:29:29.259
73.0, -277.5286259618588, -190.98547103721648, -215.6370215951465, -174.12039218703285, -0.03200000151991844, 0.19200000911951065, 1.0240000486373901, 0.0, 0.0, 0.0, 0.0, 0.0, 1.7632277692592432E9, 0.0, 2025-11-15 12:29:29.259
74.0, -146.0861021191813, -77.41218918282539, -136.39976123394445, -107.38561737770215, -0.03200000151991844, 0.19200000911951065, 1.0240000486373901, 0.0, 0.0, 0.0, 0.0, 0.0, 1.763227769274886E9, 0.0, 2025-11-15 12:29:29.274
74.0, -89.60613298835233, -23.086402426473796, -75.6824854533188, -53.86390911182389, -0.03200000151991844, 0.19200000911951065, 1.0240000486373901, 0.0, 0.0, 0.0, 0.0, 0.0, 1.763227769274886E9, 0.0, 2025-11-15 12:29:29.274
75.0, -283.303031493444, -188.06834907177836, -204.33130402909592, -152.66084624128416, -0.03200000151991844, 0.19200000911951065, 1.0240000486373901, 0.0, 0.0, 0.0, 0.0, 0.0, 1.7632277692756011E9, 0.0, 2025-11-15 12:29:29.275
75.0, -224.0517964954488, -145.8448785720393, -195.06009203894064, -175.46301627112553, -0.03200000151991844, 0.19200000911951065, 1.0240000486373901, 0.0, 0.0, 0.0, 0.0, 0.0, 1.7632277692756011E9, 0.0, 2025-11-15 12:29:29.275
76.0, -64.81059628212824, 5.329357436858118, -70.93281250959262, -67.14803375443444, -0.03200000151991844, 0.19200000911951065, 1.0240000486373901, 0.0, 0.0, 0.0, 0.0, 0.0, 1.7632277692892876E9, 0.0, 2025-11-15 12:29:29.289
76.0, -241.37127319024876, -151.32009210716933, -169.66243143985048, -132.83563657617196, -0.03200000151991844, 0.19200000911951065, 1.0240000486373901, 0.0, 0.0, 0.0, 0.0, 0.0, 1.7632277692892876E9, 0.0, 2025-11-15 12:29:29.289
77.0, -260.34378566546366, -179.31324327550828, -207.2259865947999, -157.9041859791614, -0.03200000151991844, 0.19200000911951065, 1.0240000486373901, 0.0, 0.0, 0.0, 0.0, 0.0, 1.7632277693049085E9, 0.0, 2025-11-15 12:29:29.304
77.0, -84.64702564710751, -23.73714501876384, -107.16496328031644, -99.8048401675187, -0.03200000151991844, 0.19200000911951065, 1.0240000486373901, 0.0, 0.0, 0.0, 0.0, 0.0, 1.7632277693049085E9, 0.0, 2025-11-15 12:29:29.304
78.0, -173.01712170010433, -96.32486325874925, -124.21142727835104, -88.99652929557487, -0.03200000151991844, 0.19200000911951065, 1.0240000486373901, 0.0, 0.0, 0.0, 0.0, 0.0, 1.7632277693056097E9, 0.0, 2025-11-15 12:29:29.305
78.0, -269.4803612572141, -182.35378193948418, -198.66161569627002, -163.3569601145573, -0.03200000151991844, 0.19200000911951065, 1.0240000486373901, 0.0, 0.0, 0.0, 0.0, 0.0, 1.7632277693056097E9, 0.0, 2025-11-15 12:29:29.305
79.0, -174.83097317861393, -99.41028072219342, -161.47579043684527, -141.11203517811373, -0.03200000151991844, 0.19200000911951065, 1.0240000486373901, 0.0, 0.0, 0.0, 0.0, 0.0, 1.763227769319226E9, 0.0, 2025-11-15 12:29:29.319
79.0, -103.21936882706359, -30.884093834087253, -89.9876027838327, -74.24636387033388, -0.03200000151991844, 0.19200000911951065, 1.0240000486373901, 0.0, 0.0, 0.0, 0.0, 0.0, 1.763227769319226E9, 0.0, 2025-11-15 12:29:29.319
80.0, -274.8171984939836, -180.55862996075302, -196.15588272595778, -154.6803922173567, -0.03200000151991844, 0.19200000911951065, 1.0240000486373901, 0.0, 0.0, 0.0, 0.0, 0.0, 1.7632277693349E9, 0.0, 2025-11-15 12:29:29.334
80.0, -235.81004195613787, -152.82353188935667, -196.888903117273, -164.88283929647878, -0.03200000151991844, 0.19200000911951065, 1.0240000486373901, 0.0, 0.0, 0.0, 0.0, 0.0, 1.7632277693349E9, 0.0, 2025-11-15 12:29:29.334
81.0, -55.21401299582794, 1.9185686772689223, -78.51732961973175, -80.2414234993048, -0.03200000151991844, 0.19200000911951065, 1.0240000486373901, 0.0, 0.0, 0.0, 0.0, 0.0, 1.7632277693356185E9, 0.0, 2025-11-15 12:29:29.335
81.0, -248.0993532105349, -156.26797974854708, -173.3649323959835, -134.3091571587138, -0.03200000151991844, 0.19200000911951065, 1.0240000486373901, 0.0, 0.0, 0.0, 0.0, 0.0, 1.7632277693356185E9, 0.0, 2025-11-15 12:29:29.335
82.0, -258.68327008513734, -172.7459789533168, -201.14490926684812, -154.75145031651482, -0.03200000151991844, 0.19200000911951065, 1.0240000486373901, 0.0, 0.0, 0.0, 0.0, 0.0, 1.7632277693492477E9, 0.0, 2025-11-15 12:29:29.349
82.0, -86.75632922211662, -29.238537853583694, -108.79929956095293, -99.16905717505142, -0.03200000151991844, 0.19200000911951065, 1.0240000486373901, 0.0, 0.0, 0.0, 0.0, 0.0, 1.7632277693492477E9, 0.0, 2025-11-15 12:29:29.349
83.0, -165.97489008354023, -79.80946505442262, -115.32542498363182, -89.73702948680148, -0.03200000151991844, 0.19200000911951065, 1.0240000486373901, 0.0, 0.0, 0.0, 0.0, 0.0, 1.7632277693649025E9, 0.0, 2025-11-15 12:29:29.364
83.0, -276.57495147315785, -186.6771062882617, -215.40888769784942, -169.29592124419287, -0.03200000151991844, 0.19200000911951065, 1.0240000486373901, 0.0, 0.0, 0.0, 0.0, 0.0, 1.7632277693649025E9, 0.0, 2025-11-15 12:29:29.364
84.0, -167.48954956559464, -100.7529048062861, -163.5364753124304, -131.39577509323135, -0.03200000151991844, 0.19200000911951065, 1.0240000486373901, 0.0, 0.0, 0.0, 0.0, 0.0, 1.7632277693655863E9, 0.0, 2025-11-15 12:29:29.365
84.0, -102.97253542998806, -32.09208151977509, -86.38607912650332, -69.80710262292996, -0.03200000151991844, 0.19200000911951065, 1.0240000486373901, 0.0, 0.0, 0.0, 0.0, 0.0, 1.7632277693655863E9, 0.0, 2025-11-15 12:29:29.365
85.0, -277.8577371579595, -175.77903781738132, -190.9985606870614, -154.93096551438794, -0.03200000151991844, 0.19200000911951065, 1.0240000486373901, 0.0, 0.0, 0.0, 0.0, 0.0, 1.7632277693792365E9, 0.0, 2025-11-15 12:29:29.379
85.0, -224.7885567867197, -149.04249303415418, -196.53735252143815, -160.66797204641625, -0.03200000151991844, 0.19200000911951065, 1.0240000486373901, 0.0, 0.0, 0.0, 0.0, 0.0, 1.7632277693792365E9, 0.0, 2025-11-15 12:29:29.379
86.0, -46.275652101729065, 13.759091936983168, -69.18253933032975, -60.03848393866792, -0.03200000151991844, 0.19200000911951065, 1.0240000486373901, 0.0, 0.0, 0.0, 0.0, 0.0, 1.763227769394878E9, 0.0, 2025-11-15 12:29:29.394
86.0, -238.8318811203353, -146.15529026836157, -173.11809899890795, -127.31928414152935, -0.03200000151991844, 0.19200000911951065, 1.0240000486373901, 0.0, 0.0, 0.0, 0.0, 0.0, 1.763227769394878E9, 0.0, 2025-11-15 12:29:29.394
87.0, -255.72500922018662, -174.17088083643466, -209.81025746418163, -166.89864537259564, -0.03200000151991844, 0.19200000911951065, 1.0240000486373901, 0.0, 0.0, 0.0, 0.0, 0.0, 1.7632277693955836E9, 0.0, 2025-11-15 12:29:29.395
87.0, -90.79916107421741, -24.61602150835097, -108.96385515900329, -92.59805295290425, -0.03200000151991844, 0.19200000911951065, 1.0240000486373901, 0.0, 0.0, 0.0, 0.0, 0.0, 1.7632277693955836E9, 0.0, 2025-11-15 12:29:29.395
88.0, -167.81492086173967, -81.69437463209033, -114.925255688373, -82.21235077595338, -0.03200000151991844, 0.19200000911951065, 1.0240000486373901, 0.0, 0.0, 0.0, 0.0, 0.0, 1.7632277694092877E9, 0.0, 2025-11-15 12:29:29.409
88.0, -291.3849552976899, -202.76989579759538, -226.44533246709034, -175.6948900683783, -0.03200000151991844, 0.19200000911951065, 1.0240000486373901, 0.0, 0.0, 0.0, 0.0, 0.0, 1.7632277694092877E9, 0.0, 2025-11-15 12:29:29.409
89.0, -160.0621082535945, -88.76652544829994, -148.65167348878458, -114.6298035918735, -0.03200000151991844, 0.19200000911951065, 1.0240000486373901, 0.0, 0.0, 0.0, 0.0, 0.0, 1.7632277694248836E9, 0.0, 2025-11-15 12:29:29.424
89.0, -93.96311643673107, -23.123801426030695, -70.69719881238416, -38.54153899336234, -0.03200000151991844, 0.19200000911951065, 1.0240000486373901, 0.0, 0.0, 0.0, 0.0, 0.0, 1.7632277694248836E9, 0.0, 2025-11-15 12:29:29.424
90.0, -283.05993799632415, -188.93600586149842, -212.43940713303164, -169.29966114414856, -0.03200000151991844, 0.19200000911951065, 1.0240000486373901, 0.0, 0.0, 0.0, 0.0, 0.0, 1.7632277694255953E9, 0.0, 2025-11-15 12:29:29.425
90.0, -224.96059218468145, -146.4357827650383, -194.36073074722663, -165.52984198881313, -0.03200000151991844, 0.19200000911951065, 1.0240000486373901, 0.0, 0.0, 0.0, 0.0, 0.0, 1.7632277694255953E9, 0.0, 2025-11-15 12:29:29.425
91.0, -54.4510734048672, 4.2073874501511455, -74.425879068207, -71.11232770746574, -0.03200000151991844, 0.20800000987946987, 1.0240000486373901, 0.0, 0.0, 0.0, 0.0, 0.0, 1.7632277694392867E9, 0.0, 2025-11-15 12:29:29.439
91.0, -237.10404734080657, -153.2947592837736, -160.19300475204363, -126.78821834782138, -0.03200000151991844, 0.20800000987946987, 1.0240000486373901, 0.0, 0.0, 0.0, 0.0, 0.0, 1.7632277694392867E9, 0.0, 2025-11-15 12:29:29.439
92.0, -262.3184528420679, -178.17631368897855, -206.61638290202245, -163.0615080180578, -0.03200000151991844, 0.20800000987946987, 1.0240000486373901, 0.0, 0.0, 0.0, 0.0, 0.0, 1.7632277694712837E9, 0.0, 2025-11-15 12:29:29.471
92.0, -91.94357046065852, -35.9067794745788, -110.38127724220976, -99.46824917150661, -0.03200000151991844, 0.20800000987946987, 1.0240000486373901, 0.0, 0.0, 0.0, 0.0, 0.0, 1.7632277694712837E9, 0.0, 2025-11-15 12:29:29.471
93.0, -157.38059998536482, -80.31061164848506, -116.13324337406084, -83.16602526465431, -0.03200000151991844, 0.20800000987946987, 1.0240000486373901, 0.0, 0.0, 0.0, 0.0, 0.0, 1.7632277694720223E9, 0.0, 2025-11-15 12:29:29.472
93.0, -287.113989548292, -196.71125786937773, -221.40394732682034, -174.89829137781635, -0.03200000151991844, 0.20800000987946987, 1.0240000486373901, 0.0, 0.0, 0.0, 0.0, 0.0, 1.7632277694720223E9, 0.0, 2025-11-15 12:29:29.472
94.0, -155.88464000308886, -81.0024931402877, -148.8311886866577, -124.43582127569243, -0.03200000151991844, 0.20800000987946987, 1.0240000486373901, 0.0, 0.0, 0.0, 0.0, 0.0, 1.7632277694727268E9, 0.0, 2025-11-15 12:29:29.472
94.0, -98.47717568324879, -21.76995764207095, -85.02475554263219, -71.92762589780614, -0.03200000151991844, 0.20800000987946987, 1.0240000486373901, 0.0, 0.0, 0.0, 0.0, 0.0, 1.7632277694727268E9, 0.0, 2025-11-15 12:29:29.472
95.0, -268.9156363639049, -171.1228623725474, -197.10207741474733, -155.6153672062792, -0.03200000151991844, 0.20800000987946987, 1.0240000486373901, 0.0, 0.0, 0.0, 0.0, 0.0, 1.7632277694734678E9, 0.0, 2025-11-15 12:29:29.473
95.0, -225.1214078827761, -146.82099246047437, -193.26494006020948, -153.59582123020664, -0.03200000151991844, 0.20800000987946987, 1.0240000486373901, 0.0, 0.0, 0.0, 0.0, 0.0, 1.7632277694734678E9, 0.0, 2025-11-15 12:29:29.473
96.0, -58.11243546148762, -2.6702885683625937, -83.44651776133105, -63.999037991743535, -0.03200000151991844, 0.20800000987946987, 1.0240000486373901, 0.0, 0.0, 0.0, 0.0, 0.0, 1.7632277694842613E9, 0.0, 2025-11-15 12:29:29.484
96.0, -242.77747557358816, -158.52687932178378, -180.79237370798364, -138.07523641409352, -0.03200000151991844, 0.20800000987946987, 1.0240000486373901, 0.0, 0.0, 0.0, 0.0, 0.0, 1.7632277694842613E9, 0.0, 2025-11-15 12:29:29.484
97.0, -272.2179680247791, -191.9428854258731, -225.85816817404702, -182.4379296884872, -0.03200000151991844, 0.20800000987946987, 1.0240000486373901, 0.0, 0.0, 0.0, 0.0, 0.0, 1.7632277694991963E9, 0.0, 2025-11-15 12:29:29.499
97.0, -97.8039936912246, -40.30864172242582, -110.7365677380003, -91.06469397107139, -0.03200000151991844, 0.20800000987946987, 1.0240000486373901, 0.0, 0.0, 0.0, 0.0, 0.0, 1.7632277694991963E9, 0.0, 2025-11-15 12:29:29.499
98.0, -155.31991510977969, -83.90091560594738, -117.1130971624516, -80.73883019341156, -0.03200000151991844, 0.20800000987946987, 1.0240000486373901, 0.0, 0.0, 0.0, 0.0, 0.0, 1.763227769514948E9, 0.0, 2025-11-15 12:29:29.514
98.0, -290.5210384079255, -208.34608663152903, -224.6464405884035, -182.45288928830996, -0.03200000151991844, 0.20800000987946987, 1.0240000486373901, 0.0, 0.0, 0.0, 0.0, 0.0, 1.763227769514948E9, 0.0, 2025-11-15 12:29:29.514
99.0, -161.43465153733268, -96.42210065759718, -160.60065384721383, -125.47551346337423, -0.03200000151991844, 0.20800000987946987, 1.0240000486373901, 0.0, 0.0, 0.0, 0.0, 0.0, 1.7632277695156271E9, 0.0, 2025-11-15 12:29:29.515
99.0, -96.5436474061571, -25.528557097539306, -86.03078863071278, -62.16648701345548, -0.03200000151991844, 0.20800000987946987, 1.0240000486373901, 0.0, 0.0, 0.0, 0.0, 0.0, 1.7632277695156271E9, 0.0, 2025-11-15 12:29:29.515
100.0, -273.9719811039977, -185.6112348008901, -200.43806817522272, -149.54550957819447, -0.03200000151991844, 0.20800000987946987, 1.0240000486373901, 0.0, 0.0, 0.0, 0.0, 0.0, 1.7632277695299485E9, 0.0, 2025-11-15 12:29:29.529
100.0, -233.59602118236944, -162.54727177415043, -206.60516320215538, -172.0297881118022, -0.03200000151991844, 0.20800000987946987, 1.0240000486373901, 0.0, 0.0, 0.0, 0.0, 0.0, 1.7632277695299485E9, 0.0, 2025-11-15 12:29:29.529
0.0, -57.714136116206646, -3.41265870956704, -77.54308568127453, -62.50868785940111, -0.03200000151991844, 0.20800000987946987, 1.0240000486373901, 0.0, 0.0, 0.0, 0.0, 0.0, 1.7632277695306396E9, 0.0, 2025-11-15 12:29:29.530
1.0, -249.3727891454473, -161.86474003223702, -182.79883003421128, -131.15829144604504, -0.03200000151991844, 0.20800000987946987, 1.0240000486373901, 0.0, 0.0, 0.0, 0.0, 0.0, 1.7632277695442157E9, 0.0, 2025-11-15 12:29:29.544
1.0, -267.986271224916, -188.4404691173695, -218.585932710208, -177.75744489394128, -0.03200000151991844, 0.20800000987946987, 1.0240000486373901, 0.0, 0.0, 0.0, 0.0, 0.0, 1.7632277695442157E9, 0.0, 2025-11-15 12:29:29.544
2.0, -84.14026920311153, -32.8120122612454, -106.46373203862458, -95.84615606442094, -0.03200000151991844, 0.20800000987946987, 1.0240000486373901, 0.0, 0.0, 0.0, 0.0, 0.0, 1.7632277695599985E9, 0.0, 2025-11-15 12:29:29.559
2.0, -171.706286765635, -94.00799523619935, -128.7647554744035, -97.68244694266468, -0.03200000151991844, 0.20800000987946987, 1.0240000486373901, 0.0, 0.0, 0.0, 0.0, 0.0, 1.7632277695599985E9, 0.0, 2025-11-15 12:29:29.559
3.0, -289.38597877137363, -195.5612386330031, -221.00938788149506, -170.53943797945976, -0.03200000151991844, 0.20800000987946987, 1.0240000486373901, 0.0, 0.0, 0.0, 0.0, 0.0, 1.7632277695606773E9, 0.0, 2025-11-15 12:29:29.560
3.0, -158.4820005223155, -85.72037693439052, -153.47427448164672, -126.00844920706004, -0.03200000151991844, 0.20800000987946987, 1.0240000486373901, 0.0, 0.0, 0.0, 0.0, 0.0, 1.7632277695606773E9, 0.0, 2025-11-15 12:29:29.560
4.0, -92.85049619991332, -23.735275068785995, -78.21626767329872, -57.43738351948559, -0.03200000151991844, 0.20800000987946987, 1.0240000486373901, 0.0, 0.0, 0.0, 0.0, 0.0, 1.7632277695743034E9, 0.0, 2025-11-15 12:29:29.574
4.0, -285.9490107120946, -191.5932047800161, -205.500022765249, -166.08895703218877, -0.03200000151991844, 0.20800000987946987, 1.0240000486373901, 0.0, 0.0, 0.0, 0.0, 0.0, 1.7632277695743034E9, 0.0, 2025-11-15 12:29:29.574
5.0, -219.76026129629463, -142.48083856189623, -191.02660993672907, -154.97397436387837, -0.03200000151991844, 0.20800000987946987, 1.0240000486373901, 0.0, 0.0, 0.0, 0.0, 0.0, 1.7632277695896819E9, 0.0, 2025-11-15 12:29:29.589
5.0, -51.50216228980571, 6.120346277486533, -74.98873401153833, -68.10357819311321, -0.03200000151991844, 0.20800000987946987, 1.0240000486373901, 0.0, 0.0, 0.0, 0.0, 0.0, 1.7632277695896819E9, 0.0, 2025-11-15 12:29:29.589
6.0, -243.94245440978557, -145.1960059297271, -168.9312809985131, -130.21957655716687, -0.03200000151991844, 0.20800000987946987, 1.0240000486373901, 0.0, 0.0, 0.0, 0.0, 0.0, 1.7632277696049564E9, 0.0, 2025-11-15 12:29:29.604
6.0, -267.7992762271315, -186.60791813908145, -220.4783220877871, -181.99849144369364, -0.03200000151991844, 0.20800000987946987, 1.0240000486373901, 0.0, 0.0, 0.0, 0.0, 0.0, 1.7632277696049564E9, 0.0, 2025-11-15 12:29:29.604
7.0, -92.88415529951453, -29.490981100592762, -110.02411679644138, -89.55190443899482, -0.03200000151991844, 0.20800000987946987, 1.0240000486373901, 0.0, 0.0, 0.0, 0.0, 0.0, 1.7632277696056275E9, 0.0, 2025-11-15 12:29:29.605
7.0, -163.88241605833173, -80.78370899287984, -112.12220067158341, -78.35838387161493, -0.03200000151991844, 0.20800000987946987, 1.0240000486373901, 0.0, 0.0, 0.0, 0.0, 0.0, 1.7632277696056275E9, 0.0, 2025-11-15 12:29:29.605
8.0, -289.08304687496275, -193.7399073545821, -221.90696387086064, -179.63113477174193, -0.03200000151991844, 0.20800000987946987, 1.0240000486373901, 0.0, 0.0, 0.0, 0.0, 0.0, 1.763227769619933E9, 0.0, 2025-11-15 12:29:29.619
8.0, -160.83439759444445, -87.87829920882359, -152.5953979920596, -124.41151192598045, -0.03200000151991844, 0.20800000987946987, 1.0240000486373901, 0.0, 0.0, 0.0, 0.0, 0.0, 1.763227769619933E9, 0.0, 2025-11-15 12:29:29.619
9.0, -90.116629332304, -13.577706789132208, -75.12711030989885, -53.53292796574533, -0.03200000151991844, 0.20800000987946987, 1.0240000486373901, 0.0, 0.0, 0.0, 0.0, 0.0, 1.7632277696206315E9, 0.0, 2025-11-15 12:29:29.620
9.0, -278.2485567033291, -176.22221596213058, -199.78171573299915, -157.83499782998115, -0.03200000151991844, 0.20800000987946987, 1.0240000486373901, 0.0, 0.0, 0.0, 0.0, 0.0, 1.7632277696206315E9, 0.0, 2025-11-15 12:29:29.620
10.0, -231.46240825764835, -149.6053479774855, -194.62439369410276, -156.68310864362866, -0.03200000151991844, 0.20800000987946987, 1.0240000486373901, 0.0, 0.0, 0.0, 0.0, 0.0, 1.7632277696342435E9, 0.0, 2025-11-15 12:29:29.634
10.0, -54.04903415963054, 11.991989207919687, -73.23098103236407, -62.216975662857294, -0.03200000151991844, 0.20800000987946987, 1.0240000486373901, 0.0, 0.0, 0.0, 0.0, 0.0, 1.7632277696342435E9, 0.0, 2025-11-15 12:29:29.634
11.0, -234.05789882689714, -141.5720428726636, -163.57574426196516, -121.32235456258059, -0.03200000151991844, 0.20800000987946987, 1.0240000486373901, 0.0, 0.0, 0.0, 0.0, 0.0, 1.7632277696499035E9, 0.0, 2025-11-15 12:29:29.649
11.0, -269.25035740993917, -179.3599920249544, -214.57302005775273, -172.68988045398146, -0.03200000151991844, 0.20800000987946987, 1.0240000486373901, 0.0, 0.0, 0.0, 0.0, 0.0, 1.7632277696499035E9, 0.0, 2025-11-15 12:29:29.649
12.0, -97.05788365006447, -32.561438964214176, -116.04161582514644, -103.90564046893269, -0.03200000151991844, 0.20800000987946987, 1.0240000486373901, 0.0, 0.0, 0.0, 0.0, 0.0, 1.7632277696506112E9, 0.0, 2025-11-15 12:29:29.650
12.0, -164.2601459538564, -85.43988443771377, -121.26625606324524, -92.39048850536346, -0.03200000151991844, 0.20800000987946987, 1.0240000486373901, 0.0, 0.0, 0.0, 0.0, 0.0, 1.7632277696506112E9, 0.0, 2025-11-15 12:29:29.650
13.0, -279.5313423881307, -192.7450939663686, -216.22979573812336, -174.2718581352383, -0.03200000151991844, 0.20800000987946987, 1.0240000486373901, 0.0, 0.0, 0.0, 0.0, 0.0, 1.7632277696643019E9, 0.0, 2025-11-15 12:29:29.664
13.0, -169.58202359080315, -100.76225455617532, -166.8593764230609, -139.9545361418277, -0.03200000151991844, 0.20800000987946987, 1.0240000486373901, 0.0, 0.0, 0.0, 0.0, 0.0, 1.7632277696643019E9, 0.0, 2025-11-15 12:29:29.664
14.0, -92.60366280283779, -22.946156178135425, -83.50074631068856, -52.885925273410976, -0.03200000151991844, 0.20800000987946987, 1.0240000486373901, 0.0, 0.0, 0.0, 0.0, 0.0, 1.7632277696799111E9, 0.0, 2025-11-15 12:29:29.679
14.0, -272.1263404758647, -184.2555210669525, -201.40857221372426, -156.17074234969914, -0.03200000151991844, 0.20800000987946987, 1.0240000486373901, 0.0, 0.0, 0.0, 0.0, 0.0, 1.7632277696799111E9, 0.0, 2025-11-15 12:29:29.679
15.0, -234.45432822220027, -159.82275465643033, -204.94277767185122, -155.19462846126407, -0.03200000151991844, 0.20800000987946987, 1.0240000486373901, 0.0, 0.0, 0.0, 0.0, 0.0, 1.7632277696806164E9, 0.0, 2025-11-15 12:29:29.680
15.0, -40.488156920298934, 13.09525969484821, -67.22470170352608, -48.068934130482376, -0.03200000151991844, 0.20800000987946987, 1.0240000486373901, 0.0, 0.0, 0.0, 0.0, 0.0, 1.7632277696806164E9, 0.0, 2025-11-15 12:29:29.680
16.0, -248.80806425213814, -162.11531332926825, -185.30456300452352, -130.7282029511407, -0.03200000151991844, 0.20800000987946987, 1.0240000486373901, 0.0, 0.0, 0.0, 0.0, 0.0, 1.763227769694277E9, 0.0, 2025-11-15 12:29:29.694
16.0, -269.73654440417886, -193.79226595396176, -231.52972645685077, -197.58265455905348, -0.03200000151991844, 0.20800000987946987, 1.0240000486373901, 0.0, 0.0, 0.0, 0.0, 0.0, 1.763227769694277E9, 0.0, 2025-11-15 12:29:29.694
17.0, -92.1174758085981, -38.97536738822237, -121.88333955593407, -100.83144270535558, -0.03200000151991844, 0.20800000987946987, 1.0240000486373901, 0.0, 0.0, 0.0, 0.0, 0.0, 1.7632277697099297E9, 0.0, 2025-11-15 12:29:29.709
17.0, -161.91896858159453, -87.08544041821733, -126.26650230400264, -93.1534280963242, -0.03200000151991844, 0.20800000987946987, 1.0240000486373901, 0.0, 0.0, 0.0, 0.0, 0.0, 1.7632277697099297E9, 0.0, 2025-11-15 12:29:29.709
18.0, -282.78879524953663, -195.35554413544014, -222.02290076948702, -169.55210439115763, -0.03200000151991844, 0.20800000987946987, 1.0240000486373901, 0.0, 0.0, 0.0, 0.0, 0.0, 1.7632277697106304E9, 0.0, 2025-11-15 12:29:29.710
18.0, -174.94504012726247, -110.0708655458875, -170.898468375206, -134.08289321139455, -0.03200000151991844, 0.20800000987946987, 1.0240000486373901, 0.0, 0.0, 0.0, 0.0, 0.0, 1.7632277697106304E9, 0.0, 2025-11-15 12:29:29.710
19.0, -88.2653788542375, -19.5839861179702, -76.93722188845277, -48.15495182946324, -0.03200000151991844, 0.20800000987946987, 1.0240000486373901, 0.0, 0.0, 0.0, 0.0, 0.0, 1.7632277697243564E9, 0.0, 2025-11-15 12:29:29.724
19.0, -284.8307806253433, -199.1178834908642, -217.44900312367827, -170.31130408216268, -0.03200000151991844, 0.20800000987946987, 1.0240000486373901, 0.0, 0.0, 0.0, 0.0, 0.0, 1.7632277697243564E9, 0.0, 2025-11-15 12:29:29.724
20.0, -239.25261986535043, -161.99189663073048, -204.64358567539603, -166.8518966231495, -0.03200000151991844, 0.20800000987946987, 1.0240000486373901, 0.0, 0.0, 0.0, 0.0, 0.0, 1.7632277697399282E9, 0.0, 2025-11-15 12:29:29.739
20.0, -48.39056552667171, 9.168364741373807, -68.98245468270034, -53.80594066251069, -0.03200000151991844, 0.20800000987946987, 1.0240000486373901, 0.0, 0.0, 0.0, 0.0, 0.0, 1.7632277697399282E9, 0.0, 2025-11-15 12:29:29.739
21.0, -257.94837974384427, -169.8718658373691, -189.83732175081968, -145.16421678010374, -0.03200000151991844, 0.20800000987946987, 1.0240000486373901, 0.0, 0.0, 0.0, 0.0, 0.0, 1.7632277697406268E9, 0.0, 2025-11-15 12:29:29.740
21.0, -268.92124621383846, -195.3368446356617, -229.82433207705617, -182.35752183943987, -0.03200000151991844, 0.20800000987946987, 1.0240000486373901, 0.0, 0.0, 0.0, 0.0, 0.0, 1.7632277697406268E9, 0.0, 2025-11-15 12:29:29.740
22.0, -89.8211772358045, -26.255967638920993, -102.02073089126498, -85.66240848507732, -0.03200000151991844, 0.20800000987946987, 1.0240000486373901, 0.0, 0.0, 0.0, 0.0, 0.0, 1.7632277697542617E9, 0.0, 2025-11-15 12:29:29.754
22.0, -167.79809131193906, -84.27677555149421, -126.15430530533195, -91.67990751378238, -0.03200000151991844, 0.20800000987946987, 1.0240000486373901, 0.0, 0.0, 0.0, 0.0, 0.0, 1.7632277697542617E9, 0.0, 2025-11-15 12:29:29.754
23.0, -281.6855247626081, -195.59863763255998, -218.70560950879008, -176.6728739067912, -0.03200000151991844, 0.20800000987946987, 1.0240000486373901, 0.0, 0.0, 0.0, 0.0, 0.0, 1.7632277697699044E9, 0.0, 2025-11-15 12:29:29.769
23.0, -155.79301245417446, -94.0640937355347, -158.41468232311308, -127.52684858907014, -0.03200000151991844, 0.20800000987946987, 1.0240000486373901, 0.0, 0.0, 0.0, 0.0, 0.0, 1.7632277697699044E9, 0.0, 2025-11-15 12:29:29.769
24.0, -82.62560972105712, -13.375752191524953, -70.82248546089977, -42.92657169140875, -0.03200000151991844, 0.20800000987946987, 1.0240000486373901, 0.0, 0.0, 0.0, 0.0, 0.0, 1.7632277697706125E9, 0.0, 2025-11-15 12:29:29.770
24.0, -284.74102302640676, -188.75462071364745, -210.3544129077345, -160.87927639391273, -0.03200000151991844, 0.20800000987946987, 1.0240000486373901, 0.0, 0.0, 0.0, 0.0, 0.0, 1.7632277697706125E9, 0.0, 2025-11-15 12:29:29.770
25.0, -243.9312347099185, -164.0937204058282, -207.912258236669, -164.88096934650093, -0.03200000151991844, 0.20800000987946987, 1.0240000486373901, 0.0, 0.0, 0.0, 0.0, 0.0, 1.7632277697842796E9, 0.0, 2025-11-15 12:29:29.784
25.0, -54.894251549616456, 6.7823085696436465, -74.67832231521606, -50.526048401370645, -0.03200000151991844, 0.20800000987946987, 1.0240000486373901, 0.0, 0.0, 0.0, 0.0, 0.0, 1.7632277697842796E9, 0.0, 2025-11-15 12:29:29.784
26.0, -236.17094230186194, -150.29348956933245, -174.98243912681937, -129.9540436603129, -0.03200000151991844, 0.20800000987946987, 1.0240000486373901, 0.0, 0.0, 0.0, 0.0, 0.0, 1.7632277697999218E9, 0.0, 2025-11-15 12:29:29.799
26.0, -258.4607460377738, -168.85461304942146, -201.5394687121734, -152.8085722895339, -0.03200000151991844, 0.20800000987946987, 1.0240000486373901, 0.0, 0.0, 0.0, 0.0, 0.0, 1.7632277697999218E9, 0.0, 2025-11-15 12:29:29.799
27.0, -90.28866473026574, -36.35743741923943, -113.62564045377076, -95.2290725717321, -0.03200000151991844, 0.20800000987946987, 1.0240000486373901, 0.0, 0.0, 0.0, 0.0, 0.0, 1.763227769800606E9, 0.0, 2025-11-15 12:29:29.800
27.0, -165.20634064264596, -80.81736809248105, -117.84050770383328, -91.20868011936545, -0.03200000151991844, 0.20800000987946987, 1.0240000486373901, 0.0, 0.0, 0.0, 0.0, 0.0, 1.763227769800606E9, 0.0, 2025-11-15 12:29:29.800
28.0, -284.89435892459005, -188.42176961759105, -217.26948792580515, -172.84321635216475, -0.03200000151991844, 0.20800000987946987, 1.0240000486373901, 0.0, 0.0, 0.0, 0.0, 0.0, 1.7632277698142543E9, 0.0, 2025-11-15 12:29:29.814
28.0, -172.454266756773, -95.990142212715, -159.21128101367503, -126.13934570550919, -0.03200000151991844, 0.20800000987946987, 1.0240000486373901, 0.0, 0.0, 0.0, 0.0, 0.0, 1.7632277698142543E9, 0.0, 2025-11-15 12:29:29.814
29.0, -73.12252393364906, -1.7970219287090003, -59.15399759914726, -36.97265096195042, -0.03200000151991844, 0.20800000987946987, 1.0240000486373901, 0.0, 0.0, 0.0, 0.0, 0.0, 1.7632277698299E9, 0.0, 2025-11-15 12:29:29.829
29.0, -286.2182835089043, -190.68440909078345, -206.89500544872135, -160.116336802952, -0.03200000151991844, 0.20800000987946987, 1.0240000486373901, 0.0, 0.0, 0.0, 0.0, 0.0, 1.7632277698299E9, 0.0, 2025-11-15 12:29:29.829
30.0, -222.46420896425843, -147.11083470704034, -189.67276615276933, -152.90580968838185, -0.03200000151991844, 0.20800000987946987, 1.0240000486373901, 0.0, 0.0, 0.0, 0.0, 0.0, 1.7632277698306098E9, 0.0, 2025-11-15 12:29:29.830
30.0, -49.43399761430919, 12.063047307077795, -69.3639244781807, -60.10767208784819, -0.03200000151991844, 0.20800000987946987, 1.0240000486373901, 0.0, 0.0, 0.0, 0.0, 0.0, 1.7632277698306098E9, 0.0, 2025-11-15 12:29:29.830
31.0, -240.5915040494874, -144.63128103641793, -165.0081259449944, -124.86403982061893, -0.03200000151991844, 0.20800000987946987, 1.0240000486373901, 0.0, 0.0, 0.0, 0.0, 0.0, 1.7632277698443227E9, 0.0, 2025-11-15 12:29:29.844
31.0, -264.85223506204784, -172.96850300068036, -207.14183884579688, -169.84755648765713, -0.03200000151991844, 0.20800000987946987, 1.0240000486373901, 0.0, 0.0, 0.0, 0.0, 0.0, 1.7632277698443227E9, 0.0, 2025-11-15 12:29:29.844
32.0, -92.39796830527484, -35.385063430760056, -111.14982668310404, -97.80960354115814, -0.03200000151991844, 0.20800000987946987, 1.0240000486373901, 0.0, 0.0, 0.0, 0.0, 0.0, 1.763227769859914E9, 0.0, 2025-11-15 12:29:29.859
32.0, -159.36461691185832, -80.45085789682344, -114.46711794380099, -84.4469409994781, -0.03200000151991844, 0.20800000987946987, 1.0240000486373901, 0.0, 0.0, 0.0, 0.0, 0.0, 1.763227769859914E9, 0.0, 2025-11-15 12:29:29.859
33.0, -288.22286988515407, -196.31669842405245, -220.93084998242557, -171.09294317290187, -0.03200000151991844, 0.20800000987946987, 1.0240000486373901, 0.0, 0.0, 0.0, 0.0, 0.0, 1.7632277698606367E9, 0.0, 2025-11-15 12:29:29.860
33.0, -165.51301243901253, -97.62447849335149, -156.7803460424766, -120.11810677684844, -0.03200000151991844, 0.20800000987946987, 1.0240000486373901, 0.0, 0.0, 0.0, 0.0, 0.0, 1.7632277698606367E9, 0.0, 2025-11-15 12:29:29.860
34.0, -68.08113879337907, -5.204070788342506, -66.80209300853312, -43.54365518409759, -0.03200000151991844, 0.20800000987946987, 1.0240000486373901, 0.0, 0.0, 0.0, 0.0, 0.0, 1.7632277698742807E9, 0.0, 2025-11-15 12:29:29.874
34.0, -273.3866867609322, -180.24634831445292, -194.45609819609672, -135.16372429858893, -0.03200000151991844, 0.20800000987946987, 1.0240000486373901, 0.0, 0.0, 0.0, 0.0, 0.0, 1.7632277698742807E9, 0.0, 2025-11-15 12:29:29.874
35.0, -236.87404349353164, -157.4217388848774, -200.3950593257323, -163.4859866630286, -0.03200000151991844, 0.20800000987946987, 1.0240000486373901, 0.0, 0.0, 0.0, 0.0, 0.0, 1.7632277698900824E9, 0.0, 2025-11-15 12:29:29.890
35.0, -48.136252329684794, 14.385525179561228, -67.97642159461975, -66.00549431797117, -0.03200000151991844, 0.20800000987946987, 1.0240000486373901, 0.0, 0.0, 0.0, 0.0, 0.0, 1.7632277698900824E9, 0.0, 2025-11-15 12:29:29.890
36.0, -231.3352516591549, -140.68942648312077, -164.62665614951402, -130.23079625703394, -0.03200000151991844, 0.20800000987946987, 1.0240000486373901, 0.0, 0.0, 0.0, 0.0, 0.0, 1.7632277698906407E9, 0.0, 2025-11-15 12:29:29.890
36.0, -269.55702920630574, -186.69393583806232, -216.19613663852215, -170.54317787941545, -0.03200000151991844, 0.20800000987946987, 1.0240000486373901, 0.0, 0.0, 0.0, 0.0, 0.0, 1.7632277698906407E9, 0.0, 2025-11-15 12:29:29.890
37.0, -87.53609836287796, -32.236067668069154, -104.41426686290652, -84.82841079495847, -0.03200000151991844, 0.20800000987946987, 1.0240000486373901, 0.0, 0.0, 0.0, 0.0, 0.0, 1.7632277699042232E9, 0.0, 2025-11-15 12:29:29.904
37.0, -157.5582452332601, -78.37147352145985, -109.16767970658839, -74.68954201508313, -0.03200000151991844, 0.20800000987946987, 1.0240000486373901, 0.0, 0.0, 0.0, 0.0, 0.0, 1.7632277699042232E9, 0.0, 2025-11-15 12:29:29.904
38.0, -286.33796030748636, -198.32502470025793, -225.0297803338617, -176.46343950927258, -0.03200000151991844, 0.20800000987946987, 1.0240000486373901, 0.0, 0.0, 0.0, 0.0, 0.0, 1.7632277699199097E9, 0.0, 2025-11-15 12:29:29.919
38.0, -169.14445529598743, -104.67792980978265, -162.01246608048677, -124.92013831995428, -0.03200000151991844, 0.20800000987946987, 1.0240000486373901, 0.0, 0.0, 0.0, 0.0, 0.0, 1.7632277699199097E9, 0.0, 2025-11-15 12:29:29.919
39.0, -77.95073477644473, -20.634898005519062, -84.77605219557881, -74.65962281543761, -0.03200000151991844, 0.20800000987946987, 1.0240000486373901, 0.0, 0.0, 0.0, 0.0, 0.0, 1.7632277699207013E9, 0.0, 2025-11-15 12:29:29.920
39.0, -283.4993762411177, -188.89673691196367, -211.1771908979863, -171.72124636545777, -0.03200000151991844, 0.20800000987946987, 1.0240000486373901, 0.0, 0.0, 0.0, 0.0, 0.0, 1.7632277699207013E9, 0.0, 2025-11-15 12:29:29.920
40.0, -239.38351636379957, -165.6532586873509, -206.7267099507153, -162.88012287020683, -0.03200000151991844, 0.20800000987946987, 1.0240000486373901, 0.0, 0.0, 0.0, 0.0, 0.0, 1.7632277699342432E9, 0.0, 2025-11-15 12:29:29.934
40.0, -54.46042315475643, 6.486856473144144, -71.4059098539874, -53.286094568669796, -0.03200000151991844, 0.20800000987946987, 1.0240000486373901, 0.0, 0.0, 0.0, 0.0, 0.0, 1.7632277699342432E9, 0.0, 2025-11-15 12:29:29.934
41.0, -237.86511698178947, -147.00237760832533, -168.5236319033429, -125.6157597117126, -0.03200000151991844, 0.20800000987946987, 1.0240000486373901, 0.0, 0.0, 0.0, 0.0, 0.0, 1.7632277699499032E9, 0.0, 2025-11-15 12:29:29.949
41.0, -274.88638664316386, -191.0696187862195, -223.9190300470218, -177.7836241936311, -0.03200000151991844, 0.20800000987946987, 1.0240000486373901, 0.0, 0.0, 0.0, 0.0, 0.0, 1.7632277699499032E9, 0.0, 2025-11-15 12:29:29.949
42.0, -85.64370898529887, -32.183709068689495, -108.10180821921676, -82.12072322703898, -0.03200000151991844, 0.20800000987946987, 1.0240000486373901, 0.0, 0.0, 0.0, 0.0, 0.0, 1.7632277699506168E9, 0.0, 2025-11-15 12:29:29.950
42.0, -157.72654073126614, -76.84933423949406, -117.93774510268122, -75.91996910050511, -0.03200000151991844, 0.20800000987946987, 1.0240000486373901, 0.0, 0.0, 0.0, 0.0, 0.0, 1.7632277699506168E9, 0.0, 2025-11-15 12:29:29.950
43.0, -279.89037278387696, -197.39378961129114, -224.16586344409734, -179.88918786868453, -0.03200000151991844, 0.20800000987946987, 1.0240000486373901, 0.0, 0.0, 0.0, 0.0, 0.0, 1.763227769964263E9, 0.0, 2025-11-15 12:29:29.964
43.0, -173.28826444689184, -105.96445539453998, -172.17377426009625, -139.07939955219626, -0.03200000151991844, 0.20800000987946987, 1.0240000486373901, 0.0, 0.0, 0.0, 0.0, 0.0, 1.763227769964263E9, 0.0, 2025-11-15 12:29:29.964
44.0, -74.184655521065, -7.0590611663647, -75.16824920941144, -55.0251480480656, -0.03200000151991844, 0.20800000987946987, 1.0240000486373901, 0.0, 0.0, 0.0, 0.0, 0.0, 1.7632277699798973E9, 0.0, 2025-11-15 12:29:29.979
44.0, -287.64318539202213, -202.38281615218148, -223.4739819522947, -184.02925711963326, -0.03200000151991844, 0.20800000987946987, 1.0240000486373901, 0.0, 0.0, 0.0, 0.0, 0.0, 1.7632277699798973E9, 0.0, 2025-11-15 12:29:29.979
45.0, -237.95487458072603, -166.33018057933077, -209.64383191615343, -168.79664460010827, -0.03200000151991844, 0.20800000987946987, 1.0240000486373901, 0.0, 0.0, 0.0, 0.0, 0.0, 1.763227769980622E9, 0.0, 2025-11-15 12:29:29.980
45.0, -40.30864172242582, 11.146771817933768, -70.96460165921599, -59.18765669874847, -0.03200000151991844, 0.20800000987946987, 1.0240000486373901, 0.0, 0.0, 0.0, 0.0, 0.0, 1.763227769980622E9, 0.0, 2025-11-15 12:29:29.980
46.0, -243.03365872055292, -145.6447939244099, -171.54173116758466, -131.99976893607527, -0.03200000151991844, 0.20800000987946987, 1.0240000486373901, 0.0, 0.0, 0.0, 0.0, 0.0, 1.7632277699942553E9, 0.0, 2025-11-15 12:29:29.994
46.0, -282.41480525396764, -192.72265456663445, -227.90202349983156, -182.32760263979435, -0.03200000151991844, 0.20800000987946987, 1.0240000486373901, 0.0, 0.0, 0.0, 0.0, 0.0, 1.7632277699942553E9, 0.0, 2025-11-15 12:29:29.994
47.0, -83.0407386161387, -29.18804920418188, -106.18323954194784, -84.21132730226964, -0.03200000151991844, 0.20800000987946987, 1.0240000486373901, 0.0, 0.0, 0.0, 0.0, 0.0, 1.7632277700099046E9, 0.0, 2025-11-15 12:29:30.009
47.0, -152.5505191925913, -68.25130424136296, -118.76426299288869, -87.17332806717604, -0.03200000151991844, 0.20800000987946987, 1.0240000486373901, 0.0, 0.0, 0.0, 0.0, 0.0, 1.7632277700099046E9, 0.0, 2025-11-15 12:29:30.009
48.0, -287.3626928953454, -197.15817591408268, -226.65289691463113, -182.24158494081348, -0.03200000151991844, 0.20800000987946987, 1.0240000486373901, 0.0, 0.0, 0.0, 0.0, 0.0, 1.7632277700106063E9, 0.0, 2025-11-15 12:29:30.010
48.0, -177.44329329766333, -116.63438996812329, -175.37138872221112, -141.5439936229959, -0.03200000151991844, 0.20800000987946987, 1.0240000486373901, 0.0, 0.0, 0.0, 0.0, 0.0, 1.7632277700106063E9, 0.0, 2025-11-15 12:29:30.010
49.0, -69.01985368225724, -7.3058945634402335, -75.61329730413854, -50.077260406687856, -0.03200000151991844, 0.20800000987946987, 1.0240000486373901, 0.0, 0.0, 0.0, 0.0, 0.0, 1.7632277700242872E9, 0.0, 2025-11-15 12:29:30.024
49.0, -285.04769482277334, -197.154436014127, -219.96221589390188, -168.97615979798138, -0.03200000151991844, 0.20800000987946987, 1.0240000486373901, 0.0, 0.0, 0.0, 0.0, 0.0, 1.7632277700242872E9, 0.0, 2025-11-15 12:29:30.024
50.0, -232.35624434705824, -163.82070770906284, -206.77158875018358, -164.56681775022298, -0.03200000151991844, 0.20800000987946987, 1.0240000486373901, 0.0, 0.0, 0.0, 0.0, 0.0, 1.763227770039898E9, 0.0, 2025-11-15 12:29:30.039
50.0, -45.73897645808756, 7.361993062775582, -73.8854635246098, -55.44401684310287, -0.03200000151991844, 0.20800000987946987, 1.0240000486373901, 0.0, 0.0, 0.0, 0.0, 0.0, 1.763227770039898E9, 0.0, 2025-11-15 12:29:30.039
51.0, -246.82965717557818, -162.878252920229, -182.3837011391297, -138.38377816043794, -0.03200000151991844, 0.20800000987946987, 1.0240000486373901, 0.0, 0.0, 0.0, 0.0, 0.0, 1.7632277700406156E9, 0.0, 2025-11-15 12:29:30.040
51.0, -275.81762173213065, -196.90386271709576, -225.33645213022828, -178.9766522794962, -0.03200000151991844, 0.20800000987946987, 1.0240000486373901, 0.0, 0.0, 0.0, 0.0, 0.0, 1.7632277700406156E9, 0.0, 2025-11-15 12:29:30.040
52.0, -92.88789519947022, -37.442008406389505, -112.78042306378484, -94.67556737829, -0.03200000151991844, 0.20800000987946987, 1.0240000486373901, 0.0, 0.0, 0.0, 0.0, 0.0, 1.7632277700542457E9, 0.0, 2025-11-15 12:29:30.054
52.0, -146.57789896335453, -71.86404759855941, -111.32560198102146, -79.69352815579623, -0.03200000151991844, 0.20800000987946987, 1.0240000486373901, 0.0, 0.0, 0.0, 0.0, 0.0, 1.7632277700542457E9, 0.0, 2025-11-15 12:29:30.054
53.0, -295.5530737983063, -208.92390117468312, -237.09843749087304, -189.81488235108554, -0.03200000151991844, 0.20800000987946987, 1.0240000486373901, 0.0, 0.0, 0.0, 0.0, 0.0, 1.763227770069924E9, 0.0, 2025-11-15 12:29:30.069
53.0, -176.6766138067469, -110.17184284469113, -172.45800665672868, -144.03850689344108, -0.03200000151991844, 0.20800000987946987, 1.0240000486373901, 0.0, 0.0, 0.0, 0.0, 0.0, 1.763227770069924E9, 0.0, 2025-11-15 12:29:30.069
54.0, -73.67602912709117, -4.063401301857084, -67.15738350432366, -42.19729120004922, -0.03200000151991844, 0.20800000987946987, 1.0240000486373901, 0.0, 0.0, 0.0, 0.0, 0.0, 1.7632277700706196E9, 0.0, 2025-11-15 12:29:30.070
54.0, -276.9171523191035, -187.81964572472498, -208.40592503082007, -161.94140798132867, -0.03200000151991844, 0.20800000987946987, 1.0240000486373901, 0.0, 0.0, 0.0, 0.0, 0.0, 1.7632277700706196E9, 0.0, 2025-11-15 12:29:30.070
55.0, -239.3348976643756, -162.33596742665395, -205.56734096445143, -166.3021313296631, -0.03200000151991844, 0.20800000987946987, 1.0240000486373901, 0.0, 0.0, 0.0, 0.0, 0.0, 1.763227770084227E9, 0.0, 2025-11-15 12:29:30.084
55.0, -39.82245472818613, 13.248595593031496, -61.56997297052294, -42.14493260066956, -0.03200000151991844, 0.20800000987946987, 1.0240000486373901, 0.0, 0.0, 0.0, 0.0, 0.0, 1.763227770084227E9, 0.0, 2025-11-15 12:29:30.084
56.0, -235.000353615731, -142.81368965795264, -165.17642144300044, -120.82494786847383, -0.03200000151991844, 0.20800000987946987, 1.0240000486373901, 0.0, 0.0, 0.0, 0.0, 0.0, 1.763227770116282E9, 0.0, 2025-11-15 12:29:30.116
56.0, -277.4706575125456, -195.46026133419946, -224.37155794166028, -173.9726661387831, -0.03200000151991844, 0.20800000987946987, 1.0240000486373901, 0.0, 0.0, 0.0, 0.0, 0.0, 1.763227770116282E9, 0.0, 2025-11-15 12:29:30.116
57.0, -100.12460161373019, -41.25296646123752, -109.01808370836079, -78.82587136607617, -0.03200000151991844, 0.20800000987946987, 1.0240000486373901, 0.0, 0.0, 0.0, 0.0, 0.0, 1.7632277701170344E9, 0.0, 2025-11-15 12:29:30.117
57.0, -145.1043783808127, -67.12933425465599, -107.35382822807878, -79.79076555464417, -0.03200000151991844, 0.20800000987946987, 1.0240000486373901, 0.0, 0.0, 0.0, 0.0, 0.0, 1.7632277701170344E9, 0.0, 2025-11-15 12:29:30.117
58.0, -269.2428776100278, -178.0996457398869, -206.15824515745044, -160.924155193381, -0.03200000151991844, 0.20800000987946987, 1.0240000486373901, 0.0, 0.0, 0.0, 0.0, 0.0, 1.7632277701177435E9, 0.0, 2025-11-15 12:29:30.117
58.0, -178.32964958716184, -103.12213142821565, -170.1916272835806, -145.50454767607152, -0.03200000151991844, 0.20800000987946987, 1.0240000486373901, 0.0, 0.0, 0.0, 0.0, 0.0, 1.7632277701177435E9, 0.0, 2025-11-15 12:29:30.117
59.0, -74.9999537114054, -2.331827622372657, -67.43413610104471, -53.55910726543516, -0.03200000151991844, 0.20800000987946987, 1.0240000486373901, 0.0, 0.0, 0.0, 0.0, 0.0, 1.7632277701184824E9, 0.0, 2025-11-15 12:29:30.118
59.0, -283.6601919392124, -188.63494391506538, -209.11276612244546, -165.46439373958856, -0.03200000151991844, 0.20800000987946987, 1.0240000486373901, 0.0, 0.0, 0.0, 0.0, 0.0, 1.7632277701184824E9, 0.0, 2025-11-15 12:29:30.118
60.0, -245.8946821866557, -169.7334895390086, -210.96027670055628, -170.524478379637, -0.03200000151991844, 0.20800000987946987, 1.0240000486373901, 0.0, 0.0, 0.0, 0.0, 0.0, 1.7632277701292968E9, 0.0, 2025-11-15 12:29:30.129
60.0, -38.004863349720836, 18.383478232193738, -62.92381675448269, -49.90896490868181, -0.03200000151991844, 0.20800000987946987, 1.0240000486373901, 0.0, 0.0, 0.0, 0.0, 0.0, 1.7632277701292968E9, 0.0, 2025-11-15 12:29:30.129
61.0, -242.79430512338877, -154.89730641478673, -173.95770653896034, -131.472443042323, -0.03200000151991844, 0.20800000987946987, 1.0240000486373901, 0.0, 0.0, 0.0, 0.0, 0.0, 1.7632277701442647E9, 0.0, 2025-11-15 12:29:30.144
61.0, -274.4001996489242, -194.0316195511259, -227.05680610984564, -177.8247630931437, -0.03200000151991844, 0.20800000987946987, 1.0240000486373901, 0.0, 0.0, 0.0, 0.0, 0.0, 1.7632277701442647E9, 0.0, 2025-11-15 12:29:30.144
62.0, -89.77629843633622, -29.24414770351723, -109.11158120725304, -84.92190829385072, -0.03200000151991844, 0.20800000987946987, 1.0240000486373901, 0.0, 0.0, 0.0, 0.0, 0.0, 1.7632277701599388E9, 0.0, 2025-11-15 12:29:30.159
62.0, -147.06034605763853, -64.3842476871796, -103.10530187841505, -69.5135204764083, -0.03200000151991844, 0.20800000987946987, 1.0240000486373901, 0.0, 0.0, 0.0, 0.0, 0.0, 1.7632277701599388E9, 0.0, 2025-11-15 12:29:30.159
63.0, -289.0269483756274, -197.962254404556, -231.4773678574711, -194.87870689108968, -0.03200000151991844, 0.20800000987946987, 1.0240000486373901, 0.0, 0.0, 0.0, 0.0, 0.0, 1.763227770160641E9, 0.0, 2025-11-15 12:29:30.160
63.0, -172.43930715695024, -98.23782208608463, -162.17702167853713, -132.75522872712463, -0.03200000151991844, 0.20800000987946987, 1.0240000486373901, 0.0, 0.0, 0.0, 0.0, 0.0, 1.763227770160641E9, 0.0, 2025-11-15 12:29:30.160
64.0, -63.65309724584222, 4.179338200483471, -60.42182368412614, -44.64692567102611, -0.03200000151991844, 0.20800000987946987, 1.0240000486373901, 0.0, 0.0, 0.0, 0.0, 0.0, 1.7632277701906025E9, 0.0, 2025-11-15 12:29:30.190
64.0, -288.08449358679354, -197.30777191231027, -215.91190424188972, -163.9684337573126, -0.03200000151991844, 0.20800000987946987, 1.0240000486373901, 0.0, 0.0, 0.0, 0.0, 0.0, 1.7632277701906025E9, 0.0, 2025-11-15 12:29:30.190
65.0, -247.21860677096993, -174.2849477850832, -218.1745437150821, -168.64704860188067, -0.03200000151991844, 0.20800000987946987, 1.0240000486373901, 0.0, 0.0, 0.0, 0.0, 0.0, 1.7632277701913097E9, 0.0, 2025-11-15 12:29:30.191
65.0, -31.568495525978506, 12.773628298658878, -66.35704491380602, -54.927910649217665, -0.03200000151991844, 0.20800000987946987, 1.0240000486373901, 0.0, 0.0, 0.0, 0.0, 0.0, 1.7632277701913097E9, 0.0, 2025-11-15 12:29:30.191
66.0, -234.80961871799082, -146.90888010943308, -175.63318171910942, -131.79407443851233, -0.03200000151991844, 0.20800000987946987, 1.0240000486373901, 0.0, 0.0, 0.0, 0.0, 0.0, 1.7632277701920435E9, 0.0, 2025-11-15 12:29:30.192
66.0, -285.14867212157696, -199.8172447825782, -231.45866835769266, -182.80256993416697, -0.03200000151991844, 0.20800000987946987, 1.0240000486373901, 0.0, 0.0, 0.0, 0.0, 0.0, 1.7632277701920435E9, 0.0, 2025-11-15 12:29:30.192
67.0, -87.8951287586242, -27.10118502890691, -106.66942653618753, -79.23352046124637, -0.03200000151991844, 0.20800000987946987, 1.0240000486373901, 0.0, 0.0, 0.0, 0.0, 0.0, 1.76322777020429E9, 0.0, 2025-11-15 12:29:30.204
67.0, -147.05286625772715, -71.3853404042311, -114.85606753919274, -79.95906105265021, -0.03200000151991844, 0.20800000987946987, 1.0240000486373901, 0.0, 0.0, 0.0, 0.0, 0.0, 1.76322777020429E9, 0.0, 2025-11-15 12:29:30.204
68.0, -292.3517194362357, -207.3419234934263, -239.31245826464146, -194.12324710004032, -0.03200000151991844, 0.20800000987946987, 1.0240000486373901, 0.0, 0.0, 0.0, 0.0, 0.0, 1.7632277702199113E9, 0.0, 2025-11-15 12:29:30.219
68.0, -182.61557493638247, -114.08751809829846, -174.50747183244675, -142.79686010815203, -0.03200000151991844, 0.20800000987946987, 1.0240000486373901, 0.0, 0.0, 0.0, 0.0, 0.0, 1.7632277702199113E9, 0.0, 2025-11-15 12:29:30.219
69.0, -76.03964589908719, -15.361639067996293, -75.38516340684146, -52.65779137611389, -0.03200000151991844, 0.20800000987946987, 1.0240000486373901, 0.0, 0.0, 0.0, 0.0, 0.0, 1.7632277702206228E9, 0.0, 2025-11-15 12:29:30.220
69.0, -289.3635393716395, -205.71880691265687, -226.83241211250424, -175.95481311529875, -0.03200000151991844, 0.20800000987946987, 1.0240000486373901, 0.0, 0.0, 0.0, 0.0, 0.0, 1.7632277702206228E9, 0.0, 2025-11-15 12:29:30.220
70.0, -245.7787452880293, -168.08793355850503, -213.53706777002662, -169.8550362875685, -0.03200000151991844, 0.20800000987946987, 1.0240000486373901, 0.0, 0.0, 0.0, 0.0, 0.0, 1.763227770234308E9, 0.0, 2025-11-15 12:29:30.234
70.0, -49.340500115416944, 0.6264332425780594, -88.98717954568565, -70.83744506072253, -0.03200000151991844, 0.20800000987946987, 1.0240000486373901, 0.0, 0.0, 0.0, 0.0, 0.0, 1.763227770234308E9, 0.0, 2025-11-15 12:29:30.234
71.0, -239.7462866595015, -157.1262867883779, -185.648633800447, -144.82762578409165, -0.03200000151991844, 0.20800000987946987, 1.0240000486373901, 0.0, 0.0, 0.0, 0.0, 0.0, 1.7632277702499096E9, 0.0, 2025-11-15 12:29:30.249
71.0, -256.72917235828936, -191.13693698542193, -227.41957640554756, -180.7568446584046, -0.03200000151991844, 0.20800000987946987, 1.0240000486373901, 0.0, 0.0, 0.0, 0.0, 0.0, 1.7632277702499096E9, 0.0, 2025-11-15 12:29:30.249
72.0, -96.65023455489427, -39.828064578119665, -125.06225451827049, -100.54721030872315, -0.03200000151991844, 0.20800000987946987, 1.0240000486373901, 0.0, 0.0, 0.0, 0.0, 0.0, 1.763227770250622E9, 0.0, 2025-11-15 12:29:30.250
72.0, -144.67054998595268, -71.40030000405386, -106.56096943747252, -72.72609453834593, -0.03200000151991844, 0.20800000987946987, 1.0240000486373901, 0.0, 0.0, 0.0, 0.0, 0.0, 1.763227770250622E9, 0.0, 2025-11-15 12:29:30.250
73.0, -286.390318906866, -199.20764108980075, -227.7374679017812, -171.62774886656553, -0.03200000151991844, 0.20800000987946987, 1.0240000486373901, 0.0, 0.0, 0.0, 0.0, 0.0, 1.763227770264264E9, 0.0, 2025-11-15 12:29:30.264
73.0, -182.02467074338347, -118.50807984592393, -176.3774218102917, -131.30040764436126, -0.03200000151991844, 0.20800000987946987, 1.0240000486373901, 0.0, 0.0, 0.0, 0.0, 0.0, 1.763227770264264E9, 0.0, 2025-11-15 12:29:30.264
74.0, -57.67673711664975, 2.5524817197583616, -63.98968824185431, -35.36449398100376, -0.03200000151991844, 0.20800000987946987, 1.0240000486373901, 0.0, 0.0, 0.0, 0.0, 0.0, 1.7632277702799137E9, 0.0, 2025-11-15 12:29:30.279
74.0, -277.11162711679935, -190.83774498896673, -213.0284413760528, -171.0443244734779, -0.03200000151991844, 0.20800000987946987, 1.0240000486373901, 0.0, 0.0, 0.0, 0.0, 0.0, 1.7632277702799137E9, 0.0, 2025-11-15 12:29:30.279
75.0, -238.09325087908655, -160.840007444378, -207.56070764083415, -162.78662537131459, -0.03200000151991844, 0.20800000987946987, 1.0240000486373901, 0.0, 0.0, 0.0, 0.0, 0.0, 1.7632277702806172E9, 0.0, 2025-11-15 12:29:30.280
75.0, -47.739822934381664, 10.484809525776654, -76.35379749536514, -56.69688332825899, -0.03200000151991844, 0.20800000987946987, 1.0240000486373901, 0.0, 0.0, 0.0, 0.0, 0.0, 1.7632277702806172E9, 0.0, 2025-11-15 12:29:30.280
76.0, -231.75038055423647, -147.88873389782384, -174.26063843537122, -126.59187360014766, -0.03200000151991844, 0.20800000987946987, 1.0240000486373901, 0.0, 0.0, 0.0, 0.0, 0.0, 1.7632277702943027E9, 0.0, 2025-11-15 12:29:30.294
76.0, -262.55593648925424, -199.80602508271113, -238.64675607252866, -186.57612898945808, -0.03200000151991844, 0.20800000987946987, 1.0240000486373901, 0.0, 0.0, 0.0, 0.0, 0.0, 1.7632277702943027E9, 0.0, 2025-11-15 12:29:30.294
77.0, -105.7194919474423, -53.41886101709679, -132.41863773111254, -108.48701791465282, -0.03200000151991844, 0.20800000987946987, 1.0240000486373901, 0.0, 0.0, 0.0, 0.0, 0.0, 1.763227770309903E9, 0.0, 2025-11-15 12:29:30.309
77.0, -147.8457250483334, -79.82629460422322, -122.34334725048393, -87.28178516589105, -0.03200000151991844, 0.20800000987946987, 1.0240000486373901, 0.0, 0.0, 0.0, 0.0, 0.0, 1.763227770309903E9, 0.0, 2025-11-15 12:29:30.309
78.0, -303.5415001036599, -220.95141943218186, -247.98154636193067, -193.3902267087251, -0.03200000151991844, 0.20800000987946987, 1.0240000486373901, 0.0, 0.0, 0.0, 0.0, 0.0, 1.763227770310614E9, 0.0, 2025-11-15 12:29:30.310
78.0, -184.02551721967757, -124.24508637795225, -181.306609951891, -138.08832606393844, -0.03200000151991844, 0.20800000987946987, 1.0240000486373901, 0.0, 0.0, 0.0, 0.0, 0.0, 1.763227770310614E9, 0.0, 2025-11-15 12:29:30.310
79.0, -54.909211149439216, 1.3220546343363822, -62.437629760243, -34.451958391815424, -0.03200000151991844, 0.20800000987946987, 1.0240000486373901, 0.0, 0.0, 0.0, 0.0, 0.0, 1.7632277703242793E9, 0.0, 2025-11-15 12:29:30.324
79.0, -290.38079215958714, -204.91098852222785, -214.66651755664498, -160.4828469986096, -0.03200000151991844, 0.20800000987946987, 1.0240000486373901, 0.0, 0.0, 0.0, 0.0, 0.0, 1.7632277703242793E9, 0.0, 2025-11-15 12:29:30.324
80.0, -241.75835283566266, -169.07152724685147, -209.78968801442534, -164.0806307559833, -0.03200000151991844, 0.20800000987946987, 1.0240000486373901, 0.0, 0.0, 0.0, 0.0, 0.0, 1.763227770339919E9, 0.0, 2025-11-15 12:29:30.339
80.0, -38.95479793846607, 5.877252780366689, -69.78653317317367, -56.25931503344327, -0.03200000151991844, 0.20800000987946987, 1.0240000486373901, 0.0, 0.0, 0.0, 0.0, 0.0, 1.763227770339919E9, 0.0, 2025-11-15 12:29:30.339
81.0, -222.8045398602262, -140.18827988905832, -164.1853479547426, -110.42802599165589, -0.03200000151991844, 0.20800000987946987, 1.0240000486373901, 0.0, 0.0, 0.0, 0.0, 0.0, 1.7632277703406165E9, 0.0, 2025-11-15 12:29:30.340
81.0, -267.1934124343097, -198.19786810176447, -228.16755639668554, -178.24363188818097, -0.03200000151991844, 0.20800000987946987, 1.0240000486373901, 0.0, 0.0, 0.0, 0.0, 0.0, 1.7632277703406165E9, 0.0, 2025-11-15 12:29:30.340
82.0, -85.32581748906523, -30.80368598503992, -107.29772972874343, -81.86641003005207, -0.03200000151991844, 0.20800000987946987, 1.0240000486373901, 0.0, 0.0, 0.0, 0.0, 0.0, 1.7632277703542578E9, 0.0, 2025-11-15 12:29:30.354
82.0, -117.11870701238513, -42.704047644045204, -86.49266627524048, -51.02719499543309, -0.03200000151991844, 0.20800000987946987, 1.0240000486373901, 0.0, 0.0, 0.0, 0.0, 0.0, 1.7632277703542578E9, 0.0, 2025-11-15 12:29:30.354
83.0, -278.6487259985879, -192.7750131660141, -215.00684845261276, -163.24663306586444, -0.03200000151991844, 0.20800000987946987, 1.0240000486373901, 0.0, 0.0, 0.0, 0.0, 0.0, 1.7632277703699276E9, 0.0, 2025-11-15 12:29:30.369
83.0, -187.0847553834319, -127.13228914374486, -182.64923403598368, -145.8448785720393, -0.03200000151991844, 0.20800000987946987, 1.0240000486373901, 0.0, 0.0, 0.0, 0.0, 0.0, 1.7632277703699276E9, 0.0, 2025-11-15 12:29:30.369
84.0, -49.89026540890336, 6.602793371770531, -55.60483254119754, -35.42059248033911, -0.03200000151991844, 0.20800000987946987, 1.0240000486373901, 0.0, 0.0, 0.0, 0.0, 0.0, 1.7632277703706245E9, 0.0, 2025-11-15 12:29:30.370
84.0, -265.3533816561103, -182.70720248529688, -200.93360491935164, -150.0672256220132, -0.03200000151991844, 0.20800000987946987, 1.0240000486373901, 0.0, 0.0, 0.0, 0.0, 0.0, 1.7632277703706245E9, 0.0, 2025-11-15 12:29:30.370
85.0, -221.215082379058, -154.69535181717947, -195.87726017925888, -149.63339722715318, -0.03200000151991844, 0.20800000987946987, 1.0240000486373901, 0.0, 0.0, 0.0, 0.0, 0.0, 1.7632277703842702E9, 0.0, 2025-11-15 12:29:30.384
85.0, -25.461238898336887, 26.4018237371929, -49.62099261209369, -30.24083104170859, -0.03200000151991844, 0.20800000987946987, 1.0240000486373901, 0.0, 0.0, 0.0, 0.0, 0.0, 1.7632277703842702E9, 0.0, 2025-11-15 12:29:30.384
86.0, -188.06834907177836, -99.58044617017731, -124.18337802868336, -80.60980364494026, -0.03200000151991844, 0.20800000987946987, 1.0240000486373901, 0.0, 0.0, 0.0, 0.0, 0.0, 1.7632277703999293E9, 0.0, 2025-11-15 12:29:30.399
86.0, -269.5719888061285, -188.50030751666054, -216.68980343267322, -169.3389300936833, -0.03200000151991844, 0.20800000987946987, 1.0240000486373901, 0.0, 0.0, 0.0, 0.0, 0.0, 1.7632277703999293E9, 0.0, 2025-11-15 12:29:30.399
87.0, -75.39638310670853, -20.545140406582505, -94.97475937474519, -77.75252007879317, -0.03200000151991844, 0.20800000987946987, 1.0240000486373901, 0.0, 0.0, 0.0, 0.0, 0.0, 1.7632277704006248E9, 0.0, 2025-11-15 12:29:30.400
87.0, -124.04500173032284, -42.91722194151953, -86.82925727125257, -53.79098106268793, -0.03200000151991844, 0.20800000987946987, 1.0240000486373901, 0.0, 0.0, 0.0, 0.0, 0.0, 1.7632277704006248E9, 0.0, 2025-11-15 12:29:30.400
88.0, -271.00063058920205, -185.31391275441274, -213.96341636497527, -167.038891620934, -0.03200000151991844, 0.20800000987946987, 1.0240000486373901, 0.0, 0.0, 0.0, 0.0, 0.0, 1.7632277704142382E9, 0.0, 2025-11-15 12:29:30.414
88.0, -155.90520945284516, -86.30380132747814, -135.9528431892395, -99.342962522991, -0.03200000151991844, 0.20800000987946987, 1.0240000486373901, 0.0, 0.0, 0.0, 0.0, 0.0, 1.7632277704142382E9, 0.0, 2025-11-15 12:29:30.414
89.0, -24.051296615041792, 40.49750667018816, -21.433366646058857, 1.3987225834280252, -0.03200000151991844, 0.20800000987946987, 1.0240000486373901, 0.0, 0.0, 0.0, 0.0, 0.0, 1.7632277704296453E9, 0.0, 2025-11-15 12:29:30.429
89.0, -264.2463712692261, -163.7683491096832, -180.44269306212664, -133.33491322025657, -0.03200000151991844, 0.20800000987946987, 1.0240000486373901, 0.0, 0.0, 0.0, 0.0, 0.0, 1.7632277704296453E9, 0.0, 2025-11-15 12:29:30.429
90.0, -231.68306235503405, -146.43017291510478, -188.06460917182267, -140.8446323312819, -0.03200000151991844, 0.20800000987946987, 1.0240000486373901, 0.0, 0.0, 0.0, 0.0, 0.0, 1.7632277704449053E9, 0.0, 2025-11-15 12:29:30.444
90.0, 7.573297410272062, 55.584263091441244, -31.546056126244366, -24.844155405648053, -0.03200000151991844, 0.20800000987946987, 1.0240000486373901, 0.0, 0.0, 0.0, 0.0, 0.0, 1.7632277704449053E9, 0.0, 2025-11-15 12:29:30.444
91.0, -183.6477873241529, -101.62617144593969, -124.68078472279012, -84.79101179540157, -0.03200000151991844, 0.20800000987946987, 1.0240000486373901, 0.0, 0.0, 0.0, 0.0, 0.0, 1.7632277704456124E9, 0.0, 2025-11-15 12:29:30.445
91.0, -258.31862983945757, -177.12353185145184, -207.11939944606274, -162.35279697645456, -0.03200000151991844, 0.20800000987946987, 1.0240000486373901, 0.0, 0.0, 0.0, 0.0, 0.0, 1.7632277704456124E9, 0.0, 2025-11-15 12:29:30.445
92.0, -63.52968054730445, -13.338353191968054, -86.31315107736737, -61.86168516706675, -0.03200000151991844, 0.20800000987946987, 1.0240000486373901, 0.0, 0.0, 0.0, 0.0, 0.0, 1.7632277704600203E9, 0.0, 2025-11-15 12:29:30.460
92.0, -110.14753349497914, -35.863770625088364, -77.94325497653335, -39.40358593314886, -0.03200000151991844, 0.20800000987946987, 1.0240000486373901, 0.0, 0.0, 0.0, 0.0, 0.0, 1.7632277704600203E9, 0.0, 2025-11-15 12:29:30.460
93.0, -268.32660212088376, -184.32283926615492, -206.5397149529308, -157.1842552376911, -0.03200000151991844, 0.20800000987946987, 1.0240000486373901, 0.0, 0.0, 0.0, 0.0, 0.0, 1.7632277704606733E9, 0.0, 2025-11-15 12:29:30.460
93.0, -161.79555188305676, -96.28185440925881, -150.5534126162529, -120.3163214745, -0.03200000151991844, 0.20800000987946987, 1.0240000486373901, 0.0, 0.0, 0.0, 0.0, 0.0, 1.7632277704606733E9, 0.0, 2025-11-15 12:29:30.460
94.0, -16.769711401313543, 42.217860649805516, -22.753551330417395, -1.1182300867512822, -0.03200000151991844, 0.20800000987946987, 1.0240000486373901, 0.0, 0.0, 0.0, 0.0, 0.0, 1.763227770474247E9, 0.0, 2025-11-15 12:29:30.474
94.0, 221.35532862739637, -187.31101933075115, -201.96955720707774, -152.22888779640198, -0.03200000151991844, 0.20800000987946987, 1.0240000486373901, 0.0, 0.0, 0.0, 0.0, 0.0, 1.763227770474247E9, 0.0, 2025-11-15 12:29:30.474
95.0, 269.0801919619553, -151.58749495400116, -191.2023852346465, -144.16566349193454, -0.03200000151991844, 0.20800000987946987, 1.0240000486373901, 0.0, 0.0, 0.0, 0.0, 0.0, 1.763227770489982E9, 0.0, 2025-11-15 12:29:30.489
95.0, 486.6900107837282, 43.38096953602508, -40.5367756197229, -26.732804883271456, -0.03200000151991844, 0.20800000987946987, 1.0240000486373901, 0.0, 0.0, 0.0, 0.0, 0.0, 1.763227770489982E9, 0.0, 2025-11-15 12:29:30.489
96.0, 282.68968790071085, -123.13807599106804, -147.00798745825887, -101.38494789879769, -0.03200000151991844, 0.20800000987946987, 1.0240000486373901, 0.0, 0.0, 0.0, 0.0, 0.0, 1.7632277704906697E9, 0.0, 2025-11-15 12:29:30.490
96.0, 256.30095381336287, -161.88343953201547, -193.06859531253576, -152.89832988847047, -0.03200000151991844, 0.20800000987946987, 1.0240000486373901, 0.0, 0.0, 0.0, 0.0, 0.0, 1.7632277704906697E9, 0.0, 2025-11-15 12:29:30.490
97.0, 432.0425926311873, -6.341000374872237, -82.13942272681743, -67.93528269510716, -0.03200000151991844, 0.20800000987946987, 1.0240000486373901, 0.0, 0.0, 0.0, 0.0, 0.0, 1.7632277705042872E9, 0.0, 2025-11-15 12:29:30.504
97.0, 379.4595992541872, -23.98210846586153, -68.15967669244856, -38.33397454582155, -0.03200000151991844, 0.20800000987946987, 1.0240000486373901, 0.0, 0.0, 0.0, 0.0, 0.0, 1.7632277705042872E9, 0.0, 2025-11-15 12:29:30.504
98.0, 218.29235056368634, -186.00205434625968, -204.37805277854204, -162.24433987773955, -0.03200000151991844, 0.20800000987946987, 1.0240000486373901, 0.0, 0.0, 0.0, 0.0, 0.0, 1.7632277705199857E9, 0.0, 2025-11-15 12:29:30.519
98.0, 340.65065741399303, -81.65510568255559, -137.62831836938858, -106.10470164287835, -0.03200000151991844, 0.20800000987946987, 1.0240000486373901, 0.0, 0.0, 0.0, 0.0, 0.0, 1.7632277705199857E9, 0.0, 2025-11-15 12:29:30.519
99.0, 453.39368147822097, 34.610904139932245, -41.37825310975313, -35.36823388095945, -0.03200000151991844, 0.20800000987946987, 1.0240000486373901, 0.0, 0.0, 0.0, 0.0, 0.0, 1.7632277705206747E9, 0.0, 2025-11-15 12:29:30.520
99.0, 239.58734091138467, -164.23583660414442, -184.84829520992935, -138.57451305817813, -0.03200000151991844, 0.20800000987946987, 1.0240000486373901, 0.0, 0.0, 0.0, 0.0, 0.0, 1.7632277705206747E9, 0.0, 2025-11-15 12:29:30.520
100.0, 273.08562481449917, -142.1966061652638, -183.5655095251277, -142.52384741138667, -0.03200000151991844, 0.20800000987946987, 1.0240000486373901, 0.0, 0.0, 0.0, 0.0, 0.0, 1.763227770535016E9, 0.0, 2025-11-15 12:29:30.535
100.0, 481.6598453433253, 52.59608302684501, -31.84524812269956, -21.235151948407292, -0.03200000151991844, 0.20800000987946987, 1.0240000486373901, 0.0, 0.0, 0.0, 0.0, 0.0, 1.763227770535016E9, 0.0, 2025-11-15 12:29:30.535
0.0, -197.0796380150132, -119.76468623103574, -139.9003075924702, -99.05499022640288, -0.03200000151991844, 0.20800000987946987, 1.0240000486373901, 0.0, 0.0, 0.0, 0.0, 0.0, 1.7632277705356784E9, 0.0, 2025-11-15 12:29:30.535
1.0, -270.50135394511744, -188.93787581147626, -219.44423975003883, -171.87084236368537, -0.03200000151991844, 0.2240000106394291, 1.0240000486373901, 0.0, 0.0, 0.0, 0.0, 0.0, 1.763227770549222E9, 0.0, 2025-11-15 12:29:30.549
1.0, -79.47848390834406, -29.034713305998594, -105.23891480313614, -87.10600986797363, -0.03200000151991844, 0.2240000106394291, 1.0240000486373901, 0.0, 0.0, 0.0, 0.0, 0.0, 1.763227770549222E9, 0.0, 2025-11-15 12:29:30.549
2.0, -123.7065407843329, -45.067664416041225, -90.78794137435034, -66.25980751495808, -0.03200000151991844, 0.2240000106394291, 1.0240000486373901, 0.0, 0.0, 0.0, 0.0, 0.0, 1.763227770564978E9, 0.0, 2025-11-15 12:29:30.564
2.0, -274.3721503992565, -190.4824544931762, -216.21670608827844, -170.98822597414255, -0.03200000151991844, 0.2240000106394291, 1.0240000486373901, 0.0, 0.0, 0.0, 0.0, 0.0, 1.763227770564978E9, 0.0, 2025-11-15 12:29:30.564
3.0, -180.57545951055363, -109.22938805585727, -172.08214671118185, -135.11510559916496, -0.03200000151991844, 0.2240000106394291, 1.0240000486373901, 0.0, 0.0, 0.0, 0.0, 0.0, 1.7632277705656772E9, 0.0, 2025-11-15 12:29:30.565
3.0, -44.267325825523585, 16.939876849297434, -59.32416304713115, -46.9843631433323, -0.03200000151991844, 0.2240000106394291, 1.0240000486373901, 0.0, 0.0, 0.0, 0.0, 0.0, 1.7632277705656772E9, 0.0, 2025-11-15 12:29:30.565
4.0, -262.38951094122604, -175.13016517506912, -204.20414743060246, -163.02223906852305, -0.03200000151991844, 0.2240000106394291, 1.0240000486373901, 0.0, 0.0, 0.0, 0.0, 0.0, 1.7632277705793028E9, 0.0, 2025-11-15 12:29:30.579
4.0, -230.88085381453857, -156.58400129480287, -202.05744485603645, -159.91064230538905, -0.03200000151991844, 0.2240000106394291, 1.0240000486373901, 0.0, 0.0, 0.0, 0.0, 0.0, 1.7632277705793028E9, 0.0, 2025-11-15 12:29:30.579
5.0, -16.154497858602554, 33.31315885530785, -54.53335120389238, -44.65814537089318, -0.03200000151991844, 0.2240000106394291, 1.0240000486373901, 0.0, 0.0, 0.0, 0.0, 0.0, 1.7632277705949707E9, 0.0, 2025-11-15 12:29:30.594
5.0, -197.54338560951874, -113.30213910760358, -143.10166195454076, -100.18444001302123, -0.03200000151991844, 0.2240000106394291, 1.0240000486373901, 0.0, 0.0, 0.0, 0.0, 0.0, 1.7632277705949707E9, 0.0, 2025-11-15 12:29:30.594
6.0, -253.3651323481463, -173.2527353973128, -213.02657142607495, -160.6361828967929, -0.03200000151991844, 0.2240000106394291, 1.0240000486373901, 0.0, 0.0, 0.0, 0.0, 0.0, 1.7632277705956645E9, 0.0, 2025-11-15 12:29:30.595
6.0, -89.60987288830802, -43.051858339924365, -118.47816064627841, -99.21580592449754, -0.03200000151991844, 0.2240000106394291, 1.0240000486373901, 0.0, 0.0, 0.0, 0.0, 0.0, 1.7632277705956645E9, 0.0, 2025-11-15 12:29:30.595
7.0, -106.31226609041914, -42.51331274630502, -88.33082710346207, -68.02878019399941, -0.03200000151991844, 0.2240000106394291, 1.0240000486373901, 0.0, 0.0, 0.0, 0.0, 0.0, 1.7632277706093416E9, 0.0, 2025-11-15 12:29:30.609
7.0, -284.6643550773151, -204.2228469303809, -230.7200381164439, -180.10984196607023, -0.03200000151991844, 0.2240000106394291, 1.0240000486373901, 0.0, 0.0, 0.0, 0.0, 0.0, 1.7632277706093416E9, 0.0, 2025-11-15 12:29:30.609
8.0, -166.24042298039421, -109.98484784690663, -168.0617542588152, -132.07082703523338, -0.03200000151991844, 0.2240000106394291, 1.0240000486373901, 0.0, 0.0, 0.0, 0.0, 0.0, 1.763227770624961E9, 0.0, 2025-11-15 12:29:30.624
8.0, -36.43971521826461, 13.10273949475959, -61.67282021930441, -44.80774136912078, -0.03200000151991844, 0.2240000106394291, 1.0240000486373901, 0.0, 0.0, 0.0, 0.0, 0.0, 1.763227770624961E9, 0.0, 2025-11-15 12:29:30.624
9.0, -259.1395378797315, -189.7793533015065, -210.9284875509329, -163.5981836616993, -0.03200000151991844, 0.2240000106394291, 1.0240000486373901, 0.0, 0.0, 0.0, 0.0, 0.0, 1.763227770625652E9, 0.0, 2025-11-15 12:29:30.625
9.0, -236.4607845484279, -167.78874156204984, -216.61313548358157, -169.5296649914235, -0.03200000151991844, 0.2240000106394291, 1.0240000486373901, 0.0, 0.0, 0.0, 0.0, 0.0, 1.763227770625652E9, 0.0, 2025-11-15 12:29:30.625
10.0, -14.467802978586406, 35.370103830937296, -51.967779834289104, -31.082308531738818, -0.03200000151991844, 0.2240000106394291, 1.0240000486373901, 0.0, 0.0, 0.0, 0.0, 0.0, 1.7632277706394148E9, 0.0, 2025-11-15 12:29:30.639
10.0, -210.4198611569591, -129.19671391928568, -158.54370887158439, -119.27288938686252, -0.03200000151991844, 0.2240000106394291, 1.0240000486373901, 0.0, 0.0, 0.0, 0.0, 0.0, 1.7632277706394148E9, 0.0, 2025-11-15 12:29:30.639
11.0, -259.326532877516, -179.98081541759893, -218.3783682626672, -170.05699088517576, -0.03200000151991844, 0.2240000106394291, 1.0240000486373901, 0.0, 0.0, 0.0, 0.0, 0.0, 1.7632277706547027E9, 0.0, 2025-11-15 12:29:30.654
11.0, -80.07686790125445, -32.52030006470159, -110.00354734668508, -78.95676786452532, -0.03200000151991844, 0.2240000106394291, 1.0240000486373901, 0.0, 0.0, 0.0, 0.0, 0.0, 1.7632277706547027E9, 0.0, 2025-11-15 12:29:30.654
12.0, -95.08508642343804, -47.21810689056292, -91.40876476699486, -67.40795680135489, -0.03200000151991844, 0.2240000106394291, 1.0240000486373901, 0.0, 0.0, 0.0, 0.0, 0.0, 1.7632277706701088E9, 0.0, 2025-11-15 12:29:30.670
12.0, -226.6435471647419, -188.17493622051552, -223.7189453993924, -171.32855687011033, -0.03200000151991844, 0.2240000106394291, 1.0240000486373901, 0.0, 0.0, 0.0, 0.0, 0.0, 1.7632277706701088E9, 0.0, 2025-11-15 12:29:30.670
13.0, -208.57609047880396, -120.89787591760978, -176.67474385676906, -146.57789896335453, -0.03200000151991844, 0.2240000106394291, 1.0240000486373901, 0.0, 0.0, 0.0, 0.0, 0.0, 1.763227770670679E9, 0.0, 2025-11-15 12:29:30.670
13.0, -35.53091952903196, 27.284440126735717, -49.884655558969826, -40.835967616178095, -0.03200000151991844, 0.2240000106394291, 1.0240000486373901, 0.0, 0.0, 0.0, 0.0, 0.0, 1.763227770670679E9, 0.0, 2025-11-15 12:29:30.670
14.0, -272.255367024336, -192.4421620699577, -211.34735634597018, -165.14650224335492, -0.03200000151991844, 0.2240000106394291, 1.0240000486373901, 0.0, 0.0, 0.0, 0.0, 0.0, 1.7632277706849475E9, 0.0, 2025-11-15 12:29:30.684
14.0, -239.12359331687912, -173.03208129992709, -223.4234933028929, -184.2760905167088, -0.03200000151991844, 0.2240000106394291, 1.0240000486373901, 0.0, 0.0, 0.0, 0.0, 0.0, 1.7632277706849475E9, 0.0, 2025-11-15 12:29:30.684
15.0, -23.09575217636302, 23.12567137600854, -64.55628308514133, -50.78036159835756, -0.03200000151991844, 0.2240000106394291, 1.0240000486373901, 0.0, 0.0, 0.0, 0.0, 0.0, 1.7632277706856556E9, 0.0, 2025-11-15 12:29:30.685
15.0, -191.2192147844471, -127.4501806399785, -144.9716119323857, -92.17357430793345, -0.03200000151991844, 0.2240000106394291, 1.0240000486373901, 0.0, 0.0, 0.0, 0.0, 0.0, 1.7632277706856556E9, 0.0, 2025-11-15 12:29:30.685
16.0, -286.6689414535649, -221.80785652203485, -249.23254289710894, -193.73429750464857, -0.03200000151991844, 0.2240000106394291, 1.0240000486373901, 0.0, 0.0, 0.0, 0.0, 0.0, 1.7632277706993413E9, 0.0, 2025-11-15 12:29:30.699
16.0, -106.46186208864674, -66.6431472604163, -132.94409367488697, -109.07044230774045, -0.03200000151991844, 0.2240000106394291, 1.0240000486373901, 0.0, 0.0, 0.0, 0.0, 0.0, 1.7632277706993413E9, 0.0, 2025-11-15 12:29:30.699
17.0, -129.05833762092516, -64.36554818740115, -103.18944962741807, -76.65298949182034, -0.03200000151991844, 0.2240000106394291, 1.0240000486373901, 0.0, 0.0, 0.0, 0.0, 0.0, 1.7632277707149749E9, 0.0, 2025-11-15 12:29:30.714
17.0, -299.0143512072973, -225.7571908752434, -249.34099999582395, -197.75468995701522, -0.03200000151991844, 0.2240000106394291, 1.0240000486373901, 0.0, 0.0, 0.0, 0.0, 0.0, 1.7632277707149749E9, 0.0, 2025-11-15 12:29:30.714
18.0, -197.21053451346233, -139.27948419982567, -198.90470919338986, -154.26713327225298, -0.03200000151991844, 0.2240000106394291, 1.0240000486373901, 0.0, 0.0, 0.0, 0.0, 0.0, 1.7632277707156675E9, 0.0, 2025-11-15 12:29:30.715
18.0, -68.54675633786246, -17.433543643448502, -85.66427843505517, -60.29840698558837, -0.03200000151991844, 0.2240000106394291, 1.0240000486373901, 0.0, 0.0, 0.0, 0.0, 0.0, 1.7632277707156675E9, 0.0, 2025-11-15 12:29:30.715
19.0, -299.59403570042923, -216.44110008561984, -241.21419739210978, -197.38069996144623, -0.03200000151991844, 0.2240000106394291, 1.0240000486373901, 0.0, 0.0, 0.0, 0.0, 0.0, 1.7632277707292821E9, 0.0, 2025-11-15 12:29:30.729
19.0, -273.3661173111759, -208.69202737743035, -247.44487071828917, -199.71813743375242, -0.03200000151991844, 0.2240000106394291, 1.0240000486373901, 0.0, 0.0, 0.0, 0.0, 0.0, 1.7632277707292821E9, 0.0, 2025-11-15 12:29:30.729
20.0, -51.20484024332836, -13.51038858992979, -90.70940347528085, -64.07196604087949, -0.03200000151991844, 0.2240000106394291, 1.008000047877431, 0.0, 0.0, 0.0, 0.0, 0.0, 1.763227770745083E9, 0.0, 2025-11-15 12:29:30.745
20.0, -233.48382418369874, -160.5445553478785, -186.97442833473906, -137.1383914751932, -0.03200000151991844, 0.2240000106394291, 1.008000047877431, 0.0, 0.0, 0.0, 0.0, 0.0, 1.763227770745083E9, 0.0, 2025-11-15 12:29:30.745
21.0, -299.18264670530334, -236.37850674940273, -264.85036511207, -208.38348563108593, -0.03200000151991844, 0.2240000106394291, 1.008000047877431, 0.0, 0.0, 0.0, 0.0, 0.0, 1.763227770745672E9, 0.0, 2025-11-15 12:29:30.745
21.0, -134.39517485769466, -89.59865318844095, -159.2767292628996, -123.59621373564005, -0.03200000151991844, 0.2240000106394291, 1.008000047877431, 0.0, 0.0, 0.0, 0.0, 0.0, 1.763227770745672E9, 0.0, 2025-11-15 12:29:30.745
22.0, -136.81863002898172, -84.9873565430753, -121.40276241162792, -80.49760664626956, -0.03200000151991844, 0.2240000106394291, 1.008000047877431, 0.0, 0.0, 0.0, 0.0, 0.0, 1.7632277707592895E9, 0.0, 2025-11-15 12:29:30.759
22.0, -298.2775909160264, -239.800515208859, -265.48988800449297, -212.18696388602257, -0.03200000151991844, 0.2240000106394291, 1.008000047877431, 0.0, 0.0, 0.0, 0.0, 0.0, 1.7632277707592895E9, 0.0, 2025-11-15 12:29:30.759
23.0, -179.93593661813065, -147.63442070083693, -207.40176189271733, -165.42325484007597, -0.03200000151991844, 0.2240000106394291, 1.008000047877431, 0.0, 0.0, 0.0, 0.0, 0.0, 1.7632277707749774E9, 0.0, 2025-11-15 12:29:30.774
23.0, -100.74729495635256, -24.569272758904845, -92.22406295733526, -67.13494410458952, -0.03200000151991844, 0.2240000106394291, 1.008000047877431, 0.0, 0.0, 0.0, 0.0, 0.0, 1.7632277707749774E9, 0.0, 2025-11-15 12:29:30.774
24.0, -306.8756209141575, -223.6478873002343, -240.37271990207955, -190.3908269442618, -0.03200000151991844, 0.2240000106394291, 1.008000047877431, 0.0, 0.0, 0.0, 0.0, 0.0, 1.7632277707756498E9, 0.0, 2025-11-15 12:29:30.775
24.0, -270.000207351055, -210.99206585017964, -250.7659018789418, -202.79233519732952, -0.03200000151991844, 0.2240000106394291, 1.008000047877431, 0.0, 0.0, 0.0, 0.0, 0.0, 1.7632277707756498E9, 0.0, 2025-11-15 12:29:30.775
25.0, -46.698260796722025, 1.931658327113837, -83.9850633549504, -60.31336658541113, -0.03200000151991844, 0.2240000106394291, 1.008000047877431, 0.0, 0.0, 0.0, 0.0, 0.0, 1.763227770789316E9, 0.0, 2025-11-15 12:29:30.789
25.0, -241.28899539122358, -166.99214287148789, -189.80553260119632, -142.81929950788617, -0.03200000151991844, 0.2240000106394291, 1.008000047877431, 0.0, 0.0, 0.0, 0.0, 0.0, 1.763227770789316E9, 0.0, 2025-11-15 12:29:30.789
26.0, -312.2872561500408, -234.0522889769636, -260.556959962938, -211.77557489089668, -0.03200000151991844, 0.2240000106394291, 1.008000047877431, 0.0, 0.0, 0.0, 0.0, 0.0, 1.7632277708049526E9, 0.0, 2025-11-15 12:29:30.804
26.0, -122.95482089323923, -77.90024612704292, -152.73564424039796, -114.03328954894096, -0.03200000151991844, 0.2240000106394291, 1.008000047877431, 0.0, 0.0, 0.0, 0.0, 0.0, 1.7632277708049526E9, 0.0, 2025-11-15 12:29:30.804
27.0, -137.28611752344295, -80.62289329478517, -118.89702944131568, -78.91188906505704, -0.03200000151991844, 0.2240000106394291, 1.008000047877431, 0.0, 0.0, 0.0, 0.0, 0.0, 1.7632277708056576E9, 0.0, 2025-11-15 12:29:30.805
27.0, -317.5679948874749, -249.8010076903738, -265.2131354077719, -206.37515935488045, -0.03200000151991844, 0.2240000106394291, 1.008000047877431, 0.0, 0.0, 0.0, 0.0, 0.0, 1.7632277708056576E9, 0.0, 2025-11-15 12:29:30.805
28.0, -219.66489384742454, -166.70043067494407, -215.24059219984338, -162.40141567587852, -0.03200000151991844, 0.2240000106394291, 1.008000047877431, 0.0, 0.0, 0.0, 0.0, 0.0, 1.7632277708194413E9, 0.0, 2025-11-15 12:29:30.819
28.0, -66.9385993569158, -22.411350484471768, -85.70915723452345, -59.84961899090558, -0.03200000151991844, 0.2240000106394291, 1.008000047877431, 0.0, 0.0, 0.0, 0.0, 0.0, 1.7632277708194413E9, 0.0, 2025-11-15 12:29:30.819
29.0, -305.6077948291786, -226.22467836970463, -243.91814506007358, -192.11866072379053, -0.03200000151991844, 0.2240000106394291, 1.008000047877431, 0.0, 0.0, 0.0, 0.0, 0.0, 1.763227770834948E9, 0.0, 2025-11-15 12:29:30.834
29.0, -274.9667944922112, -212.73111932957545, -252.38527855975553, -204.8791993726045, -0.03200000151991844, 0.2240000106394291, 1.008000047877431, 0.0, 0.0, 0.0, 0.0, 0.0, 1.763227770834948E9, 0.0, 2025-11-15 12:29:30.834
30.0, -53.74423231324181, -21.0649865004234, -94.79711412684992, -71.64900335110724, -0.03200000151991844, 0.2240000106394291, 1.008000047877431, 0.0, 0.0, 0.0, 0.0, 0.0, 1.7632277708356535E9, 0.0, 2025-11-15 12:29:30.835
30.0, -239.99872990651056, -168.11785275815055, -187.445655729156, -140.09291244018823, -0.03200000151991844, 0.2240000106394291, 1.008000047877431, 0.0, 0.0, 0.0, 0.0, 0.0, 1.7632277708356535E9, 0.0, 2025-11-15 12:29:30.835
31.0, -285.06078447261825, -219.76961104618385, -246.48745632963255, -194.00731020141393, -0.03200000151991844, 0.2240000106394291, 1.008000047877431, 0.0, 0.0, 0.0, 0.0, 0.0, 1.7632277708493092E9, 0.0, 2025-11-15 12:29:30.849
31.0, -131.05544419726357, -79.18303181184456, -149.6128277773969, -122.88937264401466, -0.03200000151991844, 0.2240000106394291, 1.008000047877431, 0.0, 0.0, 0.0, 0.0, 0.0, 1.7632277708493092E9, 0.0, 2025-11-15 12:29:30.849
32.0, -135.16933414852247, -65.67077327193692, -110.50843384070322, -78.60521726869047, -0.03200000151991844, 0.2240000106394291, 1.008000047877431, 0.0, 0.0, 0.0, 0.0, 0.0, 1.7632277708650427E9, 0.0, 2025-11-15 12:29:30.865
32.0, -316.63301989855245, -239.82669450854883, -261.52933395141736, -212.41883768327534, -0.03200000151991844, 0.2240000106394291, 1.008000047877431, 0.0, 0.0, 0.0, 0.0, 0.0, 1.7632277708650427E9, 0.0, 2025-11-15 12:29:30.865
33.0, -220.46523243794218, -162.36214672634378, -216.5682566841133, -166.32457072939724, -0.03200000151991844, 0.2240000106394291, 1.008000047877431, 0.0, 0.0, 0.0, 0.0, 0.0, 1.76322777086566E9, 0.0, 2025-11-15 12:29:30.865
33.0, -56.96802607504651, -12.747448998969048, -85.89241233235225, -59.57286639418453, -0.03200000151991844, 0.2240000106394291, 1.008000047877431, 0.0, 0.0, 0.0, 0.0, 0.0, 1.76322777086566E9, 0.0, 2025-11-15 12:29:30.865
34.0, 182.98208513204008, -224.55668298946694, -244.2472562561743, -188.2029854701832, -0.03200000151991844, 0.2240000106394291, 1.008000047877431, 0.0, 0.0, 0.0, 0.0, 0.0, 1.7632277708794637E9, 0.0, 2025-11-15 12:29:30.879
34.0, 230.78922626562417, -205.71880691265687, -242.81861447310075, -193.4575449079275, -0.03200000151991844, 0.2240000106394291, 1.008000047877431, 0.0, 0.0, 0.0, 0.0, 0.0, 1.7632277708794637E9, 0.0, 2025-11-15 12:29:30.879
35.0, 426.51315054669976, -24.78992685629055, -103.46246232418343, -77.75625997874886, -0.03200000151991844, 0.2240000106394291, 1.008000047877431, 0.0, 0.0, 0.0, 0.0, 0.0, 1.7632277708950167E9, 0.0, 2025-11-15 12:29:30.895
35.0, 261.8977140970528, -160.82504784455523, -188.89299701200798, -141.9217235185206, -0.03200000151991844, 0.2240000106394291, 1.008000047877431, 0.0, 0.0, 0.0, 0.0, 0.0, 1.7632277708950167E9, 0.0, 2025-11-15 12:29:30.895
36.0, 191.38190043251961, -232.44413199601695, -258.5037548872642, -207.03338174708188, -0.03200000151991844, 0.2240000106394291, 1.008000047877431, 0.0, 0.0, 0.0, 0.0, 0.0, 1.7632277708956769E9, 0.0, 2025-11-15 12:29:30.895
36.0, 366.18482436146587, -86.81990752136335, -157.03652918944135, -122.29098865110427, -0.03200000151991844, 0.2240000106394291, 1.008000047877431, 0.0, 0.0, 0.0, 0.0, 0.0, 1.7632277708956769E9, 0.0, 2025-11-15 12:29:30.895
37.0, 357.7700494611636, -73.65545967733487, -116.68674856750295, -85.54273168649524, -0.03200000151991844, 0.2240000106394291, 1.008000047877431, 0.0, 0.0, 0.0, 0.0, 0.0, 1.76322777090927E9, 0.0, 2025-11-15 12:29:30.909
37.0, 178.7559981821105, -240.36150020221248, -262.3221927420236, -207.85989963728935, -0.03200000151991844, 0.2240000106394291, 1.008000047877431, 0.0, 0.0, 0.0, 0.0, 0.0, 1.76322777090927E9, 0.0, 2025-11-15 12:29:30.909
38.0, 271.9019464785233, -170.04016133537516, -219.46667914977297, -177.5629700962454, -0.03200000151991844, 0.2240000106394291, 1.008000047877431, 0.0, 0.0, 0.0, 0.0, 0.0, 1.7632277709250245E9, 0.0, 2025-11-15 12:29:30.925
38.0, 438.353673806414, -15.384078467730433, -84.68442464666441, -60.83321267925203, -0.03200000151991844, 0.2240000106394291, 1.008000047877431, 0.0, 0.0, 0.0, 0.0, 0.0, 1.7632277709250245E9, 0.0, 2025-11-15 12:29:30.925
39.0, 667.9554818361066, -231.61761410580948, -246.5098957293667, -189.29129635728896, -0.03200000151991844, 0.2240000106394291, 1.008000047877431, 0.0, 0.0, 0.0, 0.0, 0.0, 1.7632277709256587E9, 0.0, 2025-11-15 12:29:30.925
39.0, 714.5022766846232, -214.4178142095916, -249.31482069613412, -199.8752132318914, -0.03200000151991844, 0.2240000106394291, 1.008000047877431, 0.0, 0.0, 0.0, 0.0, 0.0, 1.7632277709256587E9, 0.0, 2025-11-15 12:29:30.925
40.0, 481.7402531923726, -7.672404759097844, -90.1371987820603, -66.93672940693796, -0.03200000151991844, 0.2240000106394291, 1.008000047877431, 0.0, 0.0, 0.0, 0.0, 0.0, 1.763227770939293E9, 0.0, 2025-11-15 12:29:30.939
40.0, 707.557282466907, -172.53467460582033, -187.6999689261429, -134.12403211090714, -0.03200000151991844, 0.2240000106394291, 1.008000047877431, 0.0, 0.0, 0.0, 0.0, 0.0, 1.763227770939293E9, 0.0, 2025-11-15 12:29:30.939
41.0, 684.3025845424272, -219.03285075491294, -250.08150018705055, -189.89716015011072, -0.03200000151991844, 0.2240000106394291, 1.008000047877431, 0.0, 0.0, 0.0, 0.0, 0.0, 1.7632277709550107E9, 0.0, 2025-11-15 12:29:30.955
41.0, 854.8233230221085, -74.60165436612442, -140.39771428657696, -100.71924570668489, -0.03200000151991844, 0.2240000106394291, 1.008000047877431, 0.0, 0.0, 0.0, 0.0, 0.0, 1.7632277709550107E9, 0.0, 2025-11-15 12:29:30.955
42.0, 844.7929113409482, -81.07168128946796, -118.63523644441739, -88.57953045051545, -0.03200000151991844, 0.2240000106394291, 1.008000047877431, 0.0, 0.0, 0.0, 0.0, 0.0, 1.7632277709556644E9, 0.0, 2025-11-15 12:29:30.955
42.0, 675.0238927523606, -234.759130068589, -257.0003151050769, -205.15221206936985, -0.03200000151991844, 0.2240000106394291, 1.008000047877431, 0.0, 0.0, 0.0, 0.0, 0.0, 1.7632277709556644E9, 0.0, 2025-11-15 12:29:30.955
43.0, 770.0472708265297, -147.26417060522363, -199.1889415900223, -158.26882622484118, -0.03200000151991844, 0.2240000106394291, 1.008000047877431, 0.0, 0.0, 0.0, 0.0, 0.0, 1.7632277709692693E9, 0.0, 2025-11-15 12:29:30.969
43.0, 927.1268088654615, -5.548141584265977, -68.51309723826125, -52.26884178072214, -0.03200000151991844, 0.2240000106394291, 1.008000047877431, 0.0, 0.0, 0.0, 0.0, 0.0, 1.7632277709692693E9, 0.0, 2025-11-15 12:29:30.969
44.0, 688.4089946937747, -211.0107653499581, -223.18787960568443, -173.76697164122015, -0.03200000151991844, 0.2240000106394291, 1.008000047877431, 0.0, 0.0, 0.0, 0.0, 0.0, 1.7632277709849448E9, 0.0, 2025-11-15 12:29:30.984
44.0, 708.088348260615, -201.10377036733553, -235.21539786318317, -187.97111167293042, -0.03200000151991844, 0.2240000106394291, 1.008000047877431, 0.0, 0.0, 0.0, 0.0, 0.0, 1.7632277709849448E9, 0.0, 2025-11-15 12:29:30.984
45.0, 933.1891866936348, -6.778568669687957, -78.81652161618695, -67.37055780179799, -0.03200000151991844, 0.2240000106394291, 1.008000047877431, 0.0, 0.0, 0.0, 0.0, 0.0, 1.7632277709856553E9, 0.0, 2025-11-15 12:29:30.985
45.0, 769.4227075339295, -135.9023545398377, -157.8667869796045, -109.4967909026891, -0.03200000151991844, 0.2240000106394291, 1.008000047877431, 0.0, 0.0, 0.0, 0.0, 0.0, 1.7632277709856553E9, 0.0, 2025-11-15 12:29:30.985
46.0, 679.1041236040182, -238.835621020291, -261.4358364525251, -208.86593272536993, -0.03200000151991844, 0.2240000106394291, 1.008000047877431, 0.0, 0.0, 0.0, 0.0, 0.0, 1.763227770999314E9, 0.0, 2025-11-15 12:29:30.999
46.0, 855.5862626130693, -82.73593676974997, -145.2745438287966, -118.63336649443954, -0.03200000151991844, 0.2240000106394291, 1.008000047877431, 0.0, 0.0, 0.0, 0.0, 0.0, 1.763227770999314E9, 0.0, 2025-11-15 12:29:30.999
47.0, 854.4231537268497, -69.95669862115756, -106.57405908731744, -74.62222381588072, -0.03200000151991844, 0.2240000106394291, 1.008000047877431, 0.0, 0.0, 0.0, 0.0, 0.0, 1.7632277710150259E9, 0.0, 2025-11-15 12:29:31.015
47.0, 666.0967515581287, -244.1350592575036, -260.38492456497625, -200.0173294302076, -0.03200000151991844, 0.2240000106394291, 1.008000047877431, 0.0, 0.0, 0.0, 0.0, 0.0, 1.7632277710150259E9, 0.0, 2025-11-15 12:29:31.015
48.0, 768.5887098438106, -158.26695627486333, -204.06577113224193, -165.71496703661978, -0.03200000151991844, 0.2240000106394291, 1.008000047877431, 0.0, 0.0, 0.0, 0.0, 0.0, 1.7632277710156636E9, 0.0, 2025-11-15 12:29:31.015
48.0, 927.8710489566438, -8.67095804726705, -72.10340119572356, -55.840446238406, -0.03200000151991844, 0.2240000106394291, 1.008000047877431, 0.0, 0.0, 0.0, 0.0, 0.0, 1.7632277710156636E9, 0.0, 2025-11-15 12:29:31.015
49.0, 684.7364129372872, -217.11054217768833, -229.99823742499575, -175.17317402455956, -0.03200000151991844, 0.2240000106394291, 1.008000047877431, 0.0, 0.0, 0.0, 0.0, 0.0, 1.7632277710292673E9, 0.0, 2025-11-15 12:29:31.029
49.0, 712.7931424048729, -202.31549795297906, -230.0505960243754, -175.4200074216351, -0.03200000151991844, 0.2240000106394291, 1.008000047877431, 0.0, 0.0, 0.0, 0.0, 0.0, 1.7632277710292673E9, 0.0, 2025-11-15 12:29:31.029
50.0, 916.4905333914794, -25.807179644238204, -99.37101177265868, -77.17657548561692, -0.03200000151991844, 0.2240000106394291, 1.0240000486373901, 0.0, 0.0, 0.0, 0.0, 0.0, 1.7632277710454016E9, 0.0, 2025-11-15 12:29:31.045
50.0, 751.4375286470167, -160.36504015000537, -172.90118480147794, -124.49378972500563, -0.03200000151991844, 0.2240000106394291, 1.0240000486373901, 0.0, 0.0, 0.0, 0.0, 0.0, 1.7632277710454016E9, 0.0, 2025-11-15 12:29:31.045
51.0, 674.825678054709, -239.17595191625878, -256.1438780152239, -202.56794119998813, -0.03200000151991844, 0.2240000106394291, 1.0240000486373901, 0.0, 0.0, 0.0, 0.0, 0.0, 1.7632277710599308E9, 0.0, 2025-11-15 12:29:31.059
51.0, 833.5133730745874, -101.75332804443315, -167.08564037038013, -133.66776431631297, -0.03200000151991844, 0.2240000106394291, 1.0240000486373901, 0.0, 0.0, 0.0, 0.0, 0.0, 1.7632277710599308E9, 0.0, 2025-11-15 12:29:31.059
52.0, 849.2957508875988, -72.77658318774775, -109.61459775129333, -69.45368207711726, -0.03200000151991844, 0.2240000106394291, 1.0240000486373901, 0.0, 0.0, 0.0, 0.0, 0.0, 1.7632277710606422E9, 0.0, 2025-11-15 12:29:31.060
52.0, 661.3807377140038, -246.64827202772722, -260.7439549607225, -208.48446292988956, -0.03200000151991844, 0.2240000106394291, 1.0240000486373901, 0.0, 0.0, 0.0, 0.0, 0.0, 1.7632277710606422E9, 0.0, 2025-11-15 12:29:31.060
53.0, 758.2778056659736, -163.01288931863382, -208.99495927384123, -164.27510555367917, -0.03200000151991844, 0.2240000106394291, 1.0240000486373901, 0.0, 0.0, 0.0, 0.0, 0.0, 1.7632277710750067E9, 0.0, 2025-11-15 12:29:31.075
53.0, 915.2937654056586, -15.05870717158541, -77.78056932846084, -47.2087571406737, -0.03200000151991844, 0.2240000106394291, 1.0240000486373901, 0.0, 0.0, 0.0, 0.0, 0.0, 1.7632277710750067E9, 0.0, 2025-11-15 12:29:31.075
54.0, 687.1673479084857, -211.25011894712225, -222.13696771813557, -171.69132716581225, -0.03200000151991844, 0.2240000106394291, 1.0240000486373901, 0.0, 0.0, 0.0, 0.0, 0.0, 1.7632277710756686E9, 0.0, 2025-11-15 12:29:31.075
54.0, 698.0280173798092, -216.66549408296123, -248.67155790375546, -199.2095110397786, -0.03200000151991844, 0.2240000106394291, 1.0240000486373901, 0.0, 0.0, 0.0, 0.0, 0.0, 1.7632277710756686E9, 0.0, 2025-11-15 12:29:31.075
55.0, 905.4017300228588, -33.60113115189597, -110.13070394517854, -90.0044323336333, -0.03200000151991844, 0.2240000106394291, 1.0240000486373901, 0.0, 0.0, 0.0, 0.0, 0.0, 1.7632277710892615E9, 0.0, 2025-11-15 12:29:31.089
55.0, 749.4516417705454, -160.52211594814435, -177.08613285189494, -134.5877797054127, -0.03200000151991844, 0.2240000106394291, 1.0240000486373901, 0.0, 0.0, 0.0, 0.0, 0.0, 1.7632277710892615E9, 0.0, 2025-11-15 12:29:31.089
56.0, 667.0130270472728, -239.6097803111188, -261.2638010545634, -206.59581345226616, -0.03200000151991844, 0.2240000106394291, 1.0240000486373901, 0.0, 0.0, 0.0, 0.0, 0.0, 1.7632277711049285E9, 0.0, 2025-11-15 12:29:31.104
56.0, 833.5919109736569, -102.96131573012099, -169.41933794273064, -134.59151960536838, -0.03200000151991844, 0.2240000106394291, 1.0240000486373901, 0.0, 0.0, 0.0, 0.0, 0.0, 1.7632277711049285E9, 0.0, 2025-11-15 12:29:31.104
57.0, 847.2612453117035, -74.27254317002371, -115.75177357858047, -78.85579056572169, -0.03200000151991844, 0.2240000106394291, 1.0240000486373901, 0.0, 0.0, 0.0, 0.0, 0.0, 1.7632277711056411E9, 0.0, 2025-11-15 12:29:31.105
57.0, 671.4036695952527, -239.13855291670188, -254.24400883773342, -202.68013819865882, -0.03200000151991844, 0.2240000106394291, 1.0240000486373901, 0.0, 0.0, 0.0, 0.0, 0.0, 1.7632277711056411E9, 0.0, 2025-11-15 12:29:31.105
58.0, 748.213734885212, -177.30304704932496, -215.21441290015355, -171.863362563774, -0.03200000151991844, 0.2240000106394291, 1.0240000486373901, 0.0, 0.0, 0.0, 0.0, 0.0, 1.763227771119295E9, 0.0, 2025-11-15 12:29:31.119
58.0, 930.956466420088, -1.9653174267150462, -63.621308096218854, -40.2413235232234, -0.03200000151991844, 0.2240000106394291, 1.0240000486373901, 0.0, 0.0, 0.0, 0.0, 0.0, 1.763227771119295E9, 0.0, 2025-11-15 12:29:31.119
59.0, 1167.0843998724595, -218.5279642608948, -227.67575955251232, -168.377775805071, -0.03200000151991844, 0.2240000106394291, 1.0240000486373901, 0.0, 0.0, 0.0, 0.0, 0.0, 1.763227771135053E9, 0.0, 2025-11-15 12:29:31.135
59.0, 1192.8897095667198, -210.64799505425617, -241.5807075877674, -192.65720631740987, -0.03200000151991844, 0.2240000106394291, 1.0240000486373901, 0.0, 0.0, 0.0, 0.0, 0.0, 1.763227771135053E9, 0.0, 2025-11-15 12:29:31.135
60.0, 1398.4196515316144, -30.971981483045965, -104.55451311124489, -87.03495176881552, -0.03200000151991844, 0.2240000106394291, 1.0240000486373901, 0.0, 0.0, 0.0, 0.0, 0.0, 1.7632277711356568E9, 0.0, 2025-11-15 12:29:31.135
60.0, 1264.007647124119, -138.1986531126313, -159.68063845811412, -116.04535572510213, -0.03200000151991844, 0.2240000106394291, 1.0240000486373901, 0.0, 0.0, 0.0, 0.0, 0.0, 1.7632277711356568E9, 0.0, 2025-11-15 12:29:31.135
61.0, 1178.5920720361173, -207.6373755899258, -231.15760641125962, -182.22288544103503, -0.03200000151991844, 0.2240000106394291, 1.0240000486373901, 0.0, 0.0, 0.0, 0.0, 0.0, 1.7632277711492589E9, 0.0, 2025-11-15 12:29:31.149
61.0, 1333.3304327027872, -84.11221995344386, -142.0507500669919, -108.71141191199422, -0.03200000151991844, 0.2240000106394291, 1.0240000486373901, 0.0, 0.0, 0.0, 0.0, 0.0, 1.7632277711492589E9, 0.0, 2025-11-15 12:29:31.149
62.0, 1358.8477701004595, -52.10241623269394, -84.60588674759492, -52.77372827474028, -0.03200000151991844, 0.2240000106394291, 1.0240000486373901, 0.0, 0.0, 0.0, 0.0, 0.0, 1.7632277711649244E9, 0.0, 2025-11-15 12:29:31.164
62.0, 1155.053141715005, -240.74296999769285, -250.51532858191058, -203.96292388346046, -0.03200000151991844, 0.2240000106394291, 1.0240000486373901, 0.0, 0.0, 0.0, 0.0, 0.0, 1.7632277711649244E9, 0.0, 2025-11-15 12:29:31.164
63.0, 1258.0649460945278, -149.4557519792579, -187.64761032676324, -147.49791435245425, -0.03200000151991844, 0.2240000106394291, 1.0240000486373901, 0.0, 0.0, 0.0, 0.0, 0.0, 1.7632277711656458E9, 0.0, 2025-11-15 12:29:31.165
63.0, 1428.7165810726583, 4.601946895476431, -45.67726810881868, -26.736544783227146, -0.03200000151991844, 0.2240000106394291, 1.0240000486373901, 0.0, 0.0, 0.0, 0.0, 0.0, 1.7632277711656458E9, 0.0, 2025-11-15 12:29:31.165
