%OpenBCI Raw EXG Data
%Number of channels = 4
%Sample Rate = 200 Hz
%Board = OpenBCI_GUI$BoardGanglionBLE
Sample Index, EXG Channel 0, EXG Channel 1, EXG Channel 2, EXG Channel 3, Accel Channel 0, Accel Channel 1, Accel Channel 2, Other, Other, Other, Other, Other, Timestamp, Marker Channel, Timestamp (Formatted)
0.0, -209.14455527206883, -123.49149653688073, -150.5945515157655, -128.06726413266733, 0.0, 0.0, 0.0, 0.0, 0.0, 0.0, 0.0, 0.0, 1.7632262431190257E9, 0.0, 2025-11-15 12:04:03.119
1.0, -450.5794067615643, 103.48677167389542, 42.23095029965043, 41.069711363408715, 0.0, 0.17600000835955143, 0.0, 0.0, 0.0, 0.0, 0.0, 0.0, 1.763226243132458E9, 0.0, 2025-11-15 12:04:03.132
1.0, -636.8301644548774, -51.285248092375696, -56.43883023131639, -39.37927658343688, 0.0, 0.17600000835955143, 0.0, 0.0, 0.0, 0.0, 0.0, 0.0, 1.763226243132458E9, 0.0, 2025-11-15 12:04:03.132
2.0, -748.6456933300942, -164.4882798511535, -176.40734100993723, -147.44742570305243, -0.03200000151991844, 0.17600000835955143, 0.0, 0.0, 0.0, 0.0, 0.0, 0.0, 1.7632262431492069E9, 0.0, 2025-11-15 12:04:03.149
2.0, -549.5296797892079, 4.03535205218941, -53.342193068005145, -38.16006919788197, -0.03200000151991844, 0.17600000835955143, 0.0, 0.0, 0.0, 0.0, 0.0, 0.0, 1.7632262431492069E9, 0.0, 2025-11-15 12:04:03.149
3.0, -526.9182446571067, 37.51867635548115, 9.996752581559122, 18.67519042873755, -0.03200000151991844, 0.17600000835955143, 0.0, 0.0, 0.0, 0.0, 0.0, 0.0, 1.7632262431499472E9, 0.0, 2025-11-15 12:04:03.149
3.0, -740.51889072638, -152.8833702886477, -163.4523275634274, -134.24557885946706, -0.03200000151991844, 0.17600000835955143, 0.0, 0.0, 0.0, 0.0, 0.0, 0.0, 1.7632262431499472E9, 0.0, 2025-11-15 12:04:03.149
4.0, -642.406355288811, -79.15872246213257, -126.07950730621815, -108.63100406294689, -0.03200000151991844, 0.17600000835955143, 0.0, 0.0, 0.0, 0.0, 0.0, 0.0, 1.7632262431622984E9, 0.0, 2025-11-15 12:04:03.162
4.0, -452.61017243750393, 94.8962214756757, 37.29054245818406, 37.65892260381952, -0.03200000151991844, 0.17600000835955143, 0.0, 0.0, 0.0, 0.0, 0.0, 0.0, 1.7632262431622984E9, 0.0, 2025-11-15 12:04:03.162
5.0, -222.58575571281835, -128.41320487856865, -139.90965734235942, -116.963501164224, -0.03200000151991844, 0.17600000835955143, 0.0, 0.0, 0.0, 0.0, 0.0, 0.0, 1.763226243178026E9, 0.0, 2025-11-15 12:04:03.178
5.0, -227.0923351594247, -146.1403306685388, -177.6003690958023, -150.2037319703959, -0.03200000151991844, 0.17600000835955143, 0.0, 0.0, 0.0, 0.0, 0.0, 0.0, 1.763226243178026E9, 0.0, 2025-11-15 12:04:03.178
6.0, -451.0394144561142, 96.59413605555892, 29.84814154636115, 35.059692134615034, -0.03200000151991844, 0.17600000835955143, 0.0, 0.0, 0.0, 0.0, 0.0, 0.0, 1.7632262431787372E9, 0.0, 2025-11-15 12:04:03.178
6.0, -649.6655011028051, -58.922123801894486, -74.03879942279309, -50.44190065236762, -0.03200000151991844, 0.17600000835955143, 0.0, 0.0, 0.0, 0.0, 0.0, 0.0, 1.7632262431787372E9, 0.0, 2025-11-15 12:04:03.178
7.0, -742.171926506795, -159.34217751212418, -180.16968036536127, -150.62260076543316, -0.03200000151991844, 0.17600000835955143, 0.0, 0.0, 0.0, 0.0, 0.0, 0.0, 1.7632262431923575E9, 0.0, 2025-11-15 12:04:03.192
7.0, -543.3214458627626, 10.995305869728327, -50.41759130265564, -37.9618545002304, -0.03200000151991844, 0.17600000835955143, 0.0, 0.0, 0.0, 0.0, 0.0, 0.0, 1.7632262431923575E9, 0.0, 2025-11-15 12:04:03.192
8.0, -528.5376213379204, 31.519876826554537, -0.044878799468278885, 12.463216602336615, -0.03200000151991844, 0.17600000835955143, 0.0, 0.0, 0.0, 0.0, 0.0, 0.0, 1.7632262432080655E9, 0.0, 2025-11-15 12:04:03.208
8.0, -753.4514647731557, -166.9678335217759, -186.1273409947753, -165.30170809151605, -0.03200000151991844, 0.17600000835955143, 0.0, 0.0, 0.0, 0.0, 0.0, 0.0, 1.7632262432080655E9, 0.0, 2025-11-15 12:04:03.208
9.0, -646.471626540646, -78.91188906505704, -130.08120025880635, -106.8470717840828, -0.03200000151991844, 0.17600000835955143, 0.0, 0.0, 0.0, 0.0, 0.0, 0.0, 1.7632262432087405E9, 0.0, 2025-11-15 12:04:03.208
9.0, -457.8385525755584, 95.2290725717321, 39.90099262725562, 41.7802923549898, -0.03200000151991844, 0.17600000835955143, 0.0, 0.0, 0.0, 0.0, 0.0, 0.0, 1.7632262432087405E9, 0.0, 2025-11-15 12:04:03.208
10.0, -226.39297386771068, -124.94257771968842, -132.38123873155564, -108.47392826480791, -0.03200000151991844, 0.17600000835955143, 1.0240000486373901, 0.0, 0.0, 0.0, 0.0, 0.0, 1.7632262432223587E9, 0.0, 2025-11-15 12:04:03.222
10.0, -226.7931431629695, -144.64437068626285, -168.77046530041844, -141.22423217678443, -0.03200000151991844, 0.17600000835955143, 1.0240000486373901, 0.0, 0.0, 0.0, 0.0, 0.0, 1.7632262432223587E9, 0.0, 2025-11-15 12:04:03.222
11.0, -459.0241008615121, 79.05400526337326, 12.46508655231446, 20.036514012608677, -0.03200000151991844, 0.09600000455975533, 1.0240000486373901, 0.0, 0.0, 0.0, 0.0, 0.0, 1.763226243238103E9, 0.0, 2025-11-15 12:04:03.238
11.0, -640.8580367071554, -63.08463245257735, -73.87424382474273, -57.914220763836056, -0.03200000151991844, 0.09600000455975533, 1.0240000486373901, 0.0, 0.0, 0.0, 0.0, 0.0, 1.763226243238103E9, 0.0, 2025-11-15 12:04:03.238
12.0, -741.6633001128212, -156.01366655156016, -178.2698111878708, -151.80814905138686, -0.03200000151991844, 0.09600000455975533, 1.0240000486373901, 0.0, 0.0, 0.0, 0.0, 0.0, 1.7632262432387512E9, 0.0, 2025-11-15 12:04:03.238
12.0, -555.1021307231858, -2.4421546710655093, -61.19972287490964, -54.26033850712702, -0.03200000151991844, 0.09600000455975533, 1.0240000486373901, 0.0, 0.0, 0.0, 0.0, 0.0, 1.7632262432387512E9, 0.0, 2025-11-15 12:04:03.238
13.0, -543.2877867631614, 30.64100033696741, 0.9536744887009263, 12.956883396487683, -0.03200000151991844, 0.09600000455975533, 1.0240000486373901, 0.0, 0.0, 0.0, 0.0, 0.0, 1.7632262432523305E9, 0.0, 2025-11-15 12:04:03.252
13.0, -752.3556740861386, -164.2601459538564, -179.05519017856568, -148.7152517880313, -0.03200000151991844, 0.09600000455975533, 1.0240000486373901, 0.0, 0.0, 0.0, 0.0, 0.0, 1.7632262432523305E9, 0.0, 2025-11-15 12:04:03.252
14.0, -652.7583983661607, -94.24921878334135, -136.09121948760003, -116.0734049747698, -0.03200000151991844, 0.09600000455975533, 1.0240000486373901, 0.0, 0.0, 0.0, 0.0, 0.0, 1.763226243268104E9, 0.0, 2025-11-15 12:04:03.268
14.0, -454.9139508102089, 95.94339346326888, 40.36100032180548, 47.56217768648639, -0.03200000151991844, 0.09600000455975533, 1.0240000486373901, 0.0, 0.0, 0.0, 0.0, 0.0, 1.763226243268104E9, 0.0, 2025-11-15 12:04:03.268
15.0, -232.1262404997833, -133.04320102371275, -142.33311251364648, -112.10537112178281, -0.03200000151991844, 0.09600000455975533, 1.0240000486373901, 0.0, 0.0, 0.0, 0.0, 0.0, 1.7632262432687454E9, 0.0, 2025-11-15 12:04:03.268
15.0, -217.33493617502972, -138.24166196212173, -168.1533818077296, -141.52342417323962, -0.03200000151991844, 0.09600000455975533, 1.0240000486373901, 0.0, 0.0, 0.0, 0.0, 0.0, 1.7632262432687454E9, 0.0, 2025-11-15 12:04:03.268
16.0, 9.003809143323451, 75.58711800444871, 7.109549815766513, 11.617999212350696, -0.03200000151991844, 0.09600000455975533, 1.0240000486373901, 0.0, 0.0, 0.0, 0.0, 0.0, 1.7632262432823358E9, 0.0, 2025-11-15 12:04:03.282
16.0, -155.84724100353196, -64.68904953356832, -73.15244313329458, -58.778137653600425, -0.03200000151991844, 0.09600000455975533, 1.0240000486373901, 0.0, 0.0, 0.0, 0.0, 0.0, 1.7632262432823358E9, 0.0, 2025-11-15 12:04:03.282
17.0, -258.93010348221287, -166.84815672319382, -184.84455530997366, -160.62683314690366, -0.03200000151991844, 0.09600000455975533, 1.0240000486373901, 0.0, 0.0, 0.0, 0.0, 0.0, 1.7632262432980204E9, 0.0, 2025-11-15 12:04:03.298
17.0, -68.20642544189468, -10.823270471766591, -69.22928807977587, -57.65242776693776, -0.03200000151991844, 0.09600000455975533, 1.0240000486373901, 0.0, 0.0, 0.0, 0.0, 0.0, 1.7632262432980204E9, 0.0, 2025-11-15 12:04:03.298
18.0, -34.91009613638744, 33.02705650869757, 1.1518891863524914, 10.754082322586328, -0.03200000151991844, 0.09600000455975533, 1.0240000486373901, 0.0, 0.0, 0.0, 0.0, 0.0, 1.763226243298728E9, 0.0, 2025-11-15 12:04:03.298
18.0, -264.12108462071046, -167.31564421765506, -180.11358186602592, -146.1235011187382, -0.03200000151991844, 0.09600000455975533, 1.0240000486373901, 0.0, 0.0, 0.0, 0.0, 0.0, 1.763226243298728E9, 0.0, 2025-11-15 12:04:03.298
19.0, -167.66158496355638, -89.8959752349183, -134.59151960536838, -114.83175818948075, -0.03200000151991844, 0.09600000455975533, 1.0240000486373901, 0.0, 0.0, 0.0, 0.0, 0.0, 1.763226243312412E9, 0.0, 2025-11-15 12:04:03.312
19.0, 35.433682130184025, 96.28372435923666, 47.99413613136858, 51.82566363597289, -0.03200000151991844, 0.09600000455975533, 1.0240000486373901, 0.0, 0.0, 0.0, 0.0, 0.0, 1.763226243312412E9, 0.0, 2025-11-15 12:04:03.312
20.0, 261.6022620005533, -129.9839628599584, -131.98106943629682, -113.1114042098634, -0.03200000151991844, 0.09600000455975533, 0.576000027358532, 0.0, 0.0, 0.0, 0.0, 0.0, 1.763226243328023E9, 0.0, 2025-11-15 12:04:03.328
20.0, 254.80312388110906, -143.19702940341085, -163.2952517652884, -137.0093649267219, -0.03200000151991844, 0.09600000455975533, 0.576000027358532, 0.0, 0.0, 0.0, 0.0, 0.0, 1.763226243328023E9, 0.0, 2025-11-15 12:04:03.328
21.0, 24.75252785673365, 78.13772977422923, 19.72049246635288, 18.581692929845303, -0.03200000151991844, 0.12800000607967377, 0.576000027358532, 0.0, 0.0, 0.0, 0.0, 0.0, 1.7632262433287342E9, 0.0, 2025-11-15 12:04:03.328
21.0, -151.939045549836, -60.4367832839489, -64.44221613649279, -44.76099261967465, -0.03200000151991844, 0.12800000607967377, 0.576000027358532, 0.0, 0.0, 0.0, 0.0, 0.0, 1.7632262433287342E9, 0.0, 2025-11-15 12:04:03.328
22.0, -255.85216581868008, -169.53714479133487, -184.98293160833418, -163.42053841380402, -0.03200000151991844, 0.12800000607967377, 0.576000027358532, 0.0, 0.0, 0.0, 0.0, 0.0, 1.7632262433586829E9, 0.0, 2025-11-15 12:04:03.358
22.0, -65.32670247601345, -8.190380902960896, -71.7387609500438, -63.03040390321985, -0.03200000151991844, 0.12800000607967377, 0.576000027358532, 0.0, 0.0, 0.0, 0.0, 0.0, 1.7632262433586829E9, 0.0, 2025-11-15 12:04:03.358
23.0, -44.04293182818219, 30.99629083275795, 1.365063483826816, 5.230250088032335, -0.03200000151991844, 0.12800000607967377, 0.576000027358532, 0.0, 0.0, 0.0, 0.0, 0.0, 1.7632262433594043E9, 0.0, 2025-11-15 12:04:03.359
23.0, -255.38467832421884, -166.01041913311929, -178.61014208383858, -155.36105400929227, -0.03200000151991844, 0.12800000607967377, 0.576000027358532, 0.0, 0.0, 0.0, 0.0, 0.0, 1.7632262433594043E9, 0.0, 2025-11-15 12:04:03.359
24.0, -144.92299323296174, -87.19576746691018, -129.11630607023835, -116.81764506595209, -0.03200000151991844, 0.12800000607967377, 0.576000027358532, 0.0, 0.0, 0.0, 0.0, 0.0, 1.7632262433601356E9, 0.0, 2025-11-15 12:04:03.360
24.0, 22.964855677913874, 87.79415145982057, 33.07941510807723, 37.08671791059896, -0.03200000151991844, 0.12800000607967377, 0.576000027358532, 0.0, 0.0, 0.0, 0.0, 0.0, 1.7632262433601356E9, 0.0, 2025-11-15 12:04:03.360
25.0, 248.44529395643622, -145.1380374804139, -154.13997667375952, -125.38575586443767, -0.03200000151991844, 0.12800000607967377, 0.576000027358532, 0.0, 0.0, 0.0, 0.0, 0.0, 1.7632262433723547E9, 0.0, 2025-11-15 12:04:03.372
25.0, 255.92509386781603, -155.47512095794082, -179.81064996961504, -153.76411672821268, -0.03200000151991844, 0.12800000607967377, 0.576000027358532, 0.0, 0.0, 0.0, 0.0, 0.0, 1.7632262433723547E9, 0.0, 2025-11-15 12:04:03.372
26.0, 20.859292002860457, 70.86362436041236, 14.189180431887507, 17.46346284309402, -0.03200000151991844, 0.12800000607967377, 0.576000027358532, 0.0, 0.0, 0.0, 0.0, 0.0, 1.763226243388003E9, 0.0, 2025-11-15 12:04:03.388
26.0, -156.1314734001644, -66.5515197115019, -71.97811454720795, -61.76257781824097, -0.03200000151991844, 0.12800000607967377, 0.576000027358532, 0.0, 0.0, 0.0, 0.0, 0.0, 1.763226243388003E9, 0.0, 2025-11-15 12:04:03.388
27.0, -255.59411272173747, -166.50408592727035, -182.84744873363525, -151.7183914524503, -0.03200000151991844, 0.12800000607967377, 0.576000027358532, 0.0, 0.0, 0.0, 0.0, 0.0, 1.7632262433887126E9, 0.0, 2025-11-15 12:04:03.388
27.0, -53.75171211315319, 2.8872027657926083, -59.88701799046248, -51.72094643721357, -0.03200000151991844, 0.12800000607967377, 0.576000027358532, 0.0, 0.0, 0.0, 0.0, 0.0, 1.7632262433887126E9, 0.0, 2025-11-15 12:04:03.388
28.0, -45.38181601231918, 31.41515962779522, 2.8834628658369184, 18.443316631484777, -0.03200000151991844, 0.12800000607967377, 0.576000027358532, 0.0, 0.0, 0.0, 0.0, 0.0, 1.7632262434023423E9, 0.0, 2025-11-15 12:04:03.402
28.0, -255.42581722373143, -161.04757189191878, -174.10730253718793, -153.06849533645436, -0.03200000151991844, 0.12800000607967377, 0.576000027358532, 0.0, 0.0, 0.0, 0.0, 0.0, 1.7632262434023423E9, 0.0, 2025-11-15 12:04:03.402
29.0, -167.29133486794308, -91.47047311626375, -141.52155422326177, -123.078237591777, -0.03200000151991844, 0.12800000607967377, 0.576000027358532, 0.0, 0.0, 0.0, 0.0, 0.0, 1.7632262434180477E9, 0.0, 2025-11-15 12:04:03.418
29.0, 29.9210695954971, 82.15438232664019, 30.741977635771036, 34.244393944274634, -0.03200000151991844, 0.12800000607967377, 0.576000027358532, 0.0, 0.0, 0.0, 0.0, 0.0, 1.7632262434180477E9, 0.0, 2025-11-15 12:04:03.418
30.0, 253.6437548948452, -146.12537106871605, -150.90870311204344, -132.4541667806916, -0.03200000151991844, 0.12800000607967377, 0.800000037997961, 0.0, 0.0, 0.0, 0.0, 0.0, 1.7632262434187212E9, 0.0, 2025-11-15 12:04:03.418
30.0, 261.18339320551604, -153.75476697832346, -177.28247759956867, -149.69884547637776, -0.03200000151991844, 0.12800000607967377, 0.800000037997961, 0.0, 0.0, 0.0, 0.0, 0.0, 1.7632262434187212E9, 0.0, 2025-11-15 12:04:03.418
31.0, 21.685809893067926, 67.92406299524009, 7.027272016741335, 12.736229299101979, -0.03200000151991844, 0.1600000075995922, 0.800000037997961, 0.0, 0.0, 0.0, 0.0, 0.0, 1.763226243432348E9, 0.0, 2025-11-15 12:04:03.432
31.0, -148.7937896871008, -61.756967968307436, -70.38117726612836, -45.090103815775365, -0.03200000151991844, 0.1600000075995922, 0.800000037997961, 0.0, 0.0, 0.0, 0.0, 0.0, 1.763226243432348E9, 0.0, 2025-11-15 12:04:03.432
32.0, -241.5433085882105, -165.90570193435997, -181.27669075224549, -152.18587894691154, -0.03200000151991844, 0.1600000075995922, 0.800000037997961, 0.0, 0.0, 0.0, 0.0, 0.0, 1.763226243448007E9, 0.0, 2025-11-15 12:04:03.448
32.0, -64.48896488593891, -6.967433617450297, -65.3622315255925, -50.95426694629714, -0.03200000151991844, 0.1600000075995922, 0.800000037997961, 0.0, 0.0, 0.0, 0.0, 0.0, 1.763226243448007E9, 0.0, 2025-11-15 12:04:03.448
33.0, -42.06078485166654, 35.52530967909843, 3.7324201557785273, 21.839145791251212, -0.03200000151991844, 0.1600000075995922, 0.800000037997961, 0.0, 0.0, 0.0, 0.0, 0.0, 1.7632262434487188E9, 0.0, 2025-11-15 12:04:03.448
33.0, -267.05690608592704, -164.5593379503116, -178.55778348445892, -149.9456788734533, -0.03200000151991844, 0.1600000075995922, 0.800000037997961, 0.0, 0.0, 0.0, 0.0, 0.0, 1.7632262434487188E9, 0.0, 2025-11-15 12:04:03.448
34.0, -162.2798689273186, -90.79729112423956, -135.9565830891952, -115.23192748473957, -0.03200000151991844, 0.1600000075995922, 0.800000037997961, 0.0, 0.0, 0.0, 0.0, 0.0, 1.7632262434623437E9, 0.0, 2025-11-15 12:04:03.462
34.0, 44.97790681710467, 100.43127341009676, 42.26834929920733, 46.53744509862736, -0.03200000151991844, 0.1600000075995922, 0.800000037997961, 0.0, 0.0, 0.0, 0.0, 0.0, 1.7632262434623437E9, 0.0, 2025-11-15 12:04:03.462
35.0, 275.73908383306116, -121.57292785961181, -131.1769909458235, -108.82173896068707, -0.03200000151991844, 0.1600000075995922, 0.800000037997961, 0.0, 0.0, 0.0, 0.0, 0.0, 1.7632262434780788E9, 0.0, 2025-11-15 12:04:03.478
35.0, 270.84355479106307, -144.90242378320545, -168.02622520923615, -143.44199285050854, -0.03200000151991844, 0.1600000075995922, 0.800000037997961, 0.0, 0.0, 0.0, 0.0, 0.0, 1.7632262434780788E9, 0.0, 2025-11-15 12:04:03.478
36.0, 26.01661404175684, 75.95736810006201, 9.989272781647742, 11.288888016249985, -0.03200000151991844, 0.1600000075995922, 0.800000037997961, 0.0, 0.0, 0.0, 0.0, 0.0, 1.7632262434787335E9, 0.0, 2025-11-15 12:04:03.478
36.0, -148.7152517880313, -59.88327809050679, -70.45971516519785, -58.06755666201934, -0.03200000151991844, 0.1600000075995922, 0.800000037997961, 0.0, 0.0, 0.0, 0.0, 0.0, 1.7632262434787335E9, 0.0, 2025-11-15 12:04:03.478
37.0, -246.5435548289679, -151.6604230031371, -167.2258866187185, -144.69859923562035, -0.03200000151991844, 0.1600000075995922, 0.800000037997961, 0.0, 0.0, 0.0, 0.0, 0.0, 1.7632262434923923E9, 0.0, 2025-11-15 12:04:03.492
37.0, -68.8646478340961, -1.0247325878590345, -59.741161892190576, -50.8944285470061, -0.03200000151991844, 0.1600000075995922, 0.800000037997961, 0.0, 0.0, 0.0, 0.0, 0.0, 1.7632262434923923E9, 0.0, 2025-11-15 12:04:03.492
38.0, -38.52657939353958, 35.90303957462311, 9.173974591307342, 22.972335477825254, -0.03200000151991844, 0.1600000075995922, 0.800000037997961, 0.0, 0.0, 0.0, 0.0, 0.0, 1.7632262435079987E9, 0.0, 2025-11-15 12:04:03.507
38.0, -262.74854133697227, -163.7814387595281, -172.6749208541587, -141.07837607851252, -0.03200000151991844, 0.1600000075995922, 0.800000037997961, 0.0, 0.0, 0.0, 0.0, 0.0, 1.7632262435079987E9, 0.0, 2025-11-15 12:04:03.507
39.0, -166.26660228008404, -98.57254313211888, -136.02016138844192, -113.5901114041917, -0.03200000151991844, 0.1600000075995922, 0.800000037997961, 0.0, 0.0, 0.0, 0.0, 0.0, 1.7632262435087216E9, 0.0, 2025-11-15 12:04:03.508
39.0, 36.230280820745975, 89.7463792366907, 41.02670251391828, 48.257799078244716, -0.03200000151991844, 0.1600000075995922, 0.800000037997961, 0.0, 0.0, 0.0, 0.0, 0.0, 1.7632262435087216E9, 0.0, 2025-11-15 12:04:03.508
40.0, 280.2868021791801, -113.80141575168818, -123.86548653244972, -104.03840691735968, -0.03200000151991844, 0.1600000075995922, 0.9280000440776348, 0.0, 0.0, 0.0, 0.0, 0.0, 1.763226243522365E9, 0.0, 2025-11-15 12:04:03.522
40.0, 272.73968406859785, -137.44880317151546, -162.3415772765875, -139.21590590057895, -0.03200000151991844, 0.1600000075995922, 0.9280000440776348, 0.0, 0.0, 0.0, 0.0, 0.0, 1.763226243522365E9, 0.0, 2025-11-15 12:04:03.522
41.0, 506.9135197941214, 77.48698718193918, 15.513105016201735, 12.713789899367839, -0.03200000151991844, 0.1600000075995922, 0.9280000440776348, 0.0, 0.0, 0.0, 0.0, 0.0, 1.7632262435380216E9, 0.0, 2025-11-15 12:04:03.538
41.0, 339.2351052807644, -57.54210071824491, -67.70714879781008, -55.31873019458726, -0.03200000151991844, 0.1600000075995922, 0.9280000440776348, 0.0, 0.0, 0.0, 0.0, 0.0, 1.7632262435380216E9, 0.0, 2025-11-15 12:04:03.538
42.0, 239.9295417573303, -154.53266616910696, -176.60929560754448, -152.44019214389846, -0.03200000151991844, 0.1600000075995922, 0.9280000440776348, 0.0, 0.0, 0.0, 0.0, 0.0, 1.7632262435387228E9, 0.0, 2025-11-15 12:04:03.538
42.0, 421.7260786034167, 2.939561365172267, -60.49288178328425, -58.65472095506266, -0.03200000151991844, 0.1600000075995922, 0.9280000440776348, 0.0, 0.0, 0.0, 0.0, 0.0, 1.7632262435387228E9, 0.0, 2025-11-15 12:04:03.538
43.0, 462.5844856193289, 43.296821787022054, 14.836183124221861, 17.56444014189765, -0.03200000151991844, 0.1600000075995922, 0.9280000440776348, 0.0, 0.0, 0.0, 0.0, 0.0, 1.76322624355236E9, 0.0, 2025-11-15 12:04:03.552
43.0, 219.0272409049794, -158.777452618815, -167.10994972009212, -141.28781047603115, -0.03200000151991844, 0.1600000075995922, 0.9280000440776348, 0.0, 0.0, 0.0, 0.0, 0.0, 1.76322624355236E9, 0.0, 2025-11-15 12:04:03.552
44.0, 325.44235424418, -86.23835307825357, -126.42357810214162, -108.0700190695934, -0.03200000151991844, 0.1600000075995922, 0.9280000440776348, 0.0, 0.0, 0.0, 0.0, 0.0, 1.763226243568041E9, 0.0, 2025-11-15 12:04:03.568
44.0, 532.98062248528, 102.51065778546035, 47.45559053774923, 45.924101505894214, -0.03200000151991844, 0.1600000075995922, 0.9280000440776348, 0.0, 0.0, 0.0, 0.0, 0.0, 1.763226243568041E9, 0.0, 2025-11-15 12:04:03.568
45.0, 751.2393139493652, -126.45349730178714, -135.81072699092329, -114.28199289599434, -0.03200000151991844, 0.1600000075995922, 0.9280000440776348, 0.0, 0.0, 0.0, 0.0, 0.0, 1.7632262435687165E9, 0.0, 2025-11-15 12:04:03.568
45.0, 756.572411286179, -140.04803364071995, -171.6053094668314, -147.76905709924176, -0.03200000151991844, 0.1600000075995922, 0.9280000440776348, 0.0, 0.0, 0.0, 0.0, 0.0, 1.7632262435687165E9, 0.0, 2025-11-15 12:04:03.568
46.0, 520.7773289298639, 80.20963434968144, 12.139715256169438, 13.846979585941881, -0.03200000151991844, 0.1600000075995922, 0.9280000440776348, 0.0, 0.0, 0.0, 0.0, 0.0, 1.7632262435987384E9, 0.0, 2025-11-15 12:04:03.598
46.0, 344.7888567149639, -53.338453168049455, -67.77820689696819, -49.42464786441997, -0.03200000151991844, 0.1600000075995922, 0.9280000440776348, 0.0, 0.0, 0.0, 0.0, 0.0, 1.7632262435987384E9, 0.0, 2025-11-15 12:04:03.598
47.0, 232.61803734395653, -164.8884491464123, -184.65756031218916, -160.3949593496509, -0.03200000151991844, 0.1600000075995922, 0.9280000440776348, 0.0, 0.0, 0.0, 0.0, 0.0, 1.7632262435994556E9, 0.0, 2025-11-15 12:04:03.599
47.0, 431.7265710849315, -0.09723739884793758, -60.41060398425907, -43.010719440411776, -0.03200000151991844, 0.1600000075995922, 0.9280000440776348, 0.0, 0.0, 0.0, 0.0, 0.0, 1.7632262435994556E9, 0.0, 2025-11-15 12:04:03.599
48.0, 454.49134211521596, 40.005709826014936, 6.615883021615446, 15.391558267641813, -0.03200000151991844, 0.1600000075995922, 0.9280000440776348, 0.0, 0.0, 0.0, 0.0, 0.0, 1.763226243600172E9, 0.0, 2025-11-15 12:04:03.600
48.0, 232.5207999451086, -159.61893010884523, -174.27933793514967, -151.4640782554634, -0.03200000151991844, 0.1600000075995922, 0.9280000440776348, 0.0, 0.0, 0.0, 0.0, 0.0, 1.763226243600172E9, 0.0, 2025-11-15 12:04:03.600
49.0, 320.6029237015173, -86.06257778033614, -133.72012291569263, -118.57539804512635, -0.03200000151991844, 0.1600000075995922, 0.9280000440776348, 0.0, 0.0, 0.0, 0.0, 0.0, 1.7632262436287377E9, 0.0, 2025-11-15 12:04:03.628
49.0, 536.3951511448249, 106.7554442351684, 48.0240553310141, 47.20314729074016, -0.03200000151991844, 0.1600000075995922, 0.9280000440776348, 0.0, 0.0, 0.0, 0.0, 0.0, 1.7632262436287377E9, 0.0, 2025-11-15 12:04:03.628
50.0, 757.2493331781588, -124.32923412695527, -135.30210059694946, -108.6983222621493, -0.03200000151991844, 0.1600000075995922, 0.9760000463575125, 0.0, 0.0, 0.0, 0.0, 0.0, 1.763226243629414E9, 0.0, 2025-11-15 12:04:03.629
50.0, 756.4976132870652, -138.15938416309655, -176.54197740834206, -150.5328431664966, -0.03200000151991844, 0.1600000075995922, 0.9760000463575125, 0.0, 0.0, 0.0, 0.0, 0.0, 1.763226243629414E9, 0.0, 2025-11-15 12:04:03.629
51.0, 517.1832850724459, 77.70016147941351, 3.373389760032296, 8.62981914775446, -0.03200000151991844, 0.1600000075995922, 0.9760000463575125, 0.0, 0.0, 0.0, 0.0, 0.0, 1.7632262436301525E9, 0.0, 2025-11-15 12:04:03.630
51.0, 353.1288336161524, -48.01283563114703, -69.4424623772502, -46.96005379362032, -0.03200000151991844, 0.1600000075995922, 0.9760000463575125, 0.0, 0.0, 0.0, 0.0, 0.0, 1.7632262436301525E9, 0.0, 2025-11-15 12:04:03.630
52.0, 240.86451674625278, -160.63992279674858, -183.11298163048923, -151.4977373550646, -0.03200000151991844, 0.1600000075995922, 0.9760000463575125, 0.0, 0.0, 0.0, 0.0, 0.0, 1.763226243642364E9, 0.0, 2025-11-15 12:04:03.642
52.0, 425.7913498552516, 0.4263485949486494, -66.51786061190069, -51.26841854257509, -0.03200000151991844, 0.1600000075995922, 0.9760000463575125, 0.0, 0.0, 0.0, 0.0, 0.0, 1.763226243642364E9, 0.0, 2025-11-15 12:04:03.642
53.0, 459.01288116164505, 46.490696349181235, 5.015205840580165, 19.651304317172617, -0.03200000151991844, 0.1600000075995922, 0.9760000463575125, 0.0, 0.0, 0.0, 0.0, 0.0, 1.7632262436580725E9, 0.0, 2025-11-15 12:04:03.658
53.0, 231.7354209544137, -163.05963806807995, -174.28307783510536, -142.24148496473208, -0.03200000151991844, 0.1600000075995922, 0.9760000463575125, 0.0, 0.0, 0.0, 0.0, 0.0, 1.7632262436580725E9, 0.0, 2025-11-15 12:04:03.658
54.0, 312.7341741947457, -93.28432459477335, -139.74884164426476, -113.3320583072491, -0.03200000151991844, 0.1600000075995922, 0.9760000463575125, 0.0, 0.0, 0.0, 0.0, 0.0, 1.7632262436587453E9, 0.0, 2025-11-15 12:04:03.658
54.0, 535.3180599575862, 100.42379361018538, 37.638353154063225, 38.08527119876817, -0.03200000151991844, 0.1600000075995922, 0.9760000463575125, 0.0, 0.0, 0.0, 0.0, 0.0, 1.7632262436587453E9, 0.0, 2025-11-15 12:04:03.658
55.0, 753.2401604256593, -122.23489015176892, -128.60767967626452, -110.80388593720272, -0.03200000151991844, 0.1600000075995922, 0.9760000463575125, 0.0, 0.0, 0.0, 0.0, 0.0, 1.76322624367237E9, 0.0, 2025-11-15 12:04:03.672
55.0, 751.9723343406804, -142.11619831621647, -167.8541898112744, -143.25873775267974, -0.03200000151991844, 0.1600000075995922, 0.9760000463575125, 0.0, 0.0, 0.0, 0.0, 0.0, 1.76322624367237E9, 0.0, 2025-11-15 12:04:03.672
56.0, 521.2373366244137, 81.36900333594531, 12.027518257498741, 20.152450911235064, -0.03200000151991844, 0.1600000075995922, 0.9760000463575125, 0.0, 0.0, 0.0, 0.0, 0.0, 1.7632262436880271E9, 0.0, 2025-11-15 12:04:03.688
56.0, 356.0571752814576, -39.08943433687091, -56.85021922644228, -37.468187706079334, -0.03200000151991844, 0.1600000075995922, 0.9760000463575125, 0.0, 0.0, 0.0, 0.0, 0.0, 1.7632262436880271E9, 0.0, 2025-11-15 12:04:03.688
57.0, 235.45288151036948, -156.72050764318556, -179.96024596784264, -151.9801844493486, -0.03200000151991844, 0.1600000075995922, 0.9760000463575125, 0.0, 0.0, 0.0, 0.0, 0.0, 1.7632262436887271E9, 0.0, 2025-11-15 12:04:03.688
57.0, 424.5010843705386, -2.0382454758509994, -70.05206607002765, -53.84894951200113, -0.03200000151991844, 0.1600000075995922, 0.9760000463575125, 0.0, 0.0, 0.0, 0.0, 0.0, 1.7632262436887271E9, 0.0, 2025-11-15 12:04:03.688
58.0, 465.2996529871598, 51.07955359481275, 8.968280093744397, 22.68810308119282, -0.03200000151991844, 0.1600000075995922, 0.9760000463575125, 0.0, 0.0, 0.0, 0.0, 0.0, 1.7632262437023923E9, 0.0, 2025-11-15 12:04:03.702
58.0, 242.62226972542703, -148.0701190456748, -167.25206591840833, -139.77315099397674, -0.03200000151991844, 0.1600000075995922, 0.9760000463575125, 0.0, 0.0, 0.0, 0.0, 0.0, 1.7632262437023923E9, 0.0, 2025-11-15 12:04:03.702
59.0, 332.72767935786396, -82.04218532796949, -133.01328182406723, -112.37838381854817, -0.03200000151991844, 0.1600000075995922, 0.9760000463575125, 0.0, 0.0, 0.0, 0.0, 0.0, 1.7632262437180965E9, 0.0, 2025-11-15 12:04:03.718
59.0, 538.7251088172197, 106.00746424403042, 47.672504735179245, 50.95426694629714, -0.03200000151991844, 0.1600000075995922, 0.9760000463575125, 0.0, 0.0, 0.0, 0.0, 0.0, 1.7632262437180965E9, 0.0, 2025-11-15 12:04:03.718
60.0, 769.067417038139, -112.0885415719822, -126.18422450497746, -103.660677021835, -0.03200000151991844, 0.1600000075995922, 0.9920000471174717, 0.0, 0.0, 0.0, 0.0, 0.0, 1.7632262437187328E9, 0.0, 2025-11-15 12:04:03.718
60.0, 750.3155586603098, -139.14671775139868, -171.21635987143964, -140.82032298156992, -0.03200000151991844, 0.1600000075995922, 0.9920000471174717, 0.0, 0.0, 0.0, 0.0, 0.0, 1.7632262437187328E9, 0.0, 2025-11-15 12:04:03.718
61.0, 520.0293489387259, 89.68280093744397, 17.28207769524306, 25.665063445921987, -0.03200000151991844, 0.17600000835955143, 0.9920000471174717, 0.0, 0.0, 0.0, 0.0, 0.0, 1.7632262437323754E9, 0.0, 2025-11-15 12:04:03.732
61.0, 363.33502059523016, -35.659946077503264, -53.712443163618445, -30.175382792484015, -0.03200000151991844, 0.17600000835955143, 0.9920000471174717, 0.0, 0.0, 0.0, 0.0, 0.0, 1.7632262437323754E9, 0.0, 2025-11-15 12:04:03.732
62.0, 229.50644058082253, -160.80447839479893, -189.00332406070083, -164.0264022066258, -0.03200000151991844, 0.17600000835955143, 0.9920000471174717, 0.0, 0.0, 0.0, 0.0, 0.0, 1.7632262437480552E9, 0.0, 2025-11-15 12:04:03.748
62.0, 422.81064959056675, -6.006279328837991, -76.8512041894719, -62.20762591296807, -0.03200000151991844, 0.17600000835955143, 0.9920000471174717, 0.0, 0.0, 0.0, 0.0, 0.0, 1.7632262437480552E9, 0.0, 2025-11-15 12:04:03.748
63.0, 468.13075725361705, 50.881338897161186, 14.967079622671008, 24.150403963867575, -0.03200000151991844, 0.17600000835955143, 0.9920000471174717, 0.0, 0.0, 0.0, 0.0, 0.0, 1.763226243748739E9, 0.0, 2025-11-15 12:04:03.748
63.0, 240.9280950454995, -148.7769601373002, -163.9684337573126, -138.85313560487702, -0.03200000151991844, 0.17600000835955143, 0.9920000471174717, 0.0, 0.0, 0.0, 0.0, 0.0, 1.763226243748739E9, 0.0, 2025-11-15 12:04:03.748
64.0, 332.5332045601681, -86.05509798042476, -133.00206212420017, -112.80847231345251, -0.03200000151991844, 0.17600000835955143, 0.9920000471174717, 0.0, 0.0, 0.0, 0.0, 0.0, 1.763226243762418E9, 0.0, 2025-11-15 12:04:03.762
64.0, 518.0696413619444, 99.88524801656604, 40.817268116399646, 45.882962606381625, -0.03200000151991844, 0.17600000835955143, 0.9920000471174717, 0.0, 0.0, 0.0, 0.0, 0.0, 1.763226243762418E9, 0.0, 2025-11-15 12:04:03.762
65.0, 274.44881834834814, -116.22861082293093, -124.81916102115065, -103.0286339293234, -0.03200000151991844, 0.17600000835955143, 0.9920000471174717, 0.0, 0.0, 0.0, 0.0, 0.0, 1.763226243778028E9, 0.0, 2025-11-15 12:04:03.778
65.0, 256.62819505948573, -133.1404384225607, -170.03455148544163, -145.92902632104233, -0.03200000151991844, 0.17600000835955143, 0.9920000471174717, 0.0, 0.0, 0.0, 0.0, 0.0, 1.763226243778028E9, 0.0, 2025-11-15 12:04:03.778
66.0, 32.550219264347106, 85.05654469225556, 15.632781814783812, 19.348372420761734, -0.03200000151991844, 0.17600000835955143, 0.9920000471174717, 0.0, 0.0, 0.0, 0.0, 0.0, 1.7632262437787347E9, 0.0, 2025-11-15 12:04:03.778
66.0, -143.8982606451027, -50.38767210301012, -69.72295487392694, -57.36819537030533, -0.03200000151991844, 0.17600000835955143, 0.9920000471174717, 0.0, 0.0, 0.0, 0.0, 0.0, 1.7632262437787347E9, 0.0, 2025-11-15 12:04:03.778
67.0, -256.30843361327425, -161.69083468429744, -181.84515554551035, -157.63865308230743, -0.03200000151991844, 0.17600000835955143, 0.9920000471174717, 0.0, 0.0, 0.0, 0.0, 0.0, 1.7632262437923858E9, 0.0, 2025-11-15 12:04:03.792
67.0, -79.46726420847699, -12.625902250409126, -73.96774132363498, -60.30401683552191, -0.03200000151991844, 0.17600000835955143, 0.9920000471174717, 0.0, 0.0, 0.0, 0.0, 0.0, 1.7632262437923858E9, 0.0, 2025-11-15 12:04:03.792
68.0, -24.831065755803138, 50.04360130708665, 13.605756038799882, 24.098045364487916, -0.03200000151991844, 0.17600000835955143, 0.9920000471174717, 0.0, 0.0, 0.0, 0.0, 0.0, 1.7632262438081467E9, 0.0, 2025-11-15 12:04:03.808
68.0, -255.09670602763072, -158.36606362368912, -173.47525944467634, -146.7218851116486, -0.03200000151991844, 0.17600000835955143, 0.9920000471174717, 0.0, 0.0, 0.0, 0.0, 0.0, 1.7632262438081467E9, 0.0, 2025-11-15 12:04:03.808
69.0, -177.99866844108328, -95.46468626894057, -141.45797592401505, -119.67118873214349, -0.03200000151991844, 0.17600000835955143, 0.9920000471174717, 0.0, 0.0, 0.0, 0.0, 0.0, 1.763226243808736E9, 0.0, 2025-11-15 12:04:03.808
69.0, 37.21761440904811, 103.310996375978, 44.893759068101645, 43.485686734784395, -0.03200000151991844, 0.17600000835955143, 0.9920000471174717, 0.0, 0.0, 0.0, 0.0, 0.0, 1.763226243808736E9, 0.0, 2025-11-15 12:04:03.808
70.0, 258.91701383236796, -126.27024220395833, -130.8403999498114, -110.01102714659646, -0.03200000151991844, 0.17600000835955143, 1.008000047877431, 0.0, 0.0, 0.0, 0.0, 0.0, 1.7632262438223732E9, 0.0, 2025-11-15 12:04:03.822
70.0, 252.12535551283509, -147.7036088500172, -174.24567883554846, -153.60330103011802, -0.03200000151991844, 0.17600000835955143, 1.008000047877431, 0.0, 0.0, 0.0, 0.0, 0.0, 1.7632262438223732E9, 0.0, 2025-11-15 12:04:03.822
71.0, 36.989480511751026, 91.47421301621944, 18.14599458500743, 22.250534786377102, -0.03200000151991844, 0.17600000835955143, 1.008000047877431, 0.0, 0.0, 0.0, 0.0, 0.0, 1.76322624383803E9, 0.0, 2025-11-15 12:04:03.838
71.0, -140.5996688841842, -52.889665173366666, -67.62113109882921, -44.04293182818219, -0.03200000151991844, 0.17600000835955143, 1.008000047877431, 0.0, 0.0, 0.0, 0.0, 0.0, 1.76322624383803E9, 0.0, 2025-11-15 12:04:03.838
72.0, -263.87425122363493, -162.04986508004367, -182.13686774205416, -154.8673872151412, -0.03200000151991844, 0.17600000835955143, 1.008000047877431, 0.0, 0.0, 0.0, 0.0, 0.0, 1.7632262438387575E9, 0.0, 2025-11-15 12:04:03.838
72.0, -85.14817224116996, -12.48378605209291, -72.94674863573164, -55.77499798918143, -0.03200000151991844, 0.17600000835955143, 1.008000047877431, 0.0, 0.0, 0.0, 0.0, 0.0, 1.7632262438387575E9, 0.0, 2025-11-15 12:04:03.838
73.0, -36.48459401773289, 45.271488963626325, 10.393181976862252, 21.416537096258253, -0.03200000151991844, 0.17600000835955143, 1.008000047877431, 0.0, 0.0, 0.0, 0.0, 0.0, 1.763226243852528E9, 0.0, 2025-11-15 12:04:03.852
73.0, -262.5578064392321, -163.22045376617461, -173.25834524724633, -142.9745053560473, -0.03200000151991844, 0.17600000835955143, 1.008000047877431, 0.0, 0.0, 0.0, 0.0, 0.0, 1.763226243852528E9, 0.0, 2025-11-15 12:04:03.852
74.0, -171.48750261822715, -95.27769127115607, -140.08917254023254, -113.62377050379291, -0.03200000151991844, 0.17600000835955143, 1.008000047877431, 0.0, 0.0, 0.0, 0.0, 0.0, 1.7632262438680751E9, 0.0, 2025-11-15 12:04:03.868
74.0, 42.229080349672586, 103.80092327017337, 43.47633698489517, 40.13847627444193, -0.03200000151991844, 0.17600000835955143, 1.008000047877431, 0.0, 0.0, 0.0, 0.0, 0.0, 1.7632262438680751E9, 0.0, 2025-11-15 12:04:03.868
75.0, 265.77973025105894, -124.26565582770854, -126.57317410036922, -109.76419374952093, -0.03200000151991844, 0.17600000835955143, 1.008000047877431, 0.0, 0.0, 0.0, 0.0, 0.0, 1.7632262438687253E9, 0.0, 2025-11-15 12:04:03.868
75.0, 253.1987068001181, -150.73292781412601, -181.54970344901085, -154.6429932177998, -0.03200000151991844, 0.17600000835955143, 1.008000047877431, 0.0, 0.0, 0.0, 0.0, 0.0, 1.7632262438687253E9, 0.0, 2025-11-15 12:04:03.868
76.0, 31.439468977507204, 87.29674476571381, 16.04791070986539, 14.505201978143305, -0.03200000151991844, 0.17600000835955143, 1.008000047877431, 0.0, 0.0, 0.0, 0.0, 0.0, 1.7632262438987317E9, 0.0, 2025-11-15 12:04:03.898
76.0, -143.84964194567874, -47.78844163380563, -59.329772897064686, -43.64276253292337, -0.03200000151991844, 0.17600000835955143, 1.008000047877431, 0.0, 0.0, 0.0, 0.0, 0.0, 1.7632262438987317E9, 0.0, 2025-11-15 12:04:03.898
77.0, -258.46261598775163, -166.69108092505485, -182.1256480421871, -146.76302401116118, -0.03200000151991844, 0.17600000835955143, 1.008000047877431, 0.0, 0.0, 0.0, 0.0, 0.0, 1.7632262438994431E9, 0.0, 2025-11-15 12:04:03.899
77.0, -76.44916494423524, -16.197506708092988, -71.97437464725226, -57.85438236454502, -0.03200000151991844, 0.17600000835955143, 1.008000047877431, 0.0, 0.0, 0.0, 0.0, 0.0, 1.7632262438994431E9, 0.0, 2025-11-15 12:04:03.899
78.0, -33.54129275260493, 37.73559055291116, 8.235259702429175, 25.238714850973338, -0.03200000151991844, 0.17600000835955143, 1.008000047877431, 0.0, 0.0, 0.0, 0.0, 0.0, 1.7632262439001863E9, 0.0, 2025-11-15 12:04:03.900
78.0, -257.6211384977214, -161.2644860893488, -167.16978811938316, -142.27888396428898, -0.03200000151991844, 0.17600000835955143, 1.008000047877431, 0.0, 0.0, 0.0, 0.0, 0.0, 1.7632262439001863E9, 0.0, 2025-11-15 12:04:03.900
79.0, -172.47857610648498, -91.28721801843494, -136.50260848272592, -111.89219682430848, -0.03200000151991844, 0.17600000835955143, 1.008000047877431, 0.0, 0.0, 0.0, 0.0, 0.0, 1.7632262439123583E9, 0.0, 2025-11-15 12:04:03.912
79.0, 49.80611765990034, 112.23439767025411, 51.259068792685866, 49.56676406273618, -0.03200000151991844, 0.17600000835955143, 1.008000047877431, 0.0, 0.0, 0.0, 0.0, 0.0, 1.7632262439123583E9, 0.0, 2025-11-15 12:04:03.912
80.0, 272.870580567047, -121.46821066085249, -133.11799902282655, -115.16460928553715, -0.03200000151991844, 0.17600000835955143, 1.0240000486373901, 0.0, 0.0, 0.0, 0.0, 0.0, 1.7632262439280517E9, 0.0, 2025-11-15 12:04:03.928
80.0, 250.44614043273032, -144.01232759375125, -172.7459789533168, -145.8317889221944, -0.03200000151991844, 0.17600000835955143, 1.0240000486373901, 0.0, 0.0, 0.0, 0.0, 0.0, 1.7632262439280517E9, 0.0, 2025-11-15 12:04:03.928
81.0, 23.57819927064702, 79.69352815579623, 15.69262021407485, 22.848918779287487, -0.03200000151991844, 0.17600000835955143, 1.0240000486373901, 0.0, 0.0, 0.0, 0.0, 0.0, 1.7632262439287667E9, 0.0, 2025-11-15 12:04:03.928
81.0, -129.14809521986172, -37.95998455025256, -45.95215075556189, -29.655536698643118, -0.03200000151991844, 0.17600000835955143, 1.0240000486373901, 0.0, 0.0, 0.0, 0.0, 0.0, 1.7632262439287667E9, 0.0, 2025-11-15 12:04:03.928
82.0, -257.1835702029057, -162.2256403779611, -179.8218696694821, -153.55842223064974, -0.03200000151991844, 0.17600000835955143, 1.0240000486373901, 0.0, 0.0, 0.0, 0.0, 0.0, 1.7632262439424055E9, 0.0, 2025-11-15 12:04:03.942
82.0, -87.55292791267857, -23.28087722416967, -74.48384751752019, -54.754005301278085, -0.03200000151991844, 0.17600000835955143, 1.0240000486373901, 0.0, 0.0, 0.0, 0.0, 0.0, 1.7632262439424055E9, 0.0, 2025-11-15 12:04:03.942
83.0, -25.803439744282514, 45.04709496628493, 9.379669088870287, 19.023001124616712, -0.03200000151991844, 0.17600000835955143, 1.0240000486373901, 0.0, 0.0, 0.0, 0.0, 0.0, 1.763226243958048E9, 0.0, 2025-11-15 12:04:03.958
83.0, -258.97872218163684, -165.3409770410508, -174.1933202361688, -144.00671774381772, -0.03200000151991844, 0.17600000835955143, 1.0240000486373901, 0.0, 0.0, 0.0, 0.0, 0.0, 1.763226243958048E9, 0.0, 2025-11-15 12:04:03.958
84.0, -177.66955724498257, -102.51813758537173, -145.38487087748945, -121.93756810529158, -0.03200000151991844, 0.17600000835955143, 1.0240000486373901, 0.0, 0.0, 0.0, 0.0, 0.0, 1.7632262439587572E9, 0.0, 2025-11-15 12:04:03.958
84.0, 47.083470492158085, 108.1242476189509, 48.16243162937462, 49.75001916056499, -0.03200000151991844, 0.17600000835955143, 1.0240000486373901, 0.0, 0.0, 0.0, 0.0, 0.0, 1.7632262439587572E9, 0.0, 2025-11-15 12:04:03.958
85.0, 274.9013462429866, -113.81263545155525, -117.70213140547276, -103.54474012320861, -0.03200000151991844, 0.17600000835955143, 1.0240000486373901, 0.0, 0.0, 0.0, 0.0, 0.0, 1.7632262439724028E9, 0.0, 2025-11-15 12:04:03.972
85.0, 252.4507268089801, -153.48923408146948, -181.06351645477116, -153.81273542763665, -0.03200000151991844, 0.17600000835955143, 1.0240000486373901, 0.0, 0.0, 0.0, 0.0, 0.0, 1.7632262439724028E9, 0.0, 2025-11-15 12:04:03.972
86.0, 15.89270486170426, 76.83624458964914, 7.502239311113954, 12.609072700608522, -0.03200000151991844, 0.17600000835955143, 1.0240000486373901, 0.0, 0.0, 0.0, 0.0, 0.0, 1.7632262439880452E9, 0.0, 2025-11-15 12:04:03.988
86.0, -130.0381914093159, -41.31841471046209, -59.14651779923588, -47.053551292512566, -0.03200000151991844, 0.17600000835955143, 1.0240000486373901, 0.0, 0.0, 0.0, 0.0, 0.0, 1.7632262439880452E9, 0.0, 2025-11-15 12:04:03.988
87.0, -245.6908576390706, -162.04612518008798, -185.3868408035487, -155.74252380477265, -0.03200000151991844, 0.17600000835955143, 1.0240000486373901, 0.0, 0.0, 0.0, 0.0, 0.0, 1.7632262439887738E9, 0.0, 2025-11-15 12:04:03.988
87.0, -84.0561214541085, -20.1206617616117, -83.16789521463215, -62.10664861416444, -0.03200000151991844, 0.17600000835955143, 1.0240000486373901, 0.0, 0.0, 0.0, 0.0, 0.0, 1.7632262439887738E9, 0.0, 2025-11-15 12:04:03.988
88.0, -23.53706037113443, 48.56634082458913, 14.46967292856425, 31.59654477564618, -0.03200000151991844, 0.17600000835955143, 1.0240000486373901, 0.0, 0.0, 0.0, 0.0, 0.0, 1.7632262440024457E9, 0.0, 2025-11-15 12:04:04.002
88.0, -263.23098843125626, -163.8225776590407, -173.5687569435686, -145.06510943127796, -0.03200000151991844, 0.17600000835955143, 1.0240000486373901, 0.0, 0.0, 0.0, 0.0, 0.0, 1.7632262440024457E9, 0.0, 2025-11-15 12:04:04.002
89.0, -177.34792584879324, -106.28421684075147, -147.79336644895375, -122.46489399904385, -0.03200000151991844, 0.17600000835955143, 1.0240000486373901, 0.0, 0.0, 0.0, 0.0, 0.0, 1.7632262440180485E9, 0.0, 2025-11-15 12:04:04.018
89.0, 44.88440931821242, 103.90938036888838, 52.9869025722146, 56.66509417863563, -0.03200000151991844, 0.17600000835955143, 1.0240000486373901, 0.0, 0.0, 0.0, 0.0, 0.0, 1.7632262440180485E9, 0.0, 2025-11-15 12:04:04.018
90.0, 272.10390107613057, -119.33272778615355, -127.04440149478614, -104.78264700854197, -0.03200000151991844, 0.17600000835955143, 1.0240000486373901, 0.0, 0.0, 0.0, 0.0, 0.0, 1.7632262440187633E9, 0.0, 2025-11-15 12:04:04.018
90.0, 251.1230623247102, -150.28413981944323, -177.28247759956867, -149.2799766813405, -0.03200000151991844, 0.17600000835955143, 1.0240000486373901, 0.0, 0.0, 0.0, 0.0, 0.0, 1.7632262440187633E9, 0.0, 2025-11-15 12:04:04.018
91.0, 15.642131564673036, 70.42979596555233, 2.539392069913447, 3.708110806066543, -0.03200000151991844, 0.17600000835955143, 1.0240000486373901, 0.0, 0.0, 0.0, 0.0, 0.0, 1.7632262440324085E9, 0.0, 2025-11-15 12:04:04.032
91.0, -128.14206213178113, -37.32046165782958, -52.60917267668992, -45.94280100567266, -0.03200000151991844, 0.17600000835955143, 1.0240000486373901, 0.0, 0.0, 0.0, 0.0, 0.0, 1.7632262440324085E9, 0.0, 2025-11-15 12:04:04.032
92.0, -254.6179988333024, -161.32058458868414, -183.92827982082963, -157.2758827866055, -0.03200000151991844, 0.17600000835955143, 1.0240000486373901, 0.0, 0.0, 0.0, 0.0, 0.0, 1.7632262440480711E9, 0.0, 2025-11-15 12:04:04.048
92.0, -80.33492099819705, -14.92220082320273, -74.94759511202574, -60.820123029407114, -0.03200000151991844, 0.17600000835955143, 1.0240000486373901, 0.0, 0.0, 0.0, 0.0, 0.0, 1.7632262440480711E9, 0.0, 2025-11-15 12:04:04.048
93.0, -17.45972294313833, 59.786040691658854, 17.551350492052734, 27.53127352381125, -0.03200000151991844, 0.17600000835955143, 1.0240000486373901, 0.0, 0.0, 0.0, 0.0, 0.0, 1.7632262440487566E9, 0.0, 2025-11-15 12:04:04.048
93.0, 225.41872992925346, -158.4446015227586, -171.20888007152826, -136.4184607337229, -0.03200000151991844, 0.17600000835955143, 1.0240000486373901, 0.0, 0.0, 0.0, 0.0, 0.0, 1.7632262440487566E9, 0.0, 2025-11-15 12:04:04.048
94.0, 298.27198106609285, -114.60549424216151, -153.05914558656514, -137.6077489196323, -0.03200000151991844, 0.17600000835955143, 1.0240000486373901, 0.0, 0.0, 0.0, 0.0, 0.0, 1.7632262440623775E9, 0.0, 2025-11-15 12:04:04.062
94.0, 532.8198067871854, 101.28023070003837, 47.41819153819233, 51.43671404058114, -0.03200000151991844, 0.17600000835955143, 1.0240000486373901, 0.0, 0.0, 0.0, 0.0, 0.0, 1.7632262440623775E9, 0.0, 2025-11-15 12:04:04.062
95.0, 762.6572285140865, -124.04126183036715, -128.12897248193622, -109.03865315811709, -0.03200000151991844, 0.17600000835955143, 1.0240000486373901, 0.0, 0.0, 0.0, 0.0, 0.0, 1.7632262440780542E9, 0.0, 2025-11-15 12:04:04.078
95.0, 741.2126421681605, -151.74644070211798, -177.80232369340956, -153.6818389291875, -0.03200000151991844, 0.17600000835955143, 1.0240000486373901, 0.0, 0.0, 0.0, 0.0, 0.0, 1.7632262440780542E9, 0.0, 2025-11-15 12:04:04.078
96.0, 511.1695259436965, 67.68470939807594, -2.498253170400858, 2.971350514795631, -0.03200000151991844, 0.17600000835955143, 1.0240000486373901, 0.0, 0.0, 0.0, 0.0, 0.0, 1.7632262440787551E9, 0.0, 2025-11-15 12:04:04.078
96.0, 351.6216539340094, -48.83187372144312, -62.29177366197109, -50.1913273553364, -0.03200000151991844, 0.17600000835955143, 1.0240000486373901, 0.0, 0.0, 0.0, 0.0, 0.0, 1.7632262440787551E9, 0.0, 2025-11-15 12:04:04.078
97.0, 229.02773338649422, -163.72160036023706, -185.46537870261818, -153.0572756365873, -0.03200000151991844, 0.17600000835955143, 1.0240000486373901, 0.0, 0.0, 0.0, 0.0, 0.0, 1.763226244092427E9, 0.0, 2025-11-15 12:04:04.092
97.0, 406.6094029825181, -19.600815667770803, -76.06582519877702, -66.63192756054923, -0.03200000151991844, 0.17600000835955143, 1.0240000486373901, 0.0, 0.0, 0.0, 0.0, 0.0, 1.763226244092427E9, 0.0, 2025-11-15 12:04:04.092
98.0, 475.20290806982666, 56.60712572932243, 20.666687155142426, 25.388310849200934, -0.03200000151991844, 0.17600000835955143, 1.0240000486373901, 0.0, 0.0, 0.0, 0.0, 0.0, 1.7632262441080732E9, 0.0, 2025-11-15 12:04:04.108
98.0, 234.41318932268769, -160.69976119603962, -170.36366268154234, -152.35791434487328, -0.03200000151991844, 0.17600000835955143, 1.0240000486373901, 0.0, 0.0, 0.0, 0.0, 0.0, 1.7632262441080732E9, 0.0, 2025-11-15 12:04:04.108
99.0, 312.5883180964738, -101.5644630966708, -141.43179662432522, -120.47526722261682, -0.03200000151991844, 0.17600000835955143, 1.0240000486373901, 0.0, 0.0, 0.0, 0.0, 0.0, 1.7632262441087759E9, 0.0, 2025-11-15 12:04:04.108
99.0, 536.3390526454896, 107.73155812360346, 49.295621315948665, 56.09288948541507, -0.03200000151991844, 0.17600000835955143, 1.0240000486373901, 0.0, 0.0, 0.0, 0.0, 0.0, 1.7632262441087759E9, 0.0, 2025-11-15 12:04:04.108
100.0, 759.5418918509968, -122.34334725048393, -126.52829530090094, -103.63449772214517, -0.03200000151991844, 0.17600000835955143, 1.0240000486373901, 0.0, 0.0, 0.0, 0.0, 0.0, 1.7632262441230896E9, 0.0, 2025-11-15 12:04:04.123
100.0, 737.6447776104324, -156.16326254978776, -180.5698496606201, -155.27129641035572, -0.03200000151991844, 0.17600000835955143, 1.0240000486373901, 0.0, 0.0, 0.0, 0.0, 0.0, 1.7632262441230896E9, 0.0, 2025-11-15 12:04:04.123
0.0, 14.424794129095972, 70.93281250959262, 3.4706271588802338, 10.118299330119044, -0.03200000151991844, 0.17600000835955143, 1.0240000486373901, 0.0, 0.0, 0.0, 0.0, 0.0, 1.763226244123757E9, 0.0, 2025-11-15 12:04:04.123
1.0, -129.2509424686432, -37.51306650554761, -50.544747901149094, -37.31111190794036, -0.03200000151991844, 0.17600000835955143, 1.0240000486373901, 0.0, 0.0, 0.0, 0.0, 0.0, 1.7632262441537683E9, 0.0, 2025-11-15 12:04:04.153
1.0, -263.9396994728595, -162.74735642177984, -181.72547874692827, -152.2718966458924, -0.03200000151991844, 0.17600000835955143, 1.0240000486373901, 0.0, 0.0, 0.0, 0.0, 0.0, 1.7632262441537683E9, 0.0, 2025-11-15 12:04:04.153
2.0, -83.81115800701082, -21.311819897498935, -80.53500564582646, -73.65545967733487, -0.03200000151991844, 0.17600000835955143, 1.0240000486373901, 0.0, 0.0, 0.0, 0.0, 0.0, 1.763226244154466E9, 0.0, 2025-11-15 12:04:04.154
2.0, -14.338776430115104, 60.8986609284766, 23.116321626119316, 34.80537893762812, -0.03200000151991844, 0.17600000835955143, 1.0240000486373901, 0.0, 0.0, 0.0, 0.0, 0.0, 1.763226244154466E9, 0.0, 2025-11-15 12:04:04.154
3.0, -240.9991531446576, -155.8659405033104, -170.32252378202975, -140.78292398201302, -0.03200000151991844, 0.17600000835955143, 1.0240000486373901, 0.0, 0.0, 0.0, 0.0, 0.0, 1.7632262441552083E9, 0.0, 2025-11-15 12:04:04.155
3.0, -188.12070767115802, -111.11803753348067, -149.64461692702025, -123.72150038415566, -0.03200000151991844, 0.17600000835955143, 1.0240000486373901, 0.0, 0.0, 0.0, 0.0, 0.0, 1.7632262441552083E9, 0.0, 2025-11-15 12:04:04.155
4.0, 49.654651711694896, 107.89424377167597, 48.98894951958209, 54.305217306595296, -0.03200000151991844, 0.17600000835955143, 1.0240000486373901, 0.0, 0.0, 0.0, 0.0, 0.0, 1.7632262441673903E9, 0.0, 2025-11-15 12:04:04.167
4.0, 279.1928814421408, -115.50494018150494, -129.3220005678013, -104.93598290672526, -0.03200000151991844, 0.17600000835955143, 1.0240000486373901, 0.0, 0.0, 0.0, 0.0, 0.0, 1.7632262441673903E9, 0.0, 2025-11-15 12:04:04.167
5.0, 237.0591685413383, -163.58509401185438, -186.7519042873755, -161.12423984101042, -0.03200000151991844, 0.17600000835955143, 1.0240000486373901, 0.0, 0.0, 0.0, 0.0, 0.0, 1.763226244183032E9, 0.0, 2025-11-15 12:04:04.183
5.0, 11.24961906671524, 68.55049623781815, -0.056098499335348606, 8.121192753780633, -0.03200000151991844, 0.17600000835955143, 1.0240000486373901, 0.0, 0.0, 0.0, 0.0, 0.0, 1.763226244183032E9, 0.0, 2025-11-15 12:04:04.183
6.0, -122.35830685030669, -34.43138894205913, -54.41180445533246, -36.982000711839646, -0.03200000151991844, 0.17600000835955143, 1.0240000486373901, 0.0, 0.0, 0.0, 0.0, 0.0, 1.7632262441837468E9, 0.0, 2025-11-15 12:04:04.183
6.0, -257.24527855217457, -167.9495572601445, -193.49120400752872, -163.52151571260765, -0.03200000151991844, 0.17600000835955143, 1.0240000486373901, 0.0, 0.0, 0.0, 0.0, 0.0, 1.7632262441837468E9, 0.0, 2025-11-15 12:04:04.183
7.0, -83.57554430980235, -18.091766035649925, -75.8115120017901, -62.57413610862568, -0.03200000151991844, 0.17600000835955143, 1.0240000486373901, 0.0, 0.0, 0.0, 0.0, 0.0, 1.7632262441973517E9, 0.0, 2025-11-15 12:04:04.197
7.0, -15.991812210530043, 53.02617152174935, 17.29703729506582, 25.56034624716267, -0.03200000151991844, 0.17600000835955143, 1.0240000486373901, 0.0, 0.0, 0.0, 0.0, 0.0, 1.7632262441973517E9, 0.0, 2025-11-15 12:04:04.197
8.0, 227.78795655118302, -162.6875180224888, -173.16858764830977, -146.87896090978757, -0.03200000151991844, 0.17600000835955143, 1.0240000486373901, 0.0, 0.0, 0.0, 0.0, 0.0, 1.7632262442130997E9, 0.0, 2025-11-15 12:04:04.213
8.0, 315.07722151698545, -101.5850325464271, -142.68092320952564, -120.3368909242563, -0.03200000151991844, 0.17600000835955143, 1.0240000486373901, 0.0, 0.0, 0.0, 0.0, 0.0, 1.7632262442130997E9, 0.0, 2025-11-15 12:04:04.213
9.0, 531.6585678509437, 98.92222377797589, 36.475244267843664, 45.35563671262935, -0.03200000151991844, 0.17600000835955143, 1.0240000486373901, 0.0, 0.0, 0.0, 0.0, 0.0, 1.763226244213802E9, 0.0, 2025-11-15 12:04:04.213
9.0, 767.0422612121329, -116.21926107304171, -128.34588667936623, -103.87011141935363, -0.03200000151991844, 0.17600000835955143, 1.0240000486373901, 0.0, 0.0, 0.0, 0.0, 0.0, 1.763226244213802E9, 0.0, 2025-11-15 12:04:04.213
10.0, 742.6880327006802, -147.48108480265364, -176.8636088045314, -150.4580451673828, -0.03200000151991844, 0.17600000835955143, 1.0240000486373901, 0.0, 0.0, 0.0, 0.0, 0.0, 1.76322624422738E9, 0.0, 2025-11-15 12:04:04.227
10.0, 502.7753204931505, 66.79648315859959, 2.139222774654627, 13.398191591259092, -0.03200000151991844, 0.17600000835955143, 1.0240000486373901, 0.0, 0.0, 0.0, 0.0, 0.0, 1.76322624422738E9, 0.0, 2025-11-15 12:04:04.227
11.0, 368.0416846894659, -34.69318193895742, -48.465363525785506, -31.050519382115453, -0.03200000151991844, 0.17600000835955143, 1.0240000486373901, 0.0, 0.0, 0.0, 0.0, 0.0, 1.7632262442430978E9, 0.0, 2025-11-15 12:04:04.243
11.0, 222.6081951125525, -176.86547875450924, -189.94951874949038, -160.6866715461947, -0.03200000151991844, 0.17600000835955143, 1.0240000486373901, 0.0, 0.0, 0.0, 0.0, 0.0, 1.7632262442430978E9, 0.0, 2025-11-15 12:04:04.243
12.0, 405.04799475101754, -21.48759519541636, -76.5894111925736, -62.06924961460754, -0.03200000151991844, 0.17600000835955143, 1.0240000486373901, 0.0, 0.0, 0.0, 0.0, 0.0, 1.7632262442437992E9, 0.0, 2025-11-15 12:04:04.243
12.0, 476.0125964102335, 59.971165739465505, 24.806756406091154, 35.56083872867748, -0.03200000151991844, 0.17600000835955143, 1.0240000486373901, 0.0, 0.0, 0.0, 0.0, 0.0, 1.7632262442437992E9, 0.0, 2025-11-15 12:04:04.243
13.0, 238.7570831212215, -152.92637913813815, -166.47790662758052, -135.81259694090113, -0.03200000151991844, 0.17600000835955143, 1.0240000486373901, 0.0, 0.0, 0.0, 0.0, 0.0, 1.76322624425737E9, 0.0, 2025-11-15 12:04:04.257
13.0, 303.1918194578029, -107.71472857380286, -145.1455172803253, -129.47720641596243, -0.03200000151991844, 0.17600000835955143, 1.0240000486373901, 0.0, 0.0, 0.0, 0.0, 0.0, 1.76322624425737E9, 0.0, 2025-11-15 12:04:04.257
14.0, 543.5589295099489, 109.99980744672939, 55.26824154518545, 53.29170441860333, -0.03200000151991844, 0.17600000835955143, 1.0240000486373901, 0.0, 0.0, 0.0, 0.0, 0.0, 1.7632262442731369E9, 0.0, 2025-11-15 12:04:04.273
14.0, 745.7323112646118, -123.17921489058062, -132.29522103257477, -106.49178128829226, -0.03200000151991844, 0.17600000835955143, 1.0240000486373901, 0.0, 0.0, 0.0, 0.0, 0.0, 1.7632262442731369E9, 0.0, 2025-11-15 12:04:04.273
15.0, 732.2125729247928, -155.7612233045511, -179.13746797759086, -156.77099629258737, -0.03200000151991844, 0.17600000835955143, 1.0240000486373901, 0.0, 0.0, 0.0, 0.0, 0.0, 1.7632262442738073E9, 0.0, 2025-11-15 12:04:04.273
15.0, 504.1740430765785, 73.70781827671453, 5.007726040668786, 6.067987678106874, -0.03200000151991844, 0.17600000835955143, 1.0240000486373901, 0.0, 0.0, 0.0, 0.0, 0.0, 1.7632262442738073E9, 0.0, 2025-11-15 12:04:04.273
16.0, 367.3423233977519, -32.32582526700571, -46.2064639525488, -28.84397840825841, -0.03200000151991844, 0.17600000835955143, 1.0240000486373901, 0.0, 0.0, 0.0, 0.0, 0.0, 1.763226244287368E9, 0.0, 2025-11-15 12:04:04.287
16.0, 224.84465528605506, -166.7602690742351, -182.8324891338125, -157.74337028106675, -0.03200000151991844, 0.17600000835955143, 1.0240000486373901, 0.0, 0.0, 0.0, 0.0, 0.0, 1.763226244287368E9, 0.0, 2025-11-15 12:04:04.287
17.0, 398.9108189237304, -18.918283925857395, -78.04049237538129, -71.36290100449696, -0.03200000151991844, 0.17600000835955143, 1.0240000486373901, 0.0, 0.0, 0.0, 0.0, 0.0, 1.7632262443030896E9, 0.0, 2025-11-15 12:04:04.303
17.0, 476.8765132999979, 58.99879175098613, 23.250958024524152, 32.138830269221216, -0.03200000151991844, 0.17600000835955143, 1.0240000486373901, 0.0, 0.0, 0.0, 0.0, 0.0, 1.7632262443030896E9, 0.0, 2025-11-15 12:04:04.303
18.0, 716.4301951117814, -156.91685239085928, -167.1548285195604, -136.4932587328367, -0.03200000151991844, 0.17600000835955143, 1.0240000486373901, 0.0, 0.0, 0.0, 0.0, 0.0, 1.7632262443037808E9, 0.0, 2025-11-15 12:04:04.303
18.0, 806.7113800421357, -99.38597137248144, -140.46690243575722, -120.37802982376888, -0.03200000151991844, 0.17600000835955143, 1.0240000486373901, 0.0, 0.0, 0.0, 0.0, 0.0, 1.7632262443037808E9, 0.0, 2025-11-15 12:04:04.303
19.0, 1034.4301484441385, 117.98075395217165, 53.93683716095984, 52.97755282232538, -0.03200000151991844, 0.17600000835955143, 1.0240000486373901, 0.0, 0.0, 0.0, 0.0, 0.0, 1.7632262443174489E9, 0.0, 2025-11-15 12:04:04.317
19.0, 1259.1401673317887, -110.53461314039305, -119.0559751894325, -100.11151196388528, -0.03200000151991844, 0.17600000835955143, 1.0240000486373901, 0.0, 0.0, 0.0, 0.0, 0.0, 1.7632262443174489E9, 0.0, 2025-11-15 12:04:04.317
20.0, 1234.9841535179876, -144.44802593858913, -173.68095394223928, -150.81333566317335, -0.03200000151991844, 0.17600000835955143, 1.0240000486373901, 0.0, 0.0, 0.0, 0.0, 0.0, 1.7632262443330724E9, 0.0, 2025-11-15 12:04:04.333
20.0, 999.7089172555134, 74.5006770673208, 5.419115035794675, 5.248949587810785, -0.03200000151991844, 0.17600000835955143, 1.0240000486373901, 0.0, 0.0, 0.0, 0.0, 0.0, 1.7632262443330724E9, 0.0, 2025-11-15 12:04:04.333
21.0, 855.939683158882, -35.108310834039, -48.82813382148743, -36.9633012120612, -0.03200000151991844, 0.17600000835955143, 1.0240000486373901, 0.0, 0.0, 0.0, 0.0, 0.0, 1.7632262443337839E9, 0.0, 2025-11-15 12:04:04.333
21.0, 721.6136964503676, -162.23499012785032, -173.2321659475565, -145.4166600271128, -0.03200000151991844, 0.17600000835955143, 1.0240000486373901, 0.0, 0.0, 0.0, 0.0, 0.0, 1.7632262443337839E9, 0.0, 2025-11-15 12:04:04.333
22.0, 895.5040847901255, -12.324840303976089, -68.69074248615652, -59.23814534815028, -0.03200000151991844, 0.17600000835955143, 1.0240000486373901, 0.0, 0.0, 0.0, 0.0, 0.0, 1.7632262443473594E9, 0.0, 2025-11-15 12:04:04.347
22.0, 966.8912951443344, 68.92448623338714, 32.780223111622036, 45.441654411610216, -0.03200000151991844, 0.17600000835955143, 1.0240000486373901, 0.0, 0.0, 0.0, 0.0, 0.0, 1.7632262443473594E9, 0.0, 2025-11-15 12:04:04.347
23.0, 725.4957126043737, -146.06740261940286, -158.13792972639203, -131.10406289668754, -0.03200000151991844, 0.17600000835955143, 1.0240000486373901, 0.0, 0.0, 0.0, 0.0, 0.0, 1.7632262443631215E9, 0.0, 2025-11-15 12:04:04.363
23.0, 810.4288405980915, -89.10498639428988, -134.04549421183765, -109.07979205762967, -0.03200000151991844, 0.17600000835955143, 1.0240000486373901, 0.0, 0.0, 0.0, 0.0, 0.0, 1.7632262443631215E9, 0.0, 2025-11-15 12:04:04.363
24.0, 1030.540652490221, 116.94480166444555, 53.92187756113708, 57.69356666645035, -0.03200000151991844, 0.17600000835955143, 1.0240000486373901, 0.0, 0.0, 0.0, 0.0, 0.0, 1.7632262443637977E9, 0.0, 2025-11-15 12:04:04.363
24.0, 1253.2423451016657, -112.3709040186368, -119.51598288398236, -101.80194674385712, -0.03200000151991844, 0.17600000835955143, 1.0240000486373901, 0.0, 0.0, 0.0, 0.0, 0.0, 1.7632262443637977E9, 0.0, 2025-11-15 12:04:04.363
25.0, 1235.5526183112524, -143.29239685228094, -175.98099241498858, -150.6824391647242, -0.03200000151991844, 0.17600000835955143, 1.0240000486373901, 0.0, 0.0, 0.0, 0.0, 0.0, 1.763226244377388E9, 0.0, 2025-11-15 12:04:04.377
25.0, 995.6960046030581, 77.81796832801774, 9.203893790952861, 12.638991900254041, -0.03200000151991844, 0.17600000835955143, 1.0240000486373901, 0.0, 0.0, 0.0, 0.0, 0.0, 1.763226244377388E9, 0.0, 2025-11-15 12:04:04.377
26.0, 861.9646619874984, -28.589665211271495, -42.7246170938015, -35.433682130184025, -0.03200000151991844, 0.17600000835955143, 1.0240000486373901, 0.0, 0.0, 0.0, 0.0, 0.0, 1.7632262443931527E9, 0.0, 2025-11-15 12:04:04.393
26.0, 721.6997141493484, -161.41969193750992, -179.5301574729383, -154.04086932493374, -0.03200000151991844, 0.17600000835955143, 1.0240000486373901, 0.0, 0.0, 0.0, 0.0, 0.0, 1.7632262443931527E9, 0.0, 2025-11-15 12:04:04.393
27.0, 888.6264087716118, -23.731535168830305, -80.12361665070057, -70.41670631570742, -0.03200000151991844, 0.17600000835955143, 1.0240000486373901, 0.0, 0.0, 0.0, 0.0, 0.0, 1.7632262443938E9, 0.0, 2025-11-15 12:04:04.393
27.0, 971.5100715896115, 72.92243928601965, 36.419145768508315, 43.466987235005945, -0.03200000151991844, 0.17600000835955143, 1.0240000486373901, 0.0, 0.0, 0.0, 0.0, 0.0, 1.7632262443938E9, 0.0, 2025-11-15 12:04:04.393
28.0, 1216.116358241532, -150.52536336658522, -160.53520559798926, -131.77724488871172, -0.03200000151991844, 0.17600000835955143, 1.0240000486373901, 0.0, 0.0, 0.0, 0.0, 0.0, 1.763226244407401E9, 0.0, 2025-11-15 12:04:04.407
28.0, 1293.7641611215658, -95.46281631896272, -132.86742572579533, -115.04119258699939, -0.03200000151991844, 0.17600000835955143, 1.0240000486373901, 0.0, 0.0, 0.0, 0.0, 0.0, 1.763226244407401E9, 0.0, 2025-11-15 12:04:04.407
29.0, 1530.185676720459, 117.32253155997023, 57.63185831718147, 57.21485947212204, -0.03200000151991844, 0.17600000835955143, 1.0240000486373901, 0.0, 0.0, 0.0, 0.0, 0.0, 1.7632262444230955E9, 0.0, 2025-11-15 12:04:04.423
29.0, 1771.3923943126574, -96.98121570097283, -115.23005753476173, -90.69818377541378, -0.03200000151991844, 0.17600000835955143, 1.0240000486373901, 0.0, 0.0, 0.0, 0.0, 0.0, 1.7632262444230955E9, 0.0, 2025-11-15 12:04:04.423
30.0, 1718.9290777342394, -143.28865695232525, -171.91198126319796, -144.1563137420453, -0.03200000151991844, 0.17600000835955143, 1.0240000486373901, 0.0, 0.0, 0.0, 0.0, 0.0, 1.7632262444237971E9, 0.0, 2025-11-15 12:04:04.423
30.0, 1490.2024062941782, 78.66318571800366, 14.05454403348267, 22.826479379553348, -0.03200000151991844, 0.17600000835955143, 1.0240000486373901, 0.0, 0.0, 0.0, 0.0, 0.0, 1.7632262444237971E9, 0.0, 2025-11-15 12:04:04.423
31.0, 1368.9997285301797, -14.905371273402125, -30.54002303816378, -18.043147336225957, -0.03200000151991844, 0.17600000835955143, 1.0240000486373901, 0.0, 0.0, 0.0, 0.0, 0.0, 1.7632262444373727E9, 0.0, 2025-11-15 12:04:04.437
31.0, 1216.707262434531, -155.207718111109, -173.05639064963907, -150.9404922616668, -0.03200000151991844, 0.17600000835955143, 1.0240000486373901, 0.0, 0.0, 0.0, 0.0, 0.0, 1.7632262444373727E9, 0.0, 2025-11-15 12:04:04.437
32.0, 1394.9434145228006, -1.5202693319879472, -59.008141500875354, -45.479053411167115, -0.03200000151991844, 0.17600000835955143, 1.0240000486373901, 0.0, 0.0, 0.0, 0.0, 0.0, 1.7632262444530752E9, 0.0, 2025-11-15 12:04:04.453
32.0, 1481.8063308936544, 86.03826843062416, 45.675398158840835, 54.720346201676875, -0.03200000151991844, 0.17600000835955143, 1.0240000486373901, 0.0, 0.0, 0.0, 0.0, 0.0, 1.7632262444530752E9, 0.0, 2025-11-15 12:04:04.453
33.0, 1719.04127473291, -136.44090013345703, -148.6311040390283, -126.36560965282843, -0.03200000151991844, 0.17600000835955143, 1.0240000486373901, 0.0, 0.0, 0.0, 0.0, 0.0, 1.7632262444537985E9, 0.0, 2025-11-15 12:04:04.453
33.0, 1795.5745874261484, -79.48596370825544, -119.58330108318478, -100.55656005861238, -0.03200000151991844, 0.17600000835955143, 1.0240000486373901, 0.0, 0.0, 0.0, 0.0, 0.0, 1.7632262444537985E9, 0.0, 2025-11-15 12:04:04.453
34.0, 2039.1206124406308, 140.84650228125975, 85.075244192034, 82.38812607387081, -0.03200000151991844, 0.17600000835955143, 1.0240000486373901, 0.0, 0.0, 0.0, 0.0, 0.0, 1.763226244467419E9, 0.0, 2025-11-15 12:04:04.467
34.0, 2259.16323618358, -86.73762972233817, -93.45635999273509, -78.30415532225743, -0.03200000151991844, 0.17600000835955143, 1.0240000486373901, 0.0, 0.0, 0.0, 0.0, 0.0, 1.763226244467419E9, 0.0, 2025-11-15 12:04:04.467
35.0, 2229.6105467337184, -120.13119642669335, -145.66910327412188, -123.65044228499755, -0.03200000151991844, 0.17600000835955143, 1.0240000486373901, 0.0, 0.0, 0.0, 0.0, 0.0, 1.7632262444830625E9, 0.0, 2025-11-15 12:04:04.483
35.0, 2003.550423962064, 107.02284708200023, 38.15445934794843, 33.57869175216183, -0.03200000151991844, 0.17600000835955143, 1.0240000486373901, 0.0, 0.0, 0.0, 0.0, 0.0, 1.7632262444830625E9, 0.0, 2025-11-15 12:04:04.483
36.0, 1863.3303549233824, -1.5202693319879472, -11.335636765696108, -3.177045012358576, -0.03200000151991844, 0.17600000835955143, 1.0240000486373901, 0.0, 0.0, 0.0, 0.0, 0.0, 1.7632262444837704E9, 0.0, 2025-11-15 12:04:04.483
36.0, 1720.3278003176674, -138.49784510908648, -149.74559422582388, -116.10332417441532, -0.03200000151991844, 0.17600000835955143, 1.0240000486373901, 0.0, 0.0, 0.0, 0.0, 0.0, 1.7632262444837704E9, 0.0, 2025-11-15 12:04:04.483
37.0, 1895.0521863475442, 8.62233934784308, -42.75079639349133, -35.47482102969661, -0.03200000151991844, 0.17600000835955143, 1.0240000486373901, 0.0, 0.0, 0.0, 0.0, 0.0, 1.7632262445137205E9, 0.0, 2025-11-15 12:04:04.513
37.0, 1973.2385348211974, 85.5408617365174, 52.45209687855095, 50.12774905608967, -0.03200000151991844, 0.17600000835955143, 1.0240000486373901, 0.0, 0.0, 0.0, 0.0, 0.0, 1.7632262445137205E9, 0.0, 2025-11-15 12:04:04.513
38.0, 2197.073417119216, -145.46527872653678, -148.2533741435036, -126.1524353553541, -0.03200000151991844, 0.17600000835955143, 1.0240000486373901, 0.0, 0.0, 0.0, 0.0, 0.0, 1.763226244514439E9, 0.0, 2025-11-15 12:04:04.514
38.0, 2271.908815232571, -97.1382914991118, -133.24141572136432, -110.53087324043736, -0.03200000151991844, 0.17600000835955143, 1.0240000486373901, 0.0, 0.0, 0.0, 0.0, 0.0, 1.763226244514439E9, 0.0, 2025-11-15 12:04:04.514
39.0, 2031.8839060263708, 135.62186204316095, 71.45452855341136, 75.84704105136916, -0.03200000151991844, 0.17600000835955143, 1.0240000486373901, 0.0, 0.0, 0.0, 0.0, 0.0, 1.763226244515176E9, 0.0, 2025-11-15 12:04:04.515
39.0, 2248.018334315624, -94.67743732826784, -103.35961507540196, -82.18991137621924, -0.03200000151991844, 0.17600000835955143, 1.0240000486373901, 0.0, 0.0, 0.0, 0.0, 0.0, 1.763226244515176E9, 0.0, 2025-11-15 12:04:04.515
40.0, 2212.2312316396274, -139.63477469561622, -162.2256403779611, -139.09996900195256, -0.03200000151991844, 0.17600000835955143, 1.0240000486373901, 0.0, 0.0, 0.0, 0.0, 0.0, 1.7632262445273705E9, 0.0, 2025-11-15 12:04:04.527
40.0, 1973.6686233161017, 73.34504798101261, 12.521185051649809, 15.716929563786834, -0.03200000151991844, 0.17600000835955143, 1.0240000486373901, 0.0, 0.0, 0.0, 0.0, 0.0, 1.7632262445273705E9, 0.0, 2025-11-15 12:04:04.527
41.0, 1846.1529944268987, -25.474328548181802, -35.30465558171272, -19.53536741854623, -0.03200000151991844, 0.17600000835955143, 1.0240000486373901, 0.0, 0.0, 0.0, 0.0, 0.0, 1.7632262445430665E9, 0.0, 2025-11-15 12:04:04.543
41.0, 1700.4464921532199, -163.80948800919577, -172.43930715695024, -145.26706402888522, -0.03200000151991844, 0.17600000835955143, 1.0240000486373901, 0.0, 0.0, 0.0, 0.0, 0.0, 1.7632262445430665E9, 0.0, 2025-11-15 12:04:04.543
42.0, 1871.9508243212476, -18.74250862793997, -75.46744120586663, -57.925440463703126, -0.03200000151991844, 0.17600000835955143, 1.0240000486373901, 0.0, 0.0, 0.0, 0.0, 0.0, 1.7632262445437636E9, 0.0, 2025-11-15 12:04:04.543
42.0, 1953.2151104584336, 66.77030385890976, 30.678399336524308, 43.837237330619246, -0.03200000151991844, 0.17600000835955143, 1.0240000486373901, 0.0, 0.0, 0.0, 0.0, 0.0, 1.7632262445437636E9, 0.0, 2025-11-15 12:04:04.543
43.0, 2191.938534480054, -160.0546284536831, -172.07279696129262, -147.88499399786815, -0.03200000151991844, 0.17600000835955143, 1.0240000486373901, 0.0, 0.0, 0.0, 0.0, 0.0, 1.7632262445573835E9, 0.0, 2025-11-15 12:04:04.557
43.0, 2261.1566028599627, -114.40914949448779, -151.4435088057071, -128.76662542438135, -0.03200000151991844, 0.17600000835955143, 1.0240000486373901, 0.0, 0.0, 0.0, 0.0, 0.0, 1.7632262445573835E9, 0.0, 2025-11-15 12:04:04.557
44.0, 2018.3118090871722, 114.98135418770835, 51.715336587280035, 53.3029241184704, -0.03200000151991844, 0.17600000835955143, 1.0240000486373901, 0.0, 0.0, 0.0, 0.0, 0.0, 1.763226244573076E9, 0.0, 2025-11-15 12:04:04.573
44.0, 2237.5840134392492, -114.06507869856432, -117.7993688043207, -90.93005757266656, -0.03200000151991844, 0.17600000835955143, 1.0240000486373901, 0.0, 0.0, 0.0, 0.0, 0.0, 1.763226244573076E9, 0.0, 2025-11-15 12:04:04.573
45.0, 2203.550923842471, -151.93156574992463, -176.5644168080762, -148.0906884954311, -0.03200000151991844, 0.17600000835955143, 1.0240000486373901, 0.0, 0.0, 0.0, 0.0, 0.0, 1.7632262445737529E9, 0.0, 2025-11-15 12:04:04.573
45.0, 1975.1758029982448, 71.13476710719988, 3.945594453252852, 10.312774127814919, -0.03200000151991844, 0.17600000835955143, 1.0240000486373901, 0.0, 0.0, 0.0, 0.0, 0.0, 1.7632262445737529E9, 0.0, 2025-11-15 12:04:04.573
46.0, 1840.5132252937183, -24.056906464975327, -37.47379755601287, -20.515221206936985, -0.03200000151991844, 0.17600000835955143, 1.0240000486373901, 0.0, 0.0, 0.0, 0.0, 0.0, 1.7632262446038115E9, 0.0, 2025-11-15 12:04:04.603
46.0, 1698.0305167818442, -165.12219289364293, -182.02841064333916, -152.1260405476205, -0.03200000151991844, 0.17600000835955143, 1.0240000486373901, 0.0, 0.0, 0.0, 0.0, 0.0, 1.7632262446038115E9, 0.0, 2025-11-15 12:04:04.603
47.0, 1876.8351336633787, -24.090565564576536, -80.5948440451175, -73.71529807662591, -0.03200000151991844, 0.17600000835955143, 1.0240000486373901, 0.0, 0.0, 0.0, 0.0, 0.0, 1.763226244604492E9, 0.0, 2025-11-15 12:04:04.604
47.0, 1965.500681812875, 72.99723728513345, 31.190765630453825, 32.92046935996041, -0.03200000151991844, 0.17600000835955143, 1.0240000486373901, 0.0, 0.0, 0.0, 0.0, 0.0, 1.763226244604492E9, 0.0, 2025-11-15 12:04:04.604
48.0, 2188.9877534150146, -159.84145415620878, -174.23819903563708, -144.4929047380574, -0.03200000151991844, 0.17600000835955143, 1.0240000486373901, 0.0, 0.0, 0.0, 0.0, 0.0, 1.763226244605222E9, 0.0, 2025-11-15 12:04:04.605
48.0, 2264.6571492184885, -103.76165432063863, -148.1823160443455, -127.52871853904799, -0.03200000151991844, 0.17600000835955143, 1.0240000486373901, 0.0, 0.0, 0.0, 0.0, 0.0, 1.763226244605222E9, 0.0, 2025-11-15 12:04:04.605
49.0, 2020.110700965859, 119.74972663121298, 56.902577825821936, 57.44673326937482, -0.03200000151991844, 0.17600000835955143, 1.0240000486373901, 0.0, 0.0, 0.0, 0.0, 0.0, 1.7632262446174264E9, 0.0, 2025-11-15 12:04:04.617
49.0, 2244.8880380527116, -106.39828378940001, -118.7979220924899, -95.26834152126685, -0.03200000151991844, 0.17600000835955143, 1.0240000486373901, 0.0, 0.0, 0.0, 0.0, 0.0, 1.7632262446174264E9, 0.0, 2025-11-15 12:04:04.617
50.0, 2207.8031900920905, -155.5405692071654, -178.54656378459185, -154.43729872023687, -0.03200000151991844, 0.17600000835955143, 1.0400000493973494, 0.0, 0.0, 0.0, 0.0, 0.0, 1.7632262446331549E9, 0.0, 2025-11-15 12:04:04.633
50.0, 1971.0693928468972, 66.58704876108095, 0.2617929968982935, 9.403978438582271, -0.03200000151991844, 0.17600000835955143, 1.0400000493973494, 0.0, 0.0, 0.0, 0.0, 0.0, 1.7632262446331549E9, 0.0, 2025-11-15 12:04:04.633
51.0, 1846.4484465233982, -24.80114655615762, -45.308887963183224, -26.79451323254034, -0.03200000151991844, 0.17600000835955143, 1.0400000493973494, 0.0, 0.0, 0.0, 0.0, 0.0, 1.7632262446337888E9, 0.0, 2025-11-15 12:04:04.633
51.0, 1690.700312868692, -171.18083082186058, -192.0139435250312, -166.0235087829642, -0.03200000151991844, 0.17600000835955143, 1.0400000493973494, 0.0, 0.0, 0.0, 0.0, 0.0, 1.7632262446337888E9, 0.0, 2025-11-15 12:04:04.633
52.0, 1866.0567419910803, -30.74010768579319, -86.12989597953856, -67.30136965261772, -0.03200000151991844, 0.17600000835955143, 1.0400000493973494, 0.0, 0.0, 0.0, 0.0, 0.0, 1.763226244647365E9, 0.0, 2025-11-15 12:04:04.647
52.0, 1949.845460598357, 66.11956126661971, 29.208618653938174, 40.1122969747521, -0.03200000151991844, 0.17600000835955143, 1.0400000493973494, 0.0, 0.0, 0.0, 0.0, 0.0, 1.763226244647365E9, 0.0, 2025-11-15 12:04:04.647
53.0, 2186.1790885482915, -162.41824522567913, -170.34870308171958, -146.98741800850257, -0.03200000151991844, 0.17600000835955143, 1.0400000493973494, 0.0, 0.0, 0.0, 0.0, 0.0, 1.7632262446630845E9, 0.0, 2025-11-15 12:04:04.663
53.0, 2253.1270376550965, -117.53570585744455, -158.95322791673243, -140.4238935862668, -0.03200000151991844, 0.17600000835955143, 1.0400000493973494, 0.0, 0.0, 0.0, 0.0, 0.0, 1.7632262446630845E9, 0.0, 2025-11-15 12:04:04.663
54.0, 2010.2298852829263, 105.3997305012308, 46.73004994634539, 44.45806072326377, -0.03200000151991844, 0.17600000835955143, 1.0400000493973494, 0.0, 0.0, 0.0, 0.0, 0.0, 1.7632262446637957E9, 0.0, 2025-11-15 12:04:04.663
54.0, 2231.749769508373, -119.71980743156746, -126.80504789762199, -105.807379596401, -0.03200000151991844, 0.17600000835955143, 1.0400000493973494, 0.0, 0.0, 0.0, 0.0, 0.0, 1.7632262446637957E9, 0.0, 2025-11-15 12:04:04.663
55.0, 2205.0431439247914, -163.48411671305075, -192.6833856170997, -162.95679081929848, -0.03200000151991844, 0.17600000835955143, 1.0400000493973494, 0.0, 0.0, 0.0, 0.0, 0.0, 1.7632262446773772E9, 0.0, 2025-11-15 12:04:04.677
55.0, 1963.3988580377772, 54.84750280017033, -12.46134665235877, -2.088734125252813, -0.03200000151991844, 0.17600000835955143, 1.0400000493973494, 0.0, 0.0, 0.0, 0.0, 0.0, 1.7632262446773772E9, 0.0, 2025-11-15 12:04:04.677
56.0, 1835.8944488484412, -33.50015385309234, -48.910411620512605, -32.40062326611951, -0.03200000151991844, 0.17600000835955143, 1.0400000493973494, 0.0, 0.0, 0.0, 0.0, 0.0, 1.7632262446931171E9, 0.0, 2025-11-15 12:04:04.693
56.0, 1698.44190577697, -169.63251224020496, -188.20672537013888, -170.27577503258362, -0.03200000151991844, 0.17600000835955143, 1.0400000493973494, 0.0, 0.0, 0.0, 0.0, 0.0, 1.7632262446931171E9, 0.0, 2025-11-15 12:04:04.693
57.0, 1860.1364803612232, -31.921916071791202, -88.8936820467934, -71.03378980839625, -0.03200000151991844, 0.17600000835955143, 1.0400000493973494, 0.0, 0.0, 0.0, 0.0, 0.0, 1.7632262446938205E9, 0.0, 2025-11-15 12:04:04.693
57.0, 1959.0568341892213, 72.78406298765913, 33.88723349850625, 43.033158840145916, -0.03200000151991844, 0.17600000835955143, 1.0400000493973494, 0.0, 0.0, 0.0, 0.0, 0.0, 1.7632262446938205E9, 0.0, 2025-11-15 12:04:04.693
58.0, 2184.641989666503, -164.27323560370132, -169.31649069394916, -143.95061924448237, -0.03200000151991844, 0.17600000835955143, 1.0400000493973494, 0.0, 0.0, 0.0, 0.0, 0.0, 1.7632262447073832E9, 0.0, 2025-11-15 12:04:04.707
58.0, 2250.2211353895254, -117.57310485700145, -155.25072696059942, -135.16933414852247, -0.03200000151991844, 0.17600000835955143, 1.0400000493973494, 0.0, 0.0, 0.0, 0.0, 0.0, 1.7632262447073832E9, 0.0, 2025-11-15 12:04:04.707
59.0, 2018.940112279728, 115.40022298274562, 55.60109264124185, 63.3445554994978, -0.03200000151991844, 0.17600000835955143, 1.0400000493973494, 0.0, 0.0, 0.0, 0.0, 0.0, 1.7632262447230947E9, 0.0, 2025-11-15 12:04:04.723
59.0, 2229.962097329553, -120.65852232044563, -133.06938032340258, -101.48779514757916, -0.03200000151991844, 0.17600000835955143, 1.0400000493973494, 0.0, 0.0, 0.0, 0.0, 0.0, 1.7632262447230947E9, 0.0, 2025-11-15 12:04:04.723
60.0, 2184.5971108670346, -177.52744104666635, -209.30724092014134, -169.38941874308512, -0.03200000151991844, 0.17600000835955143, 1.0240000486373901, 0.0, 0.0, 0.0, 0.0, 0.0, 1.763226244723797E9, 0.0, 2025-11-15 12:04:04.723
60.0, 1966.0392274064943, 54.727826001588255, -17.061423597857356, -0.8994459393434227, -0.03200000151991844, 0.17600000835955143, 1.0240000486373901, 0.0, 0.0, 0.0, 0.0, 0.0, 1.763226244723797E9, 0.0, 2025-11-15 12:04:04.723
61.0, 1838.9387274123728, -30.8485647845082, -51.04215459525585, -31.398330077994615, -0.03200000151991844, 0.17600000835955143, 1.0240000486373901, 0.0, 0.0, 0.0, 0.0, 0.0, 1.7632262447373514E9, 0.0, 2025-11-15 12:04:04.737
61.0, 1688.9799588890746, -174.16153108654544, -193.84649450331926, -169.692350639496, -0.03200000151991844, 0.17600000835955143, 1.0240000486373901, 0.0, 0.0, 0.0, 0.0, 0.0, 1.7632262447373514E9, 0.0, 2025-11-15 12:04:04.737
62.0, 1867.111393778585, -33.56373215233907, -93.13472859654576, -81.81966128060594, -0.03200000151991844, 0.17600000835955143, 1.0240000486373901, 0.0, 0.0, 0.0, 0.0, 0.0, 1.7632262447530828E9, 0.0, 2025-11-15 12:04:04.753
62.0, 1953.921951550059, 62.51055780937895, 23.086402426473796, 28.223155015613884, -0.03200000151991844, 0.17600000835955143, 1.0240000486373901, 0.0, 0.0, 0.0, 0.0, 0.0, 1.7632262447530828E9, 0.0, 2025-11-15 12:04:04.753
63.0, 2179.271493330132, -166.53587507689372, -174.95251992717385, -144.59014213690534, -0.03200000151991844, 0.17600000835955143, 1.0240000486373901, 0.0, 0.0, 0.0, 0.0, 0.0, 1.7632262447537868E9, 0.0, 2025-11-15 12:04:04.753
63.0, 2252.3042596648447, -116.73536726692691, -154.67852226737887, -136.10056923748925, -0.03200000151991844, 0.17600000835955143, 1.0240000486373901, 0.0, 0.0, 0.0, 0.0, 0.0, 1.7632262447537868E9, 0.0, 2025-11-15 12:04:04.753
64.0, 2009.2949102940038, 106.77975358488038, 47.16761824116111, 45.127502815332264, -0.03200000151991844, 0.17600000835955143, 1.0240000486373901, 0.0, 0.0, 0.0, 0.0, 0.0, 1.7632262447674491E9, 0.0, 2025-11-15 12:04:04.767
64.0, 2223.3125552083366, -119.9629009286873, -131.18447074573487, -108.36921106604859, -0.03200000151991844, 0.17600000835955143, 1.0240000486373901, 0.0, 0.0, 0.0, 0.0, 0.0, 1.7632262447674491E9, 0.0, 2025-11-15 12:04:04.767
65.0, 2210.234125063289, -156.4306653966196, -182.99330483190715, -157.1674256878905, -0.03200000151991844, 0.17600000835955143, 1.0240000486373901, 0.0, 0.0, 0.0, 0.0, 0.0, 1.7632262447831008E9, 0.0, 2025-11-15 12:04:04.783
65.0, 1971.7650142386556, 68.36350124003366, 2.01954597607255, 2.9115121155045927, -0.03200000151991844, 0.17600000835955143, 1.0240000486373901, 0.0, 0.0, 0.0, 0.0, 0.0, 1.7632262447831008E9, 0.0, 2025-11-15 12:04:04.783
66.0, 1854.1862995317206, -19.47926891921088, -38.73040394112468, -23.312666373793036, -0.03200000151991844, 0.17600000835955143, 1.0240000486373901, 0.0, 0.0, 0.0, 0.0, 0.0, 1.763226244783792E9, 0.0, 2025-11-15 12:04:04.783
66.0, 1690.8012901674956, -171.01253532385454, -188.603154765442, -162.80719482107088, -0.03200000151991844, 0.17600000835955143, 1.0240000486373901, 0.0, 0.0, 0.0, 0.0, 0.0, 1.763226244783792E9, 0.0, 2025-11-15 12:04:04.783
67.0, 1858.958411875181, -28.862677908036858, -84.45816069934517, -71.14224690711126, -0.03200000151991844, 0.17600000835955143, 1.0240000486373901, 0.0, 0.0, 0.0, 0.0, 0.0, 1.7632262447974255E9, 0.0, 2025-11-15 12:04:04.797
67.0, 1966.5067149009556, 75.70492485305294, 34.47439779154956, 38.687395091634244, -0.03200000151991844, 0.17600000835955143, 1.0240000486373901, 0.0, 0.0, 0.0, 0.0, 0.0, 1.7632262447974255E9, 0.0, 2025-11-15 12:04:04.797
68.0, 2192.7388730705716, -159.7965753567405, -170.34870308171958, -142.5631163609214, -0.03200000151991844, 0.17600000835955143, 1.0240000486373901, 0.0, 0.0, 0.0, 0.0, 0.0, 1.7632262448131256E9, 0.0, 2025-11-15 12:04:04.813
68.0, 2257.9851676975377, -111.74260082608089, -152.6253171917051, -122.6331894970499, -0.03200000151991844, 0.17600000835955143, 1.0240000486373901, 0.0, 0.0, 0.0, 0.0, 0.0, 1.7632262448131256E9, 0.0, 2025-11-15 12:04:04.813
69.0, 2019.8788271686062, 112.99546731123701, 48.30454782769084, 51.21979984315112, -0.03200000151991844, 0.17600000835955143, 1.0240000486373901, 0.0, 0.0, 0.0, 0.0, 0.0, 1.7632262448137918E9, 0.0, 2025-11-15 12:04:04.813
69.0, 2238.863059224095, -115.06737188668922, -126.82748729735613, -98.40611758409068, -0.03200000151991844, 0.17600000835955143, 1.0240000486373901, 0.0, 0.0, 0.0, 0.0, 0.0, 1.7632262448137918E9, 0.0, 2025-11-15 12:04:04.813
70.0, 2201.8455294626765, -157.43295858474448, -182.10320864245296, -154.15306632360443, -0.03200000151991844, 0.17600000835955143, 1.0240000486373901, 0.0, 0.0, 0.0, 0.0, 0.0, 1.7632262448274257E9, 0.0, 2025-11-15 12:04:04.827
70.0, 1974.8803509017453, 77.15600603586063, 2.3561369720846415, 0.16642554802820086, -0.03200000151991844, 0.17600000835955143, 1.0240000486373901, 0.0, 0.0, 0.0, 0.0, 0.0, 1.7632262448274257E9, 0.0, 2025-11-15 12:04:04.827
71.0, 1856.882767399773, -9.961223531980067, -34.867087286897004, -23.59315887046978, -0.03200000151991844, 0.17600000835955143, 1.0240000486373901, 0.0, 0.0, 0.0, 0.0, 0.0, 1.7632262448430738E9, 0.0, 2025-11-15 12:04:04.843
71.0, 1701.31414894294, -164.44901090161875, -185.22602510545403, -154.78884931607172, -0.03200000151991844, 0.17600000835955143, 1.0240000486373901, 0.0, 0.0, 0.0, 0.0, 0.0, 1.7632262448430738E9, 0.0, 2025-11-15 12:04:04.843
72.0, 1851.5571498628706, -32.10143126966432, -86.58616377413273, -71.47883790312335, -0.03200000151991844, 0.17600000835955143, 1.0240000486373901, 0.0, 0.0, 0.0, 0.0, 0.0, 1.7632262448438144E9, 0.0, 2025-11-15 12:04:04.843
72.0, 1962.8266533445567, 76.66607914166525, 34.829688287340105, 41.503539758268744, -0.03200000151991844, 0.17600000835955143, 1.0240000486373901, 0.0, 0.0, 0.0, 0.0, 0.0, 1.7632262448438144E9, 0.0, 2025-11-15 12:04:04.843
73.0, 2193.0904236664064, -153.73419752856717, -170.4122813809663, -145.76073082303628, -0.03200000151991844, 0.17600000835955143, 1.0240000486373901, 0.0, 0.0, 0.0, 0.0, 0.0, 1.7632262448574152E9, 0.0, 2025-11-15 12:04:04.857
73.0, 2255.7935863235034, -109.89135034801438, -148.61614443920553, -126.04771815659478, -0.03200000151991844, 0.17600000835955143, 1.0240000486373901, 0.0, 0.0, 0.0, 0.0, 0.0, 1.7632262448574152E9, 0.0, 2025-11-15 12:04:04.857
74.0, 2023.293355828151, 125.71112716058269, 65.61280482262373, 65.22946507716551, -0.03200000151991844, 0.17600000835955143, 1.0240000486373901, 0.0, 0.0, 0.0, 0.0, 0.0, 1.7632262448730955E9, 0.0, 2025-11-15 12:04:04.873
74.0, 2238.3880919297226, -105.33241230202839, -110.3494880925864, -98.72774898028001, -0.03200000151991844, 0.17600000835955143, 1.0240000486373901, 0.0, 0.0, 0.0, 0.0, 0.0, 1.7632262448730955E9, 0.0, 2025-11-15 12:04:04.873
75.0, 2208.5661296830513, -155.73878390481696, -182.2752440404147, -164.22835680423304, -0.03200000151991844, 0.17600000835955143, 1.0240000486373901, 0.0, 0.0, 0.0, 0.0, 0.0, 1.763226244873799E9, 0.0, 2025-11-15 12:04:04.873
75.0, 1976.0845986874774, 67.20413225376979, 0.5011465940624475, 0.11032704869285226, -0.03200000151991844, 0.17600000835955143, 1.0240000486373901, 0.0, 0.0, 0.0, 0.0, 0.0, 1.763226244873799E9, 0.0, 2025-11-15 12:04:04.873
76.0, 1856.7182118017226, -13.794620986562222, -30.24457094166428, -22.867618279065937, -0.03200000151991844, 0.17600000835955143, 1.0240000486373901, 0.0, 0.0, 0.0, 0.0, 0.0, 1.763226244887394E9, 0.0, 2025-11-15 12:04:04.887
76.0, 1698.0978349810466, -166.5059558772482, -181.9386530444026, -158.63720637047663, -0.03200000151991844, 0.17600000835955143, 1.0240000486373901, 0.0, 0.0, 0.0, 0.0, 0.0, 1.763226244887394E9, 0.0, 2025-11-15 12:04:04.887
77.0, 1862.0961879380047, -34.11349744582549, -86.76193907205015, -69.72108492394909, -0.03200000151991844, 0.17600000835955143, 1.0240000486373901, 0.0, 0.0, 0.0, 0.0, 0.0, 1.7632262449194813E9, 0.0, 2025-11-15 12:04:04.919
77.0, 1968.3205663794652, 76.74835694069043, 34.362200792878866, 40.90889566531405, -0.03200000151991844, 0.17600000835955143, 1.0240000486373901, 0.0, 0.0, 0.0, 0.0, 0.0, 1.7632262449194813E9, 0.0, 2025-11-15 12:04:04.919
78.0, 2186.19778804807, -163.14004591712728, -169.5296649914235, -152.3915734444745, -0.03200000151991844, 0.17600000835955143, 1.0240000486373901, 0.0, 0.0, 0.0, 0.0, 0.0, 1.7632262449201825E9, 0.0, 2025-11-15 12:04:04.920
78.0, 2250.733501683455, -117.93213525274768, -148.50394744053483, -133.74069236544892, -0.03200000151991844, 0.17600000835955143, 1.0240000486373901, 0.0, 0.0, 0.0, 0.0, 0.0, 1.7632262449201825E9, 0.0, 2025-11-15 12:04:04.920
79.0, 2018.1173342894763, 117.64790285611525, 56.25183523353189, 52.08371673291549, -0.03200000151991844, 0.17600000835955143, 1.0240000486373901, 0.0, 0.0, 0.0, 0.0, 0.0, 1.7632262449209256E9, 0.0, 2025-11-15 12:04:04.920
79.0, 2233.7356563848443, -114.42410909431055, -123.56629453599453, -104.50215451186523, -0.03200000151991844, 0.17600000835955143, 1.0240000486373901, 0.0, 0.0, 0.0, 0.0, 0.0, 1.7632262449209256E9, 0.0, 2025-11-15 12:04:04.920
80.0, 2208.8054832802154, -158.34549417393282, -185.9777449965477, -166.62563267583027, -0.03200000151991844, 0.17600000835955143, 1.0400000493973494, 0.0, 0.0, 0.0, 0.0, 0.0, 1.7632262449216862E9, 0.0, 2025-11-15 12:04:04.921
80.0, 2449.613901527133, 61.583062620367855, -7.502239311113954, -8.28574835183099, -0.03200000151991844, 0.17600000835955143, 1.0400000493973494, 0.0, 0.0, 0.0, 0.0, 0.0, 1.7632262449216862E9, 0.0, 2025-11-15 12:04:04.921
81.0, 2343.2810659869574, -15.802947262767702, -39.11561363656074, -25.766040744725615, -0.03200000151991844, 0.17600000835955143, 1.0400000493973494, 0.0, 0.0, 0.0, 0.0, 0.0, 1.7632262449324217E9, 0.0, 2025-11-15 12:04:04.932
81.0, 2178.4711547396146, -174.13161188689992, -191.04156953655183, -166.77148877410218, -0.03200000151991844, 0.17600000835955143, 1.0400000493973494, 0.0, 0.0, 0.0, 0.0, 0.0, 1.7632262449324217E9, 0.0, 2025-11-15 12:04:04.932
82.0, 2352.94496747246, -29.96220849500969, -81.89632922969759, -71.66583290090784, -0.03200000151991844, 0.17600000835955143, 1.0400000493973494, 0.0, 0.0, 0.0, 0.0, 0.0, 1.7632262449474225E9, 0.0, 2025-11-15 12:04:04.947
82.0, 2456.5551558448933, 82.56016147183254, 47.12273944169283, 50.41946125263348, -0.03200000151991844, 0.17600000835955143, 1.0400000493973494, 0.0, 0.0, 0.0, 0.0, 0.0, 1.7632262449474225E9, 0.0, 2025-11-15 12:04:04.947
83.0, 2682.828452914022, -160.5071563483216, -166.73221982456744, -145.57747572520748, -0.03200000151991844, 0.17600000835955143, 1.0400000493973494, 0.0, 0.0, 0.0, 0.0, 0.0, 1.7632262449630797E9, 0.0, 2025-11-15 12:04:04.963
83.0, 2740.7856825273484, -117.28139266045764, -151.16301630903035, -133.2320659714751, -0.03200000151991844, 0.17600000835955143, 1.0400000493973494, 0.0, 0.0, 0.0, 0.0, 0.0, 1.7632262449630797E9, 0.0, 2025-11-15 12:04:04.963
84.0, 2514.1533550624736, 119.73102713143453, 60.87061167880893, 57.499091868754476, -0.03200000151991844, 0.17600000835955143, 1.0400000493973494, 0.0, 0.0, 0.0, 0.0, 0.0, 1.7632262449637637E9, 0.0, 2025-11-15 12:04:04.963
84.0, 2722.867821839638, -113.81076550157741, -117.81058850418776, -101.52893404709175, -0.03200000151991844, 0.17600000835955143, 1.0400000493973494, 0.0, 0.0, 0.0, 0.0, 0.0, 1.7632262449637637E9, 0.0, 2025-11-15 12:04:04.963
85.0, 2677.8880450725555, -163.1662252168171, -187.24557108152658, -161.2027777400799, -0.03200000151991844, 0.17600000835955143, 1.0400000493973494, 0.0, 0.0, 0.0, 0.0, 0.0, 1.7632262449774177E9, 0.0, 2025-11-15 12:04:04.977
85.0, 2464.2855290533043, 74.35482096904889, 3.182654862292111, 9.635852235835046, -0.03200000151991844, 0.17600000835955143, 1.0400000493973494, 0.0, 0.0, 0.0, 0.0, 0.0, 1.7632262449774177E9, 0.0, 2025-11-15 12:04:04.977
86.0, 2346.927468443755, -12.638991900254041, -27.83233547024429, -18.551773730199784, -0.03200000151991844, 0.17600000835955143, 1.0400000493973494, 0.0, 0.0, 0.0, 0.0, 0.0, 1.7632262449930685E9, 0.0, 2025-11-15 12:04:04.993
86.0, 2181.941781898495, -172.28036140883341, -180.94757955614477, -167.280115168076, -0.03200000151991844, 0.17600000835955143, 1.0400000493973494, 0.0, 0.0, 0.0, 0.0, 0.0, 1.7632262449930685E9, 0.0, 2025-11-15 12:04:04.993
87.0, 2352.7617123746313, -29.9958675946109, -79.51401295792311, -70.61118111340329, -0.03200000151991844, 0.17600000835955143, 1.0400000493973494, 0.0, 0.0, 0.0, 0.0, 0.0, 1.7632262449937608E9, 0.0, 2025-11-15 12:04:04.993
87.0, 2457.3031358360313, 85.91485173208639, 48.480323125608265, 46.679561296943575, -0.03200000151991844, 0.17600000835955143, 1.0400000493973494, 0.0, 0.0, 0.0, 0.0, 0.0, 1.7632262449937608E9, 0.0, 2025-11-15 12:04:04.993
88.0, 2689.627591033466, -155.04316251305863, -158.43712172284722, -138.32580971112475, -0.03200000151991844, 0.17600000835955143, 1.0400000493973494, 0.0, 0.0, 0.0, 0.0, 0.0, 1.7632262450073895E9, 0.0, 2025-11-15 12:04:05.007
88.0, 2736.3726005796343, -117.38610985921696, -148.78070003725588, -124.89956887019798, -0.03200000151991844, 0.17600000835955143, 1.0400000493973494, 0.0, 0.0, 0.0, 0.0, 0.0, 1.7632262450073895E9, 0.0, 2025-11-15 12:04:05.007
89.0, 2513.072523975279, 119.67866853205487, 63.32024614978582, 61.138014525640756, -0.03200000151991844, 0.17600000835955143, 1.0400000493973494, 0.0, 0.0, 0.0, 0.0, 0.0, 1.7632262450230556E9, 0.0, 2025-11-15 12:04:05.023
89.0, 2743.878579790704, -99.03816067660227, -104.60126186069101, -88.97034999588504, -0.03200000151991844, 0.17600000835955143, 1.0400000493973494, 0.0, 0.0, 0.0, 0.0, 0.0, 1.7632262450230556E9, 0.0, 2025-11-15 12:04:05.023
90.0, 2695.263620266691, -151.43041915586218, -176.13806821312755, -154.89730641478673, -0.03200000151991844, 0.17600000835955143, 1.0240000486373901, 0.0, 0.0, 0.0, 0.0, 0.0, 1.763226245023758E9, 0.0, 2025-11-15 12:04:05.023
90.0, 2457.7444440308027, 70.08385521965101, 2.580530969426036, 4.867479792330414, -0.03200000151991844, 0.17600000835955143, 1.0240000486373901, 0.0, 0.0, 0.0, 0.0, 0.0, 1.763226245023758E9, 0.0, 2025-11-15 12:04:05.023
91.0, 2355.020611947868, -4.946017691399902, -19.929926863871515, -15.182123870123178, -0.03200000151991844, 0.17600000835955143, 1.0240000486373901, 0.0, 0.0, 0.0, 0.0, 0.0, 1.7632262450373695E9, 0.0, 2025-11-15 12:04:05.037
91.0, 2190.5547714964487, -162.73987662186846, -174.0437242379412, -147.84011519839987, -0.03200000151991844, 0.17600000835955143, 1.0240000486373901, 0.0, 0.0, 0.0, 0.0, 0.0, 1.7632262450373695E9, 0.0, 2025-11-15 12:04:05.037
92.0, 2339.9488151264377, -33.68714885087684, -88.69172744918615, -79.13441311242059, -0.03200000151991844, 0.17600000835955143, 1.0240000486373901, 0.0, 0.0, 0.0, 0.0, 0.0, 1.7632262450530999E9, 0.0, 2025-11-15 12:04:05.053
92.0, 2467.5130627150647, 88.1700114053674, 47.52664863690734, 50.340923353563994, -0.03200000151991844, 0.17600000835955143, 1.0240000486373901, 0.0, 0.0, 0.0, 0.0, 0.0, 1.7632262450530999E9, 0.0, 2025-11-15 12:04:05.053
93.0, 2691.3816041126847, -149.68762577651069, -157.595644232817, -141.7926969700493, -0.03200000151991844, 0.17600000835955143, 1.0240000486373901, 0.0, 0.0, 0.0, 0.0, 0.0, 1.76322624505381E9, 0.0, 2025-11-15 12:04:05.053
93.0, 2749.2602958269417, -112.15398982120678, -148.477768140845, -131.0442244973965, -0.03200000151991844, 0.17600000835955143, 1.0240000486373901, 0.0, 0.0, 0.0, 0.0, 0.0, 1.76322624505381E9, 0.0, 2025-11-15 12:04:05.053
94.0, 2514.3141707605682, 123.62052308535203, 60.571419682353735, 59.915067240130156, -0.03200000151991844, 0.17600000835955143, 1.0240000486373901, 0.0, 0.0, 0.0, 0.0, 0.0, 1.7632262450673742E9, 0.0, 2025-11-15 12:04:05.067
94.0, 2754.709330062382, -85.82509413314983, -94.54093097988516, -89.10872629424557, -0.03200000151991844, 0.17600000835955143, 1.0240000486373901, 0.0, 0.0, 0.0, 0.0, 0.0, 1.7632262450673742E9, 0.0, 2025-11-15 12:04:05.067
95.0, 2705.028499050997, -143.37467465130612, -168.96867999807, -151.722131352406, -0.03200000151991844, 0.17600000835955143, 1.0240000486373901, 0.0, 0.0, 0.0, 0.0, 0.0, 1.7632262450831E9, 0.0, 2025-11-15 12:04:05.083
95.0, 2466.4808503272943, 80.75004989327863, 17.465332793071866, 11.05701421899721, -0.03200000151991844, 0.17600000835955143, 1.0240000486373901, 0.0, 0.0, 0.0, 0.0, 0.0, 1.7632262450831E9, 0.0, 2025-11-15 12:04:05.083
96.0, 2369.4379262770526, 14.082593283150345, 0.029919199645519257, 4.680484794545919, -0.03200000151991844, 0.17600000835955143, 1.0240000486373901, 0.0, 0.0, 0.0, 0.0, 0.0, 1.7632262450838149E9, 0.0, 2025-11-15 12:04:05.083
96.0, 2206.3334094095044, -139.1598074012436, -149.4090032298118, -132.28587128268555, -0.03200000151991844, 0.17600000835955143, 1.0240000486373901, 0.0, 0.0, 0.0, 0.0, 0.0, 1.7632262450838149E9, 0.0, 2025-11-15 12:04:05.083
97.0, 2362.1526011633687, -16.382631755899638, -68.05121959373355, -58.733258854132146, -0.03200000151991844, 0.17600000835955143, 1.0240000486373901, 0.0, 0.0, 0.0, 0.0, 0.0, 1.763226245097408E9, 0.0, 2025-11-15 12:04:05.097
97.0, 2482.756894934457, 107.80074627278373, 70.89728346001357, 70.98517110897228, -0.03200000151991844, 0.17600000835955143, 1.0240000486373901, 0.0, 0.0, 0.0, 0.0, 0.0, 1.763226245097408E9, 0.0, 2025-11-15 12:04:05.097
98.0, 2706.502019633539, -133.99126566248015, -136.23333568591624, -122.00862620444968, -0.03200000151991844, 0.17600000835955143, 1.0240000486373901, 0.0, 0.0, 0.0, 0.0, 0.0, 1.763226245113123E9, 0.0, 2025-11-15 12:04:05.113
98.0, 2757.446936829947, -102.61350503424183, -138.3575988607481, -119.25605983706191, -0.03200000151991844, 0.17600000835955143, 1.0240000486373901, 0.0, 0.0, 0.0, 0.0, 0.0, 1.763226245113123E9, 0.0, 2025-11-15 12:04:05.113
99.0, 2528.1592803965323, 139.4216003981419, 82.03470552805811, 83.01268936647102, -0.03200000151991844, 0.17600000835955143, 1.0240000486373901, 0.0, 0.0, 0.0, 0.0, 0.0, 1.763226245113825E9, 0.0, 2025-11-15 12:04:05.113
99.0, 2765.1473908387125, -68.45325883897021, -74.18839542102069, -64.06261629099026, -0.03200000151991844, 0.17600000835955143, 1.0240000486373901, 0.0, 0.0, 0.0, 0.0, 0.0, 1.763226245113825E9, 0.0, 2025-11-15 12:04:05.113
100.0, 2711.7902381708845, -135.4124276456423, -154.61120406817645, -134.5634703557007, -0.03200000151991844, 0.17600000835955143, 1.0240000486373901, 0.0, 0.0, 0.0, 0.0, 0.0, 1.7632262451281703E9, 0.0, 2025-11-15 12:04:05.128
100.0, 2469.2408964945935, 80.70143119385466, 13.142008444294333, 14.501462078187615, -0.03200000151991844, 0.17600000835955143, 1.0240000486373901, 0.0, 0.0, 0.0, 0.0, 0.0, 1.7632262451281703E9, 0.0, 2025-11-15 12:04:05.128
0.0, -68.68326268624514, 24.664640207774937, -1.9204386272467673, 3.5211158082820475, -0.03200000151991844, 0.17600000835955143, 1.0240000486373901, 0.0, 0.0, 0.0, 0.0, 0.0, 1.7632262451288257E9, 0.0, 2025-11-15 12:04:05.128
1.0, -241.31330474093556, -145.78130027279258, -162.10409362940118, -146.47879161452875, -0.03200000151991844, 0.17600000835955143, 1.0240000486373901, 0.0, 0.0, 0.0, 0.0, 0.0, 1.7632262451423755E9, 0.0, 2025-11-15 12:04:05.142
1.0, -93.01879169791937, -19.391381270252168, -74.06310877250507, -68.27748354105279, -0.03200000151991844, 0.17600000835955143, 1.0240000486373901, 0.0, 0.0, 0.0, 0.0, 0.0, 1.7632262451423755E9, 0.0, 2025-11-15 12:04:05.142
2.0, 34.51927659101784, 98.83807602897286, 57.34949587052688, 55.42344739334658, -0.03200000151991844, 0.17600000835955143, 1.0240000486373901, 0.0, 0.0, 0.0, 0.0, 0.0, 1.76322624515787E9, 0.0, 2025-11-15 12:04:05.157
2.0, 248.97448980016634, -140.42576353624463, -148.12060769507661, -135.3002306469716, -0.03200000151991844, 0.17600000835955143, 1.0240000486373901, 0.0, 0.0, 0.0, 0.0, 0.0, 1.76322624515787E9, 0.0, 2025-11-15 12:04:05.157
3.0, 297.6343281236477, -109.83712179865688, -144.59762193681672, -127.23326644254848, -0.03200000151991844, 0.17600000835955143, 1.0240000486373901, 0.0, 0.0, 0.0, 0.0, 0.0, 1.7632262451731124E9, 0.0, 2025-11-15 12:04:05.173
3.0, 63.346425449475646, 120.04330877773464, 62.08046931447461, 54.54831080371514, -0.03200000151991844, 0.17600000835955143, 1.0240000486373901, 0.0, 0.0, 0.0, 0.0, 0.0, 1.7632262451731124E9, 0.0, 2025-11-15 12:04:05.173
4.0, 299.6725735994987, -92.8953749993816, -101.46909564780071, -90.0250017833896, -0.03200000151991844, 0.17600000835955143, 1.0240000486373901, 0.0, 0.0, 0.0, 0.0, 0.0, 1.7632262451738088E9, 0.0, 2025-11-15 12:04:05.173
4.0, 253.7727814433165, -145.48584817629308, -168.36842605518177, -152.93011903809384, -0.03200000151991844, 0.17600000835955143, 1.0240000486373901, 0.0, 0.0, 0.0, 0.0, 0.0, 1.7632262451738088E9, 0.0, 2025-11-15 12:04:05.173
5.0, 486.5890334849246, 61.742008368484676, -6.4606771734543145, -7.8668795567937195, -0.03200000151991844, 0.17600000835955143, 1.0240000486373901, 0.0, 0.0, 0.0, 0.0, 0.0, 1.7632262451880956E9, 0.0, 2025-11-15 12:04:05.188
5.0, 402.5871405801736, 0.0523585993796587, -18.484455530997366, -19.48300881916657, -0.03200000151991844, 0.17600000835955143, 1.0240000486373901, 0.0, 0.0, 0.0, 0.0, 0.0, 1.7632262451880956E9, 0.0, 2025-11-15 12:04:05.188
6.0, 232.52266989508644, -157.2179143372923, -181.66751029761508, -173.99697548849508, -0.03200000151991844, 0.17600000835955143, 1.0240000486373901, 0.0, 0.0, 0.0, 0.0, 0.0, 1.7632262451888475E9, 0.0, 2025-11-15 12:04:05.188
6.0, 384.3065095967613, -33.40478640422225, -91.04599447129294, -83.52505566040054, -0.03200000151991844, 0.17600000835955143, 1.0240000486373901, 0.0, 0.0, 0.0, 0.0, 0.0, 1.7632262451888475E9, 0.0, 2025-11-15 12:04:05.188
7.0, 503.87111118016765, 82.87618301808834, 40.17961517395452, 40.47132737049833, -0.03200000151991844, 0.17600000835955143, 1.0240000486373901, 0.0, 0.0, 0.0, 0.0, 0.0, 1.7632262452023623E9, 0.0, 2025-11-15 12:04:05.202
7.0, 728.169741072692, -158.8185915183276, -170.7245630272664, -147.30530950473621, -0.03200000151991844, 0.17600000835955143, 1.0240000486373901, 0.0, 0.0, 0.0, 0.0, 0.0, 1.7632262452023623E9, 0.0, 2025-11-15 12:04:05.202
8.0, 770.4567898716778, -133.03198132384568, -164.62478619953617, -148.718991687987, -0.03200000151991844, 0.17600000835955143, 1.0240000486373901, 0.0, 0.0, 0.0, 0.0, 0.0, 1.7632262452181292E9, 0.0, 2025-11-15 12:04:05.218
8.0, 533.6893335268833, 100.43875321000814, 39.53261248162016, 37.849657501559705, -0.03200000151991844, 0.17600000835955143, 1.0240000486373901, 0.0, 0.0, 0.0, 0.0, 0.0, 1.7632262452181292E9, 0.0, 2025-11-15 12:04:05.218
9.0, 768.8299333909526, -117.29822221025825, -125.6363291614689, -107.48659467650577, -0.03200000151991844, 0.17600000835955143, 1.0240000486373901, 0.0, 0.0, 0.0, 0.0, 0.0, 1.7632262452188349E9, 0.0, 2025-11-15 12:04:05.218
9.0, 710.1583828860894, -185.13626750651747, -209.1520350719802, -181.83580579562113, -0.03200000151991844, 0.17600000835955143, 1.0240000486373901, 0.0, 0.0, 0.0, 0.0, 0.0, 1.7632262452188349E9, 0.0, 2025-11-15 12:04:05.218
10.0, 954.0222993968055, 24.12609461415559, -39.96644087648019, -30.02204689430073, -0.03200000151991844, 0.17600000835955143, 1.0240000486373901, 0.0, 0.0, 0.0, 0.0, 0.0, 1.7632262452651262E9, 0.0, 2025-11-15 12:04:05.265
10.0, 879.7927650762722, -22.8994074286893, -44.88814921816811, -30.83734508464113, -0.03200000151991844, 0.17600000835955143, 1.0240000486373901, 0.0, 0.0, 0.0, 0.0, 0.0, 1.7632262452651262E9, 0.0, 2025-11-15 12:04:05.265
11.0, 701.5079942885786, -184.00681771989912, -198.77007279498503, -173.74266229150817, -0.03200000151991844, 0.1600000075995922, 1.0240000486373901, 0.0, 0.0, 0.0, 0.0, 0.0, 1.7632262452658367E9, 0.0, 2025-11-15 12:04:05.265
11.0, 841.1932576335967, -66.76843390893191, -120.74827991938218, -101.36811834899709, -0.03200000151991844, 0.1600000075995922, 1.0240000486373901, 0.0, 0.0, 0.0, 0.0, 0.0, 1.7632262452658367E9, 0.0, 2025-11-15 12:04:05.265
12.0, 971.4951119897887, 60.34328578505665, 22.34029238531366, 29.20300880400464, -0.03200000151991844, 0.1600000075995922, 1.0240000486373901, 0.0, 0.0, 0.0, 0.0, 0.0, 1.7632262452666097E9, 0.0, 2025-11-15 12:04:05.266
12.0, 1196.6352193723433, -178.92429368011653, -184.83894546004012, -160.01348955417052, -0.03200000151991844, 0.1600000075995922, 1.0240000486373901, 0.0, 0.0, 0.0, 0.0, 0.0, 1.7632262452666097E9, 0.0, 2025-11-15 12:04:05.266
13.0, 1238.0957502811216, -151.09943800978363, -183.01761418161914, -156.33342799777165, -0.03200000151991844, 0.1600000075995922, 1.0240000486373901, 0.0, 0.0, 0.0, 0.0, 0.0, 1.7632262452673423E9, 0.0, 2025-11-15 12:04:05.267
13.0, 1008.6958968490362, 87.03121186885983, 22.994774877559394, 32.38940356625244, -0.03200000151991844, 0.1600000075995922, 1.0240000486373901, 0.0, 0.0, 0.0, 0.0, 0.0, 1.7632262452673423E9, 0.0, 2025-11-15 12:04:05.267
14.0, 766.425177719444, -112.9038397623226, -126.60496324999258, -102.20211603911594, -0.03200000151991844, 0.1600000075995922, 1.0240000486373901, 0.0, 0.0, 0.0, 0.0, 0.0, 1.7632262452781463E9, 0.0, 2025-11-15 12:04:05.278
14.0, 713.9805606408045, -180.37163496296853, -203.5646245381795, -175.92676386563107, -0.03200000151991844, 0.1600000075995922, 1.0240000486373901, 0.0, 0.0, 0.0, 0.0, 0.0, 1.7632262452781463E9, 0.0, 2025-11-15 12:04:05.278
15.0, 949.6241770489141, 26.257837588898838, -42.700307744089514, -29.879930695984513, -0.03200000151991844, 0.1600000075995922, 1.0240000486373901, 0.0, 0.0, 0.0, 0.0, 0.0, 1.7632262452788444E9, 0.0, 2025-11-15 12:04:05.278
15.0, 870.8020455827937, -29.01040395628661, -55.62540199095383, -40.50498647009954, -0.03200000151991844, 0.1600000075995922, 1.0240000486373901, 0.0, 0.0, 0.0, 0.0, 0.0, 1.7632262452788444E9, 0.0, 2025-11-15 12:04:05.278
16.0, 701.2836002912372, -186.80426288675517, -208.88276227517053, -175.59391276957467, -0.03200000151991844, 0.1600000075995922, 1.0240000486373901, 0.0, 0.0, 0.0, 0.0, 0.0, 1.7632262452924151E9, 0.0, 2025-11-15 12:04:05.292
16.0, 846.3430998725817, -74.02009992301464, -129.8212772118859, -107.21358197974041, -0.03200000151991844, 0.1600000075995922, 1.0240000486373901, 0.0, 0.0, 0.0, 0.0, 0.0, 1.7632262452924151E9, 0.0, 2025-11-15 12:04:05.292
17.0, 975.0629765475169, 58.581792905926704, 14.909111173357815, 30.519453588407487, -0.03200000151991844, 0.1600000075995922, 1.0240000486373901, 0.0, 0.0, 0.0, 0.0, 0.0, 1.7632262453081388E9, 0.0, 2025-11-15 12:04:05.308
17.0, 1195.3524336875416, -178.3782682865858, -192.2963059716858, -152.48507094336674, -0.03200000151991844, 0.1600000075995922, 1.0240000486373901, 0.0, 0.0, 0.0, 0.0, 0.0, 1.7632262453081388E9, 0.0, 2025-11-15 12:04:05.308
18.0, 1252.5916025093757, -146.63399746268988, -182.90167728299275, -160.1294264527969, -0.03200000151991844, 0.1600000075995922, 1.0240000486373901, 0.0, 0.0, 0.0, 0.0, 0.0, 1.7632262453088362E9, 0.0, 2025-11-15 12:04:05.308
18.0, 1022.0024608913809, 95.32630997058004, 26.873051131609827, 28.944955707062036, -0.03200000151991844, 0.1600000075995922, 1.0240000486373901, 0.0, 0.0, 0.0, 0.0, 0.0, 1.7632262453088362E9, 0.0, 2025-11-15 12:04:05.308
19.0, 1252.80477680685, -124.04500173032284, -132.34944958193228, -110.39249694207683, -0.03200000151991844, 0.1600000075995922, 1.0240000486373901, 0.0, 0.0, 0.0, 0.0, 0.0, 1.76322624533878E9, 0.0, 2025-11-15 12:04:05.338
19.0, 1210.73838210525, -173.5986761432141, -199.58537098532543, -169.7260097390972, -0.03200000151991844, 0.1600000075995922, 1.0240000486373901, 0.0, 0.0, 0.0, 0.0, 0.0, 1.76322624533878E9, 0.0, 2025-11-15 12:04:05.338
20.0, 977.4265933195129, 41.40069250948727, -25.855798343662173, -11.408564814832062, -0.03200000151991844, 0.1600000075995922, 1.0240000486373901, 0.0, 0.0, 0.0, 0.0, 0.0, 1.7632262453394716E9, 0.0, 2025-11-15 12:04:05.339
20.0, 877.5413453029469, -17.577529791742563, -43.79609843110666, -27.52753362385556, -0.03200000151991844, 0.1600000075995922, 1.0240000486373901, 0.0, 0.0, 0.0, 0.0, 0.0, 1.7632262453394716E9, 0.0, 2025-11-15 12:04:05.339
21.0, 701.08164569363, -180.6820466592908, -208.28063838230446, -178.98226212942973, -0.03200000151991844, 0.1600000075995922, 1.0240000486373901, 0.0, 0.0, 0.0, 0.0, 0.0, 1.7632262453402233E9, 0.0, 2025-11-15 12:04:05.340
21.0, 857.387024441734, -60.02165438886732, -123.35499018849805, -101.28210065001622, -0.03200000151991844, 0.1600000075995922, 1.0240000486373901, 0.0, 0.0, 0.0, 0.0, 0.0, 1.7632262453402233E9, 0.0, 2025-11-15 12:04:05.340
22.0, 993.4408449297771, 68.82911878451705, 17.396144643891603, 32.05655247019604, -0.03200000151991844, 0.1600000075995922, 1.0240000486373901, 0.0, 0.0, 0.0, 0.0, 0.0, 1.7632262453524191E9, 0.0, 2025-11-15 12:04:05.352
22.0, 1193.370286711026, 313.0614154408686, -192.61793736787513, -158.23329717526212, -0.03200000151991844, 0.1600000075995922, 1.0240000486373901, 0.0, 0.0, 0.0, 0.0, 0.0, 1.7632262453524191E9, 0.0, 2025-11-15 12:04:05.352
23.0, 1258.317389341537, 352.9362287684344, -179.8050401196815, -148.236544593703, -0.03200000151991844, 0.1600000075995922, 1.0240000486373901, 0.0, 0.0, 0.0, 0.0, 0.0, 1.7632262453681085E9, 0.0, 2025-11-15 12:04:05.368
23.0, 1029.3476244043559, 588.3479713792913, 28.82901880843565, 45.112543215509504, -0.03200000151991844, 0.1600000075995922, 1.0240000486373901, 0.0, 0.0, 0.0, 0.0, 0.0, 1.7632262453681085E9, 0.0, 2025-11-15 12:04:05.368
24.0, 1256.3202827651985, 371.55345074785873, -131.83708328800276, -104.74150810902938, -0.03200000151991844, 0.1600000075995922, 1.0240000486373901, 0.0, 0.0, 0.0, 0.0, 0.0, 1.7632262453688269E9, 0.0, 2025-11-15 12:04:05.368
24.0, 1212.6644305824302, 316.0196763058193, -202.61095004947856, -169.59511324064806, -0.03200000151991844, 0.1600000075995922, 1.0240000486373901, 0.0, 0.0, 0.0, 0.0, 0.0, 1.7632262453688269E9, 0.0, 2025-11-15 12:04:05.368
25.0, 975.3771281437948, 538.7194989672862, -21.214582498650998, -8.338106951210648, -0.03200000151991844, 0.1600000075995922, 1.0240000486373901, 0.0, 0.0, 0.0, 0.0, 0.0, 1.7632262453824377E9, 0.0, 2025-11-15 12:04:05.382
25.0, 884.7069936180487, 480.67999155493453, -37.382170007098466, -19.89439781429246, -0.03200000151991844, 0.1600000075995922, 1.0240000486373901, 0.0, 0.0, 0.0, 0.0, 0.0, 1.7632262453824377E9, 0.0, 2025-11-15 12:04:05.382
26.0, 705.1282174456865, 310.982031065505, -197.4461482106708, -172.20182350976393, -0.03200000151991844, 0.1600000075995922, 1.0240000486373901, 0.0, 0.0, 0.0, 0.0, 0.0, 1.7632262453981116E9, 0.0, 2025-11-15 12:04:05.398
26.0, 865.0500794509426, 439.4775137430988, -106.4394226889126, -90.15963818179443, -0.03200000151991844, 0.1600000075995922, 1.0240000486373901, 0.0, 0.0, 0.0, 0.0, 0.0, 1.7632262453981116E9, 0.0, 2025-11-15 12:04:05.398
27.0, 996.4252850944176, 569.0762669076212, 27.699569021817297, 42.38615614781156, -0.03200000151991844, 0.1600000075995922, 1.0240000486373901, 0.0, 0.0, 0.0, 0.0, 0.0, 1.7632262453988214E9, 0.0, 2025-11-15 12:04:05.398
27.0, 1205.23698927043, 324.6551053035073, -180.26878771418706, -152.47759114345536, -0.03200000151991844, 0.1600000075995922, 1.0240000486373901, 0.0, 0.0, 0.0, 0.0, 0.0, 1.7632262453988214E9, 0.0, 2025-11-15 12:04:05.398
28.0, 1253.986585192848, 353.38875666307285, -171.86149261379614, -145.824309122283, -0.03200000151991844, 0.1600000075995922, 1.0240000486373901, 0.0, 0.0, 0.0, 0.0, 0.0, 1.7632262454124496E9, 0.0, 2025-11-15 12:04:05.412
28.0, 1027.8853235216811, 591.8859167373739, 31.353451278526336, 41.028572463896126, -0.03200000151991844, 0.1600000075995922, 1.0240000486373901, 0.0, 0.0, 0.0, 0.0, 0.0, 1.7632262454124496E9, 0.0, 2025-11-15 12:04:05.412
29.0, 1255.0337571804412, 367.4545203964226, -129.0770371207036, -96.49128880677745, -0.03200000151991844, 0.1600000075995922, 1.0240000486373901, 0.0, 0.0, 0.0, 0.0, 0.0, 1.7632262454280925E9, 0.0, 2025-11-15 12:04:05.428
29.0, 1206.4374971562065, 311.4345589601435, -204.3051247294061, -171.29676772048697, -0.03200000151991844, 0.1600000075995922, 1.0240000486373901, 0.0, 0.0, 0.0, 0.0, 0.0, 1.7632262454280925E9, 0.0, 2025-11-15 12:04:05.428
30.0, 968.8771820208058, 534.4597529177554, -27.344278526026756, -16.30035395687446, -0.03200000151991844, 0.1600000075995922, 1.0240000486373901, 0.0, 0.0, 0.0, 0.0, 0.0, 1.7632262454288049E9, 0.0, 2025-11-15 12:04:05.428
30.0, 875.4956200271845, 469.3555744891055, -45.01156591670588, -22.575906082522124, -0.03200000151991844, 0.1600000075995922, 1.0240000486373901, 0.0, 0.0, 0.0, 0.0, 0.0, 1.7632262454288049E9, 0.0, 2025-11-15 12:04:05.428
31.0, 696.208556051366, 301.84171557379887, -208.7144667771645, -175.57147336984053, -0.03200000151991844, 0.1600000075995922, 1.0240000486373901, 0.0, 0.0, 0.0, 0.0, 0.0, 1.763226245442474E9, 0.0, 2025-11-15 12:04:05.442
31.0, 857.398244141601, 434.518406401854, -112.06797212222591, -90.19329728139564, -0.03200000151991844, 0.1600000075995922, 1.0240000486373901, 0.0, 0.0, 0.0, 0.0, 0.0, 1.763226245442474E9, 0.0, 2025-11-15 12:04:05.442
32.0, 993.1865317327902, 570.4675096911378, 33.429095753934234, 45.13872251519933, -0.03200000151991844, 0.1600000075995922, 1.0240000486373901, 0.0, 0.0, 0.0, 0.0, 0.0, 1.7632262454581072E9, 0.0, 2025-11-15 12:04:05.458
32.0, 1195.7189438831992, 804.8339502643794, -188.69104241440073, -155.45455150818452, -0.03200000151991844, 0.1600000075995922, 1.0240000486373901, 0.0, 0.0, 0.0, 0.0, 0.0, 1.7632262454581072E9, 0.0, 2025-11-15 12:04:05.458
33.0, 1245.4745728936978, 841.7505027269945, -178.34647913696244, -153.82021522754803, -0.03200000151991844, 0.1600000075995922, 1.0240000486373901, 0.0, 0.0, 0.0, 0.0, 0.0, 1.7632262454588068E9, 0.0, 2025-11-15 12:04:05.458
33.0, 1038.3346039978787, 598.8421306549571, 43.26877253735438, 46.80297799548134, -0.03200000151991844, 0.1600000075995922, 1.0240000486373901, 0.0, 0.0, 0.0, 0.0, 0.0, 1.7632262454588068E9, 0.0, 2025-11-15 12:04:05.458
34.0, 1259.0092708333395, 373.8609690205194, -126.78073854791, -104.97338190628216, -0.03200000151991844, 0.1600000075995922, 1.0240000486373901, 0.0, 0.0, 0.0, 0.0, 0.0, 1.7632262454724772E9, 0.0, 2025-11-15 12:04:05.472
34.0, 1194.7989284940995, 308.3154823970981, -208.46763338008896, -175.9566830652766, -0.03200000151991844, 0.1600000075995922, 1.0240000486373901, 0.0, 0.0, 0.0, 0.0, 0.0, 1.7632262454724772E9, 0.0, 2025-11-15 12:04:05.472
35.0, 962.048124701716, 530.4804993649013, -32.67737586284056, -22.564686382655054, -0.03200000151991844, 0.1600000075995922, 1.0240000486373901, 0.0, 0.0, 0.0, 0.0, 0.0, 1.7632262454881094E9, 0.0, 2025-11-15 12:04:05.488
35.0, 878.5698177907616, 477.22432399587706, -39.61115038068965, -27.254520927090198, -0.03200000151991844, 0.1600000075995922, 1.0240000486373901, 0.0, 0.0, 0.0, 0.0, 0.0, 1.7632262454881094E9, 0.0, 2025-11-15 12:04:05.488
36.0, 697.7456549331546, 299.3172831037082, -204.4173217280768, -174.3223467846401, -0.03200000151991844, 0.1600000075995922, 1.0240000486373901, 0.0, 0.0, 0.0, 0.0, 0.0, 1.7632262454888163E9, 0.0, 2025-11-15 12:04:05.488
36.0, 843.5718340054154, 424.6188912191428, -124.83225067099556, -99.85719876689836, -0.03200000151991844, 0.1600000075995922, 1.0240000486373901, 0.0, 0.0, 0.0, 0.0, 0.0, 1.7632262454888163E9, 0.0, 2025-11-15 12:04:05.488
37.0, 989.5663085756823, 564.7305031591095, 27.247041127178818, 40.82661786628887, -0.03200000151991844, 0.1600000075995922, 1.0240000486373901, 0.0, 0.0, 0.0, 0.0, 0.0, 1.7632262455024247E9, 0.0, 2025-11-15 12:04:05.502
37.0, 1191.7247307305224, 803.5062857801095, -188.9266561116092, -158.38289317348972, -0.03200000151991844, 0.1600000075995922, 1.0240000486373901, 0.0, 0.0, 0.0, 0.0, 0.0, 1.7632262455024247E9, 0.0, 2025-11-15 12:04:05.502
38.0, 1248.2046998613514, 837.2888020798564, -182.31825288990512, -151.00033066095784, -0.03200000151991844, 0.1600000075995922, 1.0240000486373901, 0.0, 0.0, 0.0, 0.0, 0.0, 1.7632262455180838E9, 0.0, 2025-11-15 12:04:05.518
38.0, 1030.1629225946963, 1080.5281552979723, 34.91757593629882, 44.95546741737053, -0.03200000151991844, 0.1600000075995922, 1.0240000486373901, 0.0, 0.0, 0.0, 0.0, 0.0, 1.7632262455180838E9, 0.0, 2025-11-15 12:04:05.518
39.0, 1259.3570815292187, 864.1749428613111, -126.60122335003689, -106.98918798239902, -0.03200000151991844, 0.1600000075995922, 1.0240000486373901, 0.0, 0.0, 0.0, 0.0, 0.0, 1.7632262455188143E9, 0.0, 2025-11-15 12:04:05.518
39.0, 1198.0900404551066, 797.9487944459543, -207.28582499409094, -177.3292263490148, -0.03200000151991844, 0.1600000075995922, 1.0240000486373901, 0.0, 0.0, 0.0, 0.0, 0.0, 1.7632262455188143E9, 0.0, 2025-11-15 12:04:05.518
40.0, 956.258759570308, 1012.3722185054794, -40.16839547408745, -24.262600962538272, -0.03200000151991844, 0.1600000075995922, 1.0240000486373901, 0.0, 0.0, 0.0, 0.0, 0.0, 1.7632262455324147E9, 0.0, 2025-11-15 12:04:05.532
40.0, 869.242507301271, 957.3134113578126, -47.58461708622053, -28.469988412689418, -0.03200000151991844, 0.1600000075995922, 1.0240000486373901, 0.0, 0.0, 0.0, 0.0, 0.0, 1.7632262455324147E9, 0.0, 2025-11-15 12:04:05.532
41.0, 700.2626076033339, 795.6188367735595, -208.99121937388554, -176.11375886341557, -0.03200000151991844, 0.1600000075995922, 1.0240000486373901, 0.0, 0.0, 0.0, 0.0, 0.0, 1.7632262455481212E9, 0.0, 2025-11-15 12:04:05.548
41.0, 845.2734884852543, 911.0284095061943, -126.24967275420204, -104.98460160614923, -0.03200000151991844, 0.1600000075995922, 1.0240000486373901, 0.0, 0.0, 0.0, 0.0, 0.0, 1.7632262455481212E9, 0.0, 2025-11-15 12:04:05.548
42.0, 988.3209218904376, 1050.0442307591438, 21.59979219408706, 33.74698725016788, -0.04800000227987766, 0.1600000075995922, 1.0240000486373901, 0.0, 0.0, 0.0, 0.0, 0.0, 1.7632262455488014E9, 0.0, 2025-11-15 12:04:05.548
42.0, 1194.5558349969797, 1286.1833839113824, -190.2206614962779, -162.47808362497017, -0.04800000227987766, 0.1600000075995922, 1.0240000486373901, 0.0, 0.0, 0.0, 0.0, 0.0, 1.7632262455488014E9, 0.0, 2025-11-15 12:04:05.548
43.0, 1250.3888014354743, 1330.5909559852444, -176.0277411644347, -149.39965347992256, -0.04800000227987766, 0.1600000075995922, 1.0240000486373901, 0.0, 0.0, 0.0, 0.0, 0.0, 1.7632262455624151E9, 0.0, 2025-11-15 12:04:05.562
43.0, 1029.489740602672, 1569.9183738497086, 34.648303139489144, 38.1488494980149, -0.04800000227987766, 0.1600000075995922, 1.0240000486373901, 0.0, 0.0, 0.0, 0.0, 0.0, 1.7632262455624151E9, 0.0, 2025-11-15 12:04:05.562
44.0, 1254.0015447926708, 1348.9837839673273, -136.39976123394445, -105.4782684003003, -0.04800000227987766, 0.1600000075995922, 1.0240000486373901, 0.0, 0.0, 0.0, 0.0, 0.0, 1.7632262455780952E9, 0.0, 2025-11-15 12:04:05.578
44.0, 1195.5843074847944, 1281.5533877662383, -214.40659450972453, -180.69139640918002, -0.04800000227987766, 0.1600000075995922, 1.0240000486373901, 0.0, 0.0, 0.0, 0.0, 0.0, 1.7632262455780952E9, 0.0, 2025-11-15 12:04:05.578
45.0, 960.7129804175347, 1503.628647135105, -35.74409382650629, -26.35694493772462, -0.04800000227987766, 0.1600000075995922, 1.0240000486373901, 0.0, 0.0, 0.0, 0.0, 0.0, 1.763226245578796E9, 0.0, 2025-11-15 12:04:05.578
45.0, 885.17448111251, 1452.4331566416658, -44.17382832663134, -27.864124619867653, -0.04800000227987766, 0.1600000075995922, 1.0240000486373901, 0.0, 0.0, 0.0, 0.0, 0.0, 1.763226245578796E9, 0.0, 2025-11-15 12:04:05.578
46.0, 706.7101951269433, 1289.6764504699968, -198.2651863009669, -165.97489008354023, -0.04800000227987766, 0.1600000075995922, 1.0240000486373901, 0.0, 0.0, 0.0, 0.0, 0.0, 1.763226245592414E9, 0.0, 2025-11-15 12:04:05.592
46.0, 855.191703167744, 1414.9331797859631, -114.74574049049988, -92.5830933530815, -0.04800000227987766, 0.1600000075995922, 1.0240000486373901, 0.0, 0.0, 0.0, 0.0, 0.0, 1.763226245592414E9, 0.0, 2025-11-15 12:04:05.592
47.0, 1001.4704101346433, 1553.2720791469328, 34.70440163882449, 38.0740514989011, -0.04800000227987766, 0.1600000075995922, 1.0240000486373901, 0.0, 0.0, 0.0, 0.0, 0.0, 1.7632262456081023E9, 0.0, 2025-11-15 12:04:05.608
47.0, 1202.2675087056123, 1797.882105698809, -176.59246605774388, -148.25524409348145, -0.04800000227987766, 0.1600000075995922, 1.0240000486373901, 0.0, 0.0, 0.0, 0.0, 0.0, 1.7632262456081023E9, 0.0, 2025-11-15 12:04:05.608
48.0, 1253.2086860020645, 1824.9141025785357, -173.67160419235006, -151.8343283510767, -0.04800000227987766, 0.1600000075995922, 1.0240000486373901, 0.0, 0.0, 0.0, 0.0, 0.0, 1.7632262456088169E9, 0.0, 2025-11-15 12:04:05.608
48.0, 1041.8575897561386, 1586.4674311536364, 46.84037699503824, 45.037745216395706, -0.04800000227987766, 0.1600000075995922, 1.0240000486373901, 0.0, 0.0, 0.0, 0.0, 0.0, 1.7632262456088169E9, 0.0, 2025-11-15 12:04:05.608
49.0, 1269.7390438062139, 1366.378058661241, -117.75635995483026, -98.03586748847738, -0.04800000227987766, 0.1600000075995922, 1.0240000486373901, 0.0, 0.0, 0.0, 0.0, 0.0, 1.7632262456224344E9, 0.0, 2025-11-15 12:04:05.622
49.0, 1208.337366333697, 1297.646177275572, -195.68091543158516, -166.90612517250702, -0.04800000227987766, 0.1600000075995922, 1.0240000486373901, 0.0, 0.0, 0.0, 0.0, 0.0, 1.7632262456224344E9, 0.0, 2025-11-15 12:04:05.622
50.0, 970.4741193018854, 1516.3443069844507, -24.150403963867575, -12.115405906457454, -0.04800000227987766, 0.1600000075995922, 1.0240000486373901, 0.0, 0.0, 0.0, 0.0, 0.0, 1.7632262456381466E9, 0.0, 2025-11-15 12:04:05.638
50.0, 893.2115261172876, 1462.8861770178191, -27.57989222323522, -12.848426297772676, -0.04800000227987766, 0.1600000075995922, 1.0240000486373901, 0.0, 0.0, 0.0, 0.0, 0.0, 1.7632262456381466E9, 0.0, 2025-11-15 12:04:05.638
51.0, 701.1115648932755, 1289.7325489693321, -192.8498111651279, -168.8770524491556, -0.04800000227987766, 0.1600000075995922, 1.0240000486373901, 0.0, 0.0, 0.0, 0.0, 0.0, 1.7632262456388035E9, 0.0, 2025-11-15 12:04:05.638
51.0, 862.8285788772628, 1419.14430713607, -100.78095405595377, -87.80724110966548, -0.04800000227987766, 0.1600000075995922, 1.0240000486373901, 0.0, 0.0, 0.0, 0.0, 0.0, 1.7632262456388035E9, 0.0, 2025-11-15 12:04:05.638
52.0, 1003.6956506082788, 1562.363775939215, 50.64011535001919, 52.62600222649053, -0.04800000227987766, 0.1600000075995922, 1.0240000486373901, 0.0, 0.0, 0.0, 0.0, 0.0, 1.7632262456525009E9, 0.0, 2025-11-15 12:04:05.652
52.0, 1207.89231823897, 1800.7393892649561, -168.41330485465005, -142.3125430638902, -0.04800000227987766, 0.1600000075995922, 1.0240000486373901, 0.0, 0.0, 0.0, 0.0, 0.0, 1.7632262456525009E9, 0.0, 2025-11-15 12:04:05.652
53.0, 1256.941106157843, 1828.7400202332065, -167.20157726900652, -147.91117329755798, -0.04800000227987766, 0.1600000075995922, 1.0240000486373901, 0.0, 0.0, 0.0, 0.0, 0.0, 1.763226245668104E9, 0.0, 2025-11-15 12:04:05.668
53.0, 1034.688201541081, 1584.952771671582, 46.687041096854955, 45.67352820886299, -0.04800000227987766, 0.1600000075995922, 1.0240000486373901, 0.0, 0.0, 0.0, 0.0, 0.0, 1.763226245668104E9, 0.0, 2025-11-15 12:04:05.668
54.0, 793.3225382007658, 1376.86099823704, -105.29501330247149, -89.88662548502907, -0.04800000227987766, 0.1600000075995922, 1.0240000486373901, 0.0, 0.0, 0.0, 0.0, 0.0, 1.763226245668804E9, 0.0, 2025-11-15 12:04:05.668
54.0, 722.3878557411954, 1307.1829221625812, -186.45458224089816, -162.59402052359655, -0.04800000227987766, 0.1600000075995922, 1.0240000486373901, 0.0, 0.0, 0.0, 0.0, 0.0, 1.763226245668804E9, 0.0, 2025-11-15 12:04:05.668
55.0, 483.08100732648745, 1524.6094858865254, -10.742862622719258, -6.913205068092793, -0.04800000227987766, 0.1600000075995922, 1.0240000486373901, 0.0, 0.0, 0.0, 0.0, 0.0, 1.7632262456824305E9, 0.0, 2025-11-15 12:04:05.682
55.0, 405.3584064473398, 1470.5305325272493, -22.089719088282436, -13.85445938585326, -0.04800000227987766, 0.1600000075995922, 1.0240000486373901, 0.0, 0.0, 0.0, 0.0, 0.0, 1.7632262456824305E9, 0.0, 2025-11-15 12:04:05.682
56.0, 221.25809122854844, 1301.3636378315277, -186.16287004435435, -162.6912579224445, -0.04800000227987766, 0.1600000075995922, 1.0240000486373901, 0.0, 0.0, 0.0, 0.0, 0.0, 1.7632262456980877E9, 0.0, 2025-11-15 12:04:05.698
56.0, 369.9452937669121, 1415.2435914822854, -110.41867624176666, -92.64667165232822, -0.04800000227987766, 0.1600000075995922, 1.0240000486373901, 0.0, 0.0, 0.0, 0.0, 0.0, 1.7632262456980877E9, 0.0, 2025-11-15 12:04:05.698
57.0, 525.0127656296827, 1565.6100091007538, 46.94135429384187, 53.2655251189135, -0.04800000227987766, 0.1600000075995922, 1.0240000486373901, 0.0, 0.0, 0.0, 0.0, 0.0, 1.7632262456988003E9, 0.0, 2025-11-15 12:04:05.698
57.0, 719.100483680144, 1803.9931022264063, -162.03677543019876, -140.24811828834936, -0.04800000227987766, 0.1600000075995922, 1.0240000486373901, 0.0, 0.0, 0.0, 0.0, 0.0, 1.7632262456988003E9, 0.0, 2025-11-15 12:04:05.698
58.0, 774.5482404232025, 1837.4352876301855, -157.21978428727016, -136.39602133398876, -0.04800000227987766, 0.1600000075995922, 1.0240000486373901, 0.0, 0.0, 0.0, 0.0, 0.0, 1.7632262457124052E9, 0.0, 2025-11-15 12:04:05.712
58.0, 555.6649856665172, 1594.4969963585027, 55.73759898962453, 49.83229695959017, -0.04800000227987766, 0.1600000075995922, 1.0240000486373901, 0.0, 0.0, 0.0, 0.0, 0.0, 1.7632262457124052E9, 0.0, 2025-11-15 12:04:05.712
59.0, 785.9698948878795, 1379.284453408327, -99.8085800674744, -86.37859932659194, -0.04800000227987766, 0.1600000075995922, 1.0240000486373901, 0.0, 0.0, 0.0, 0.0, 0.0, 1.7632262457444823E9, 0.0, 2025-11-15 12:04:05.744
59.0, 719.6016302742064, 1302.8109791143797, -186.67523633828387, -163.08394741779193, -0.04800000227987766, 0.1600000075995922, 1.0240000486373901, 0.0, 0.0, 0.0, 0.0, 0.0, 1.7632262457444823E9, 0.0, 2025-11-15 12:04:05.744
60.0, 478.7614228776656, 1521.1612981273793, -11.962070008274168, -13.11021929467097, -0.04800000227987766, 0.1600000075995922, 1.0400000493973494, 0.0, 0.0, 0.0, 0.0, 0.0, 1.7632262457451909E9, 0.0, 2025-11-15 12:04:05.745
60.0, 413.4104110519402, 1481.3425832991488, -12.601592900697142, -13.11021929467097, -0.04800000227987766, 0.1600000075995922, 1.0400000493973494, 0.0, 0.0, 0.0, 0.0, 0.0, 1.7632262457451909E9, 0.0, 2025-11-15 12:04:05.745
61.0, 224.4257864910178, 1299.2842534561642, -185.97961494652554, -164.60234679980204, -0.04800000227987766, 0.1600000075995922, 1.0400000493973494, 0.0, 0.0, 0.0, 0.0, 0.0, 1.7632262457459254E9, 0.0, 2025-11-15 12:04:05.745
61.0, 367.0132122016512, 1419.3537415335886, -104.42361661279574, -86.79746812162921, -0.04800000227987766, 0.1600000075995922, 1.0400000493973494, 0.0, 0.0, 0.0, 0.0, 0.0, 1.7632262457459254E9, 0.0, 2025-11-15 12:04:05.745
62.0, 520.0087794889696, 1561.398881750647, 46.21955360239372, 47.872589382808656, -0.04800000227987766, 0.1600000075995922, 1.0400000493973494, 0.0, 0.0, 0.0, 0.0, 0.0, 1.763226245746692E9, 0.0, 2025-11-15 12:04:05.746
62.0, 719.6278095738962, 1795.0210822327062, -172.1419851104729, -141.0895957783796, -0.04800000227987766, 0.1600000075995922, 1.0400000493973494, 0.0, 0.0, 0.0, 0.0, 0.0, 1.763226245746692E9, 0.0, 2025-11-15 12:04:05.746
63.0, 764.9217379372567, 1818.9227828495204, -171.6183991166763, -143.11288165440783, -0.04800000227987766, 0.1600000075995922, 1.0400000493973494, 0.0, 0.0, 0.0, 0.0, 0.0, 1.7632262457574832E9, 0.0, 2025-11-15 12:04:05.757
63.0, 545.0997682916932, 1577.0391433653422, 37.12785681011155, 44.02049242844805, -0.04800000227987766, 0.1600000075995922, 1.0400000493973494, 0.0, 0.0, 0.0, 0.0, 0.0, 1.7632262457574832E9, 0.0, 2025-11-15 12:04:05.757
64.0, 770.8494793670252, 1356.69545767596, -119.3345977361314, -96.66332420473918, -0.04800000227987766, 0.1600000075995922, 1.0400000493973494, 0.0, 0.0, 0.0, 0.0, 0.0, 1.7632262457724297E9, 0.0, 2025-11-15 12:04:05.772
64.0, 717.0323190046474, 1295.7313484982587, -202.58103084983304, -180.4408231121488, -0.04800000227987766, 0.1600000075995922, 1.0400000493973494, 0.0, 0.0, 0.0, 0.0, 0.0, 1.7632262457724297E9, 0.0, 2025-11-15 12:04:05.772
65.0, 480.7697491538711, 1513.1953112217598, -26.169949939940125, -15.451396666932851, -0.04800000227987766, 0.1600000075995922, 1.0400000493973494, 0.0, 0.0, 0.0, 0.0, 0.0, 1.7632262457881632E9, 0.0, 2025-11-15 12:04:05.788
