%OpenBCI Raw EXG Data
%Number of channels = 4
%Sample Rate = 200 Hz
%Board = OpenBCI_GUI$BoardGanglionBLE
Sample Index, EXG Channel 0, EXG Channel 1, EXG Channel 2, EXG Channel 3, Accel Channel 0, Accel Channel 1, Accel Channel 2, Other, Other, Other, Other, Other, Timestamp, Marker Channel, Timestamp (Formatted)
0.0, -225.56458602752537, -123.67662158468738, -164.45649070153013, -146.306756216567, 0.0, 0.0, 0.0, 0.0, 0.0, 0.0, 0.0, 0.0, 1.763227593378598E9, 0.0, 2025-11-15 12:26:33.378
1.0, -213.12193887494504, -122.70050769625232, -168.3609462552704, -141.54960347292945, 0.0, 0.1600000075995922, 0.0, 0.0, 0.0, 0.0, 0.0, 0.0, 1.7632275933792143E9, 0.0, 2025-11-15 12:26:33.379
1.0, -76.19672169722617, 1.931658327113837, -57.27843777136877, -13.962916484568268, 0.0, 0.1600000075995922, 0.0, 0.0, 0.0, 0.0, 0.0, 0.0, 1.7632275933792143E9, 0.0, 2025-11-15 12:26:33.379
2.0, -196.92817206680775, -97.89001139020547, -133.03011137386784, -110.57575203990564, -0.04800000227987766, 0.1600000075995922, 0.0, 0.0, 0.0, 0.0, 0.0, 0.0, 1.7632275933938854E9, 0.0, 2025-11-15 12:26:33.393
2.0, -241.14500924292952, -143.1988993533887, -179.0346207288094, -141.50472467346117, -0.04800000227987766, 0.1600000075995922, 0.0, 0.0, 0.0, 0.0, 0.0, 0.0, 1.7632275933938854E9, 0.0, 2025-11-15 12:26:33.393
3.0, -118.95125799067318, -40.33669097209349, -99.75996136805043, -55.595482791308314, -0.04800000227987766, 0.1600000075995922, 0.0, 0.0, 0.0, 0.0, 0.0, 0.0, 1.7632275933952994E9, 0.0, 2025-11-15 12:26:33.395
3.0, -128.75727567449212, -35.20180833293125, -80.67525189416483, -49.910834858659655, -0.04800000227987766, 0.1600000075995922, 0.0, 0.0, 0.0, 0.0, 0.0, 0.0, 1.7632275933952994E9, 0.0, 2025-11-15 12:26:33.395
4.0, -223.5861789509654, -127.05001134471968, -169.34080004366115, -142.32002286380157, -0.04800000227987766, 0.1600000075995922, 0.0, 0.0, 0.0, 0.0, 0.0, 0.0, 1.7632275934076595E9, 0.0, 2025-11-15 12:26:33.407
4.0, -171.79604436457157, -86.72267012251541, -140.70064618298784, -99.97687556548044, -0.04800000227987766, 0.1600000075995922, 0.0, 0.0, 0.0, 0.0, 0.0, 0.0, 1.7632275934076595E9, 0.0, 2025-11-15 12:26:33.407
5.0, -90.53549812734127, -7.380692562554032, -59.110988749656826, -17.96086953720078, -0.04800000227987766, 0.1600000075995922, 0.0, 0.0, 0.0, 0.0, 0.0, 0.0, 1.7632275934233155E9, 0.0, 2025-11-15 12:26:33.423
5.0, -206.621992751956, -112.30732571939006, -156.36334719741717, -132.27465158281848, -0.04800000227987766, 0.1600000075995922, 0.0, 0.0, 0.0, 0.0, 0.0, 0.0, 1.7632275934233155E9, 0.0, 2025-11-15 12:26:33.423
6.0, -221.11410508025438, -116.87374356528744, -155.81732180388644, -122.61448999727145, -0.04800000227987766, 0.1600000075995922, 0.0, 0.0, 0.0, 0.0, 0.0, 0.0, 1.7632275934240236E9, 0.0, 2025-11-15 12:26:33.424
6.0, -85.14630229119211, 5.791235081385821, -49.22269326681271, -0.9817237383686006, -0.04800000227987766, 0.1600000075995922, 0.0, 0.0, 0.0, 0.0, 0.0, 0.0, 1.7632275934240236E9, 0.0, 2025-11-15 12:26:33.424
7.0, -182.76517093461007, -86.4646170255728, -122.2965985010378, -100.92681015422568, -0.04800000227987766, 0.1600000075995922, 0.0, 0.0, 0.0, 0.0, 0.0, 0.0, 1.7632275934376516E9, 0.0, 2025-11-15 12:26:33.437
7.0, -237.28543248865753, -141.09333567833528, -174.59909938136116, -137.38709482224658, -0.04800000227987766, 0.1600000075995922, 0.0, 0.0, 0.0, 0.0, 0.0, 0.0, 1.7632275934376516E9, 0.0, 2025-11-15 12:26:33.437
8.0, -110.24103099387139, -37.28493260825053, -84.9499575435184, -31.12157748127356, -0.04800000227987766, 0.1600000075995922, 0.0, 0.0, 0.0, 0.0, 0.0, 0.0, 1.7632275934533205E9, 0.0, 2025-11-15 12:26:33.453
8.0, -140.46316253580153, -40.231973773334175, -81.7635627812706, -62.91446700459346, -0.04800000227987766, 0.1600000075995922, 0.0, 0.0, 0.0, 0.0, 0.0, 0.0, 1.7632275934533205E9, 0.0, 2025-11-15 12:26:33.453
9.0, -241.72469373606145, -134.43631375720724, -171.77547491481528, -148.03832989605144, -0.04800000227987766, 0.1600000075995922, 0.0, 0.0, 0.0, 0.0, 0.0, 0.0, 1.7632275934540288E9, 0.0, 2025-11-15 12:26:33.454
9.0, -177.54053069651127, -88.06529420660809, -139.00273160310462, -102.49382823565975, -0.04800000227987766, 0.1600000075995922, 0.0, 0.0, 0.0, 0.0, 0.0, 0.0, 1.7632275934540288E9, 0.0, 2025-11-15 12:26:33.454
10.0, -94.15198138449341, -10.496029225643724, -59.49993834504858, -24.823585955891758, -0.04800000227987766, 0.1600000075995922, 1.0400000493973494, 0.0, 0.0, 0.0, 0.0, 0.0, 1.7632275934676523E9, 0.0, 2025-11-15 12:26:33.467
10.0, -238.01845287997276, -130.3448632056825, -162.37336642621085, -142.50701786158606, -0.04800000227987766, 0.1600000075995922, 1.0400000493973494, 0.0, 0.0, 0.0, 0.0, 0.0, 1.7632275934676523E9, 0.0, 2025-11-15 12:26:33.467
11.0, -205.78051526192576, -123.50084628676996, -164.8417003969662, -146.35537491599098, -0.04800000227987766, 0.06400000303983688, 1.0400000493973494, 0.0, 0.0, 0.0, 0.0, 0.0, 1.7632275934833274E9, 0.0, 2025-11-15 12:26:33.483
11.0, -103.6438474720344, -11.322547115851194, -67.80999604659155, -28.30543281463906, -0.04800000227987766, 0.06400000303983688, 1.0400000493973494, 0.0, 0.0, 0.0, 0.0, 0.0, 1.7632275934833274E9, 0.0, 2025-11-15 12:26:33.483
12.0, -193.78291620407254, -92.41853775503114, -135.59194284351543, -120.02273932797834, -0.01600000075995922, 0.06400000303983688, 1.0400000493973494, 0.0, 0.0, 0.0, 0.0, 0.0, 1.7632275934840302E9, 0.0, 2025-11-15 12:26:33.484
12.0, -243.25431281793863, -143.84216214576736, -182.89793738303706, -154.59437451837584, -0.01600000075995922, 0.06400000303983688, 1.0400000493973494, 0.0, 0.0, 0.0, 0.0, 0.0, 1.7632275934840302E9, 0.0, 2025-11-15 12:26:33.484
13.0, -124.58728722389787, -47.513558987062424, -104.53207371151075, -60.9734589275904, -0.01600000075995922, 0.06400000303983688, 1.0400000493973494, 0.0, 0.0, 0.0, 0.0, 0.0, 1.76322759349765E9, 0.0, 2025-11-15 12:26:33.497
13.0, -146.4357827650383, -56.49679868062958, -97.94984978949651, -79.201731311623, -0.01600000075995922, 0.06400000303983688, 1.0400000493973494, 0.0, 0.0, 0.0, 0.0, 0.0, 1.76322759349765E9, 0.0, 2025-11-15 12:26:33.497
14.0, -242.36795652844012, -150.057875872124, -186.67523633828387, -166.1394456815906, -0.01600000075995922, 0.06400000303983688, 1.0400000493973494, 0.0, 0.0, 0.0, 0.0, 0.0, 1.7632275935133553E9, 0.0, 2025-11-15 12:26:33.513
14.0, -182.06206974294037, -101.57755274651572, -149.00322408461943, -100.71737575670704, -0.01600000075995922, 0.06400000303983688, 1.0400000493973494, 0.0, 0.0, 0.0, 0.0, 0.0, 1.7632275935133553E9, 0.0, 2025-11-15 12:26:33.513
15.0, -103.73360507097095, -27.303139626514167, -75.91061935061589, -50.1165293562226, -0.01600000075995922, 0.06400000303983688, 1.0400000493973494, 0.0, 0.0, 0.0, 0.0, 0.0, 1.7632275935140333E9, 0.0, 2025-11-15 12:26:33.514
15.0, -235.17612891364843, -139.07378970226273, -177.86403204267845, -165.19699089275673, -0.01600000075995922, 0.06400000303983688, 1.0400000493973494, 0.0, 0.0, 0.0, 0.0, 0.0, 1.7632275935140333E9, 0.0, 2025-11-15 12:26:33.514
16.0, -219.30025360174477, -131.69870698964223, -175.96042296523228, -145.981384920422, -0.01600000075995922, 0.06400000303983688, 1.0400000493973494, 0.0, 0.0, 0.0, 0.0, 0.0, 1.7632275935276563E9, 0.0, 2025-11-15 12:26:33.527
16.0, -78.75481326691806, -8.188510952983052, -66.37013456365094, -22.29167368588969, -0.01600000075995922, 0.06400000303983688, 1.0400000493973494, 0.0, 0.0, 0.0, 0.0, 0.0, 1.7632275935276563E9, 0.0, 2025-11-15 12:26:33.527
17.0, -205.44018436595798, -104.89110410725698, -142.28636376420036, -126.18609445495531, -0.01600000075995922, 0.06400000303983688, 1.0400000493973494, 0.0, 0.0, 0.0, 0.0, 0.0, 1.7632275935433884E9, 0.0, 2025-11-15 12:26:33.543
17.0, -232.20664834883064, -139.4178604981862, -177.07865305198357, -147.39880700362846, -0.01600000075995922, 0.06400000303983688, 1.0400000493973494, 0.0, 0.0, 0.0, 0.0, 0.0, 1.7632275935433884E9, 0.0, 2025-11-15 12:26:33.543
18.0, -115.32729493360966, -38.9641476883553, -96.5847863056697, -54.043424309697, -0.01600000075995922, 0.06400000303983688, 1.0400000493973494, 0.0, 0.0, 0.0, 0.0, 0.0, 1.763227593544048E9, 0.0, 2025-11-15 12:26:33.544
18.0, -133.18157732207328, -52.98877252219245, -97.96480938931927, -78.93993831472471, -0.01600000075995922, 0.06400000303983688, 1.0400000493973494, 0.0, 0.0, 0.0, 0.0, 0.0, 1.763227593544048E9, 0.0, 2025-11-15 12:26:33.544
19.0, -256.2242858642712, -151.33318175701424, -185.7776603489183, -169.9915426359512, -0.01600000075995922, 0.06400000303983688, 1.0400000493973494, 0.0, 0.0, 0.0, 0.0, 0.0, 1.7632275935576415E9, 0.0, 2025-11-15 12:26:33.557
19.0, -180.81668305769563, -96.23697560979053, -144.51534413779154, -114.40166969457641, -0.01600000075995922, 0.06400000303983688, 1.0400000493973494, 0.0, 0.0, 0.0, 0.0, 0.0, 1.7632275935576415E9, 0.0, 2025-11-15 12:26:33.557
20.0, -91.28721801843494, -14.920330873224884, -63.239838300738484, -45.25839931378141, -0.01600000075995922, 0.06400000303983688, 0.5280000250786543, 0.0, 0.0, 0.0, 0.0, 0.0, 1.7632275935733027E9, 0.0, 2025-11-15 12:26:33.573
20.0, -237.1507960902527, -135.73031914187595, -172.4000382074155, -158.00516327796504, -0.01600000075995922, 0.06400000303983688, 0.5280000250786543, 0.0, 0.0, 0.0, 0.0, 0.0, 1.7632275935733027E9, 0.0, 2025-11-15 12:26:33.573
21.0, -206.90622514858842, -126.54512485070154, -174.0680335876532, -142.5257173613645, -0.01600000075995922, 0.11200000531971455, 0.5280000250786543, 0.0, 0.0, 0.0, 0.0, 0.0, 1.7632275935740306E9, 0.0, 2025-11-15 12:26:33.574
21.0, -82.69292792025954, -10.525948425289243, -71.3853404042311, -27.852904920000583, -0.01600000075995922, 0.11200000531971455, 0.5280000250786543, 0.0, 0.0, 0.0, 0.0, 0.0, 1.7632275935740306E9, 0.0, 2025-11-15 12:26:33.574
22.0, -200.37261992599815, -105.32493250211701, -148.89850688586012, -131.82212368818, -0.03200000151991844, 0.11200000531971455, 0.5280000250786543, 0.0, 0.0, 0.0, 0.0, 0.0, 1.7632275935877285E9, 0.0, 2025-11-15 12:26:33.587
22.0, -243.45626741554588, -147.94857229711488, -191.7764598778449, -167.8373602614738, -0.03200000151991844, 0.11200000531971455, 0.5280000250786543, 0.0, 0.0, 0.0, 0.0, 0.0, 1.7632275935877285E9, 0.0, 2025-11-15 12:26:33.587
23.0, -110.6823391886428, -44.00553282862529, -107.86058467207476, -68.67765283631161, -0.03200000151991844, 0.11200000531971455, 0.5280000250786543, 0.0, 0.0, 0.0, 0.0, 0.0, 1.7632275936197517E9, 0.0, 2025-11-15 12:26:33.619
23.0, -151.480907805264, -63.44927269825712, -111.58552502794191, -91.64063856424764, -0.03200000151991844, 0.11200000531971455, 0.5280000250786543, 0.0, 0.0, 0.0, 0.0, 0.0, 1.7632275936197517E9, 0.0, 2025-11-15 12:26:33.619
24.0, -243.2318734182045, -146.22447841754183, -188.31705241883174, -170.2121967333369, -0.03200000151991844, 0.11200000531971455, 0.5280000250786543, 0.0, 0.0, 0.0, 0.0, 0.0, 1.76322759362041E9, 0.0, 2025-11-15 12:26:33.620
24.0, -168.4151748046279, -89.98386288387701, -142.02457076730207, -104.04588671727106, -0.03200000151991844, 0.11200000531971455, 0.5280000250786543, 0.0, 0.0, 0.0, 0.0, 0.0, 1.76322759362041E9, 0.0, 2025-11-15 12:26:33.620
25.0, -103.85328186955303, -19.89065791433677, -71.60225460166112, -36.75760671449825, -0.03200000151991844, 0.11200000531971455, 0.5280000250786543, 0.0, 0.0, 0.0, 0.0, 0.0, 1.7632275936211908E9, 0.0, 2025-11-15 12:26:33.621
25.0, -231.79525935370475, -136.58301633177325, -172.86378580192104, -160.44357804907486, -0.03200000151991844, 0.11200000531971455, 0.5280000250786543, 0.0, 0.0, 0.0, 0.0, 0.0, 1.7632275936211908E9, 0.0, 2025-11-15 12:26:33.621
26.0, -218.38771801255643, -133.44150036899373, -177.6545976451598, -149.9419389734976, -0.03200000151991844, 0.11200000531971455, 0.5280000250786543, 0.0, 0.0, 0.0, 0.0, 0.0, 1.7632275936219218E9, 0.0, 2025-11-15 12:26:33.621
26.0, -79.39059625938535, -12.534274701494724, -69.0516428318806, -29.685455898288637, -0.03200000151991844, 0.11200000531971455, 0.5280000250786543, 0.0, 0.0, 0.0, 0.0, 0.0, 1.7632275936219218E9, 0.0, 2025-11-15 12:26:33.621
27.0, -195.48083078395575, -98.91474397806451, -137.46937262127176, -122.56587129784748, -0.03200000151991844, 0.11200000531971455, 0.5280000250786543, 0.0, 0.0, 0.0, 0.0, 0.0, 1.7632275936326315E9, 0.0, 2025-11-15 12:26:33.632
27.0, -234.65254291985184, -135.20299324812368, -176.9926353530027, -150.3084491691552, -0.03200000151991844, 0.11200000531971455, 0.5280000250786543, 0.0, 0.0, 0.0, 0.0, 0.0, 1.7632275936326315E9, 0.0, 2025-11-15 12:26:33.632
28.0, -118.25563659891486, -42.04582525184378, -99.99557506525889, -63.70358589524403, -0.03200000151991844, 0.11200000531971455, 0.5280000250786543, 0.0, 0.0, 0.0, 0.0, 0.0, 1.763227593647686E9, 0.0, 2025-11-15 12:26:33.647
28.0, -143.60841839853674, -55.71515958989039, -101.26714105019346, -80.23768359934911, -0.03200000151991844, 0.11200000531971455, 0.5280000250786543, 0.0, 0.0, 0.0, 0.0, 0.0, 1.763227593647686E9, 0.0, 2025-11-15 12:26:33.647
29.0, -247.0802304726094, -144.5714426371269, -185.56448605144396, -169.59885314060375, -0.03200000151991844, 0.11200000531971455, 0.5280000250786543, 0.0, 0.0, 0.0, 0.0, 0.0, 1.7632275936633587E9, 0.0, 2025-11-15 12:26:33.663
29.0, -181.51978424936533, -94.43060393119231, -145.52137722587213, -108.89279705984518, -0.03200000151991844, 0.11200000531971455, 0.5280000250786543, 0.0, 0.0, 0.0, 0.0, 0.0, 1.7632275936633587E9, 0.0, 2025-11-15 12:26:33.663
30.0, -92.28577130660415, -12.747448998969048, -65.19206607760862, -21.379138096701354, -0.03200000151991844, 0.11200000531971455, 0.7680000364780426, 0.0, 0.0, 0.0, 0.0, 0.0, 1.7632275936640613E9, 0.0, 2025-11-15 12:26:33.664
30.0, -233.62407043203712, -134.73924565361813, -172.32898010825738, -153.96233142586425, -0.03200000151991844, 0.11200000531971455, 0.7680000364780426, 0.0, 0.0, 0.0, 0.0, 0.0, 1.7632275936640613E9, 0.0, 2025-11-15 12:26:33.664
31.0, -208.3909654309973, -120.74827991938218, -172.34767960803583, -146.04496321966872, -0.03200000151991844, 0.12800000607967377, 0.7680000364780426, 0.0, 0.0, 0.0, 0.0, 0.0, 1.7632275936776495E9, 0.0, 2025-11-15 12:26:33.677
31.0, -78.29106567241251, -5.095613689627498, -71.41151970392093, -35.422462430316955, -0.03200000151991844, 0.12800000607967377, 0.7680000364780426, 0.0, 0.0, 0.0, 0.0, 0.0, 1.7632275936776495E9, 0.0, 2025-11-15 12:26:33.677
32.0, -199.86399353202432, -99.42337037203833, -140.05738339060917, -125.23615986621007, -0.03200000151991844, 0.12800000607967377, 0.7680000364780426, 0.0, 0.0, 0.0, 0.0, 0.0, 1.763227593693356E9, 0.0, 2025-11-15 12:26:33.693
32.0, -235.90914930496365, -138.91297400416806, -178.94860302982852, -154.55323561886325, -0.03200000151991844, 0.12800000607967377, 0.7680000364780426, 0.0, 0.0, 0.0, 0.0, 0.0, 1.763227593693356E9, 0.0, 2025-11-15 12:26:33.693
33.0, -113.18433225899935, -41.107110362965614, -98.20790288643911, -71.82664859900251, -0.03200000151991844, 0.12800000607967377, 0.7680000364780426, 0.0, 0.0, 0.0, 0.0, 0.0, 1.7632275936940591E9, 0.0, 2025-11-15 12:26:33.694
33.0, -123.85800673253834, -43.16031543863937, -92.76260855095461, -74.15660627139732, -0.03200000151991844, 0.12800000607967377, 0.7680000364780426, 0.0, 0.0, 0.0, 0.0, 0.0, 1.7632275936940591E9, 0.0, 2025-11-15 12:26:33.694
34.0, -241.65737553685904, -144.13761424226686, -184.97732175840065, -161.51692933635786, -0.03200000151991844, 0.12800000607967377, 0.7680000364780426, 0.0, 0.0, 0.0, 0.0, 0.0, 1.7632275937076588E9, 0.0, 2025-11-15 12:26:33.707
34.0, -179.87422826886177, -91.20681016938761, -146.93131950916722, -112.99546731123701, -0.03200000151991844, 0.12800000607967377, 0.7680000364780426, 0.0, 0.0, 0.0, 0.0, 0.0, 1.7632275937076588E9, 0.0, 2025-11-15 12:26:33.707
35.0, -92.3044708063826, -11.199130417313427, -67.0507963555865, -30.676529386546463, -0.03200000151991844, 0.12800000607967377, 0.7680000364780426, 0.0, 0.0, 0.0, 0.0, 0.0, 1.7632275937233508E9, 0.0, 2025-11-15 12:26:33.723
35.0, -218.9898419054225, -116.88496326515451, -157.82190818013623, -138.92045380407944, -0.03200000151991844, 0.12800000607967377, 0.7680000364780426, 0.0, 0.0, 0.0, 0.0, 0.0, 1.7632275937233508E9, 0.0, 2025-11-15 12:26:33.723
36.0, -220.12303159199655, -120.77071931911632, -170.60114632872865, -151.6809924528934, -0.03200000151991844, 0.12800000607967377, 0.7680000364780426, 0.0, 0.0, 0.0, 0.0, 0.0, 1.763227593724055E9, 0.0, 2025-11-15 12:26:33.724
36.0, -81.4101422354579, -5.8136744811199605, -58.64350125519559, -23.08827237645164, -0.03200000151991844, 0.12800000607967377, 0.7680000364780426, 0.0, 0.0, 0.0, 0.0, 0.0, 1.763227593724055E9, 0.0, 2025-11-15 12:26:33.724
37.0, -191.44547873176634, -96.74934190372005, -142.54441686114296, -128.0074257333763, -0.03200000151991844, 0.12800000607967377, 0.7680000364780426, 0.0, 0.0, 0.0, 0.0, 0.0, 1.763227593737717E9, 0.0, 2025-11-15 12:26:33.737
37.0, -236.14102310221642, -137.8994611161761, -185.41115015326068, -166.33392047928646, -0.03200000151991844, 0.12800000607967377, 0.7680000364780426, 0.0, 0.0, 0.0, 0.0, 0.0, 1.763227593737717E9, 0.0, 2025-11-15 12:26:33.737
38.0, -124.30305482726544, -40.0748979751952, -102.02260084124282, -63.86066169338301, -0.03200000151991844, 0.12800000607967377, 0.7680000364780426, 0.0, 0.0, 0.0, 0.0, 0.0, 1.763227593753348E9, 0.0, 2025-11-15 12:26:33.753
38.0, -142.2134357150644, -51.4516736404039, -95.92282401351258, -74.78864936390892, -0.03200000151991844, 0.12800000607967377, 0.7680000364780426, 0.0, 0.0, 0.0, 0.0, 0.0, 1.763227593753348E9, 0.0, 2025-11-15 12:26:33.753
39.0, -230.31425897125155, -135.73405904183164, -176.6186453574337, -151.26960345776752, -0.03200000151991844, 0.12800000607967377, 0.7680000364780426, 0.0, 0.0, 0.0, 0.0, 0.0, 1.7632275937540624E9, 0.0, 2025-11-15 12:26:33.754
39.0, -186.7519042873755, -95.83680631453171, -145.21844532946125, -113.56019220454618, -0.03200000151991844, 0.12800000607967377, 0.7680000364780426, 0.0, 0.0, 0.0, 0.0, 0.0, 1.7632275937540624E9, 0.0, 2025-11-15 12:26:33.754
40.0, -97.95545963943005, -13.08777989493683, -67.61926114885136, -24.28130046231672, -0.03200000151991844, 0.12800000607967377, 0.8960000425577164, 0.0, 0.0, 0.0, 0.0, 0.0, 1.7632275937677293E9, 0.0, 2025-11-15 12:26:33.767
40.0, -229.16236978489906, -132.9366138749756, -167.0557211707346, -154.5008770194836, -0.03200000151991844, 0.12800000607967377, 0.8960000425577164, 0.0, 0.0, 0.0, 0.0, 0.0, 1.7632275937677293E9, 0.0, 2025-11-15 12:26:33.767
41.0, -216.59630593378097, -129.27899171831086, -177.19085005065426, -154.00721022533253, -0.03200000151991844, 0.144000006839633, 0.8960000425577164, 0.0, 0.0, 0.0, 0.0, 0.0, 1.7632275937833464E9, 0.0, 2025-11-15 12:26:33.783
41.0, -74.43896871805191, -7.6686648591421545, -64.61986138438806, -27.62851092265919, -0.03200000151991844, 0.144000006839633, 0.8960000425577164, 0.0, 0.0, 0.0, 0.0, 0.0, 1.7632275937833464E9, 0.0, 2025-11-15 12:26:33.783
42.0, -209.1763444216922, -106.09909179294482, -143.1241013542749, -130.31120410608128, -0.04800000227987766, 0.144000006839633, 0.8960000425577164, 0.0, 0.0, 0.0, 0.0, 0.0, 1.763227593784081E9, 0.0, 2025-11-15 12:26:33.784
42.0, -236.0063867038116, -147.36888780398294, -190.7031085905619, -163.45045761344954, -0.04800000227987766, 0.144000006839633, 0.8960000425577164, 0.0, 0.0, 0.0, 0.0, 0.0, 1.763227593784081E9, 0.0, 2025-11-15 12:26:33.784
43.0, -131.99976893607527, -56.01061168638989, -106.06543269334361, -65.5286570736207, -0.04800000227987766, 0.144000006839633, 0.8960000425577164, 0.0, 0.0, 0.0, 0.0, 0.0, 1.7632275937976744E9, 0.0, 2025-11-15 12:26:33.797
43.0, -143.3690648013726, -58.751958353910595, -96.1397382109426, -68.61407453706488, -0.04800000227987766, 0.144000006839633, 0.8960000425577164, 0.0, 0.0, 0.0, 0.0, 0.0, 1.7632275937976744E9, 0.0, 2025-11-15 12:26:33.797
44.0, -246.85209657531232, -146.21325871767476, -182.60622518649325, -151.10878775967285, -0.04800000227987766, 0.144000006839633, 0.8960000425577164, 0.0, 0.0, 0.0, 0.0, 0.0, 1.763227593813382E9, 0.0, 2025-11-15 12:26:33.813
44.0, -173.69965344201773, -89.59491328848526, -142.6416542599909, -103.61953812232241, -0.04800000227987766, 0.144000006839633, 0.8960000425577164, 0.0, 0.0, 0.0, 0.0, 0.0, 1.763227593813382E9, 0.0, 2025-11-15 12:26:33.813
45.0, -87.1546285673976, -13.11395919462666, -64.79937658226117, -30.216521691996604, -0.04800000227987766, 0.144000006839633, 0.8960000425577164, 0.0, 0.0, 0.0, 0.0, 0.0, 1.7632275938140645E9, 0.0, 2025-11-15 12:26:33.814
45.0, -221.93314317055047, -132.3083106824197, -169.90552493697032, -149.73998437589034, -0.04800000227987766, 0.144000006839633, 0.8960000425577164, 0.0, 0.0, 0.0, 0.0, 0.0, 1.7632275938140645E9, 0.0, 2025-11-15 12:26:33.814
46.0, -221.8845244711265, -130.06063080905005, -175.915544165764, -144.73973813513294, -0.04800000227987766, 0.144000006839633, 0.8960000425577164, 0.0, 0.0, 0.0, 0.0, 0.0, 1.763227593827702E9, 0.0, 2025-11-15 12:26:33.827
46.0, -91.21989981923252, -14.841792974155396, -73.55822227848694, -36.260200020391494, -0.04800000227987766, 0.144000006839633, 0.8960000425577164, 0.0, 0.0, 0.0, 0.0, 0.0, 1.763227593827702E9, 0.0, 2025-11-15 12:26:33.827
47.0, -196.55044217128307, -101.94780284212902, -142.63043456012383, -123.09319719159976, -0.04800000227987766, 0.144000006839633, 0.8960000425577164, 0.0, 0.0, 0.0, 0.0, 0.0, 1.763227593843098E9, 0.0, 2025-11-15 12:26:33.843
47.0, -242.61852982547134, -147.39880700362846, -188.0739589217119, -158.13979967636988, -0.04800000227987766, 0.144000006839633, 0.8960000425577164, 0.0, 0.0, 0.0, 0.0, 0.0, 1.763227593843098E9, 0.0, 2025-11-15 12:26:33.843
48.0, -111.97260467335582, -41.896229253616184, -100.65379745746031, -63.75594449462369, -0.04800000227987766, 0.144000006839633, 0.8960000425577164, 0.0, 0.0, 0.0, 0.0, 0.0, 1.7632275938583448E9, 0.0, 2025-11-15 12:26:33.858
48.0, -155.76309325452894, -61.47460552165285, -104.43483631266281, -81.70746428193524, -0.04800000227987766, 0.144000006839633, 0.8960000425577164, 0.0, 0.0, 0.0, 0.0, 0.0, 1.7632275938583448E9, 0.0, 2025-11-15 12:26:33.858
49.0, -246.81095767579973, -147.84385509835556, -184.96984195848927, -160.45479774894193, -0.04800000227987766, 0.144000006839633, 0.8960000425577164, 0.0, 0.0, 0.0, 0.0, 0.0, 1.7632275938590677E9, 0.0, 2025-11-15 12:26:33.859
49.0, -161.61977658513933, -88.19245080510154, -140.22193898865953, -97.97602908918634, -0.04800000227987766, 0.144000006839633, 0.8960000425577164, 0.0, 0.0, 0.0, 0.0, 0.0, 1.7632275938590677E9, 0.0, 2025-11-15 12:26:33.859
50.0, -115.2038782350719, -24.486994959879667, -74.425879068207, -40.09733737492934, -0.04800000227987766, 0.144000006839633, 0.9600000455975533, 0.0, 0.0, 0.0, 0.0, 0.0, 1.7632275938733923E9, 0.0, 2025-11-15 12:26:33.873
50.0, -230.84158486500382, -137.24123872397467, -177.57605974609032, -161.15041914070025, -0.04800000227987766, 0.144000006839633, 0.9600000455975533, 0.0, 0.0, 0.0, 0.0, 0.0, 1.7632275938733923E9, 0.0, 2025-11-15 12:26:33.873
51.0, -216.85435903072357, -133.8940282636322, -180.30992661369964, -143.14280085405335, -0.04800000227987766, 0.144000006839633, 0.9600000455975533, 0.0, 0.0, 0.0, 0.0, 0.0, 1.7632275938740616E9, 0.0, 2025-11-15 12:26:33.874
51.0, -79.1512426622212, -15.586033065337688, -76.5351826432161, -34.08357824617997, -0.04800000227987766, 0.144000006839633, 0.9600000455975533, 0.0, 0.0, 0.0, 0.0, 0.0, 1.7632275938740616E9, 0.0, 2025-11-15 12:26:33.874
52.0, -213.05088077578694, -115.16086938558146, -152.0138435489498, -122.4125353996642, -0.04800000227987766, 0.144000006839633, 0.9600000455975533, 0.0, 0.0, 0.0, 0.0, 0.0, 1.7632275938876784E9, 0.0, 2025-11-15 12:26:33.887
52.0, -248.1199226602912, -155.51065000751987, -192.1504498734139, -159.4300651610829, -0.04800000227987766, 0.144000006839633, 0.9600000455975533, 0.0, 0.0, 0.0, 0.0, 0.0, 1.7632275938876784E9, 0.0, 2025-11-15 12:26:33.887
53.0, -129.9465638604015, -54.346356206107885, -113.74344730237499, -69.55278942594305, -0.04800000227987766, 0.144000006839633, 0.9600000455975533, 0.0, 0.0, 0.0, 0.0, 0.0, 1.76322759390342E9, 0.0, 2025-11-15 12:26:33.903
53.0, -151.28643300756812, -66.68428615992889, -107.0303268819116, -77.3504808335565, -0.04800000227987766, 0.144000006839633, 0.9600000455975533, 0.0, 0.0, 0.0, 0.0, 0.0, 1.76322759390342E9, 0.0, 2025-11-15 12:26:33.903
54.0, -241.46290073916316, -150.7609770637937, -186.89963033562526, -158.99997666617855, -0.04800000227987766, 0.144000006839633, 0.9600000455975533, 0.0, 0.0, 0.0, 0.0, 0.0, 1.7632275939040782E9, 0.0, 2025-11-15 12:26:33.904
54.0, -183.83852222189307, -103.41010372480378, -159.0972140650265, -118.07799135101959, -0.04800000227987766, 0.144000006839633, 0.9600000455975533, 0.0, 0.0, 0.0, 0.0, 0.0, 1.7632275939040782E9, 0.0, 2025-11-15 12:26:33.904
55.0, -95.4908655686304, -29.749034197535366, -84.27303565153852, -46.82915729517117, -0.04800000227987766, 0.144000006839633, 0.9600000455975533, 0.0, 0.0, 0.0, 0.0, 0.0, 1.7632275939176736E9, 0.0, 2025-11-15 12:26:33.917
55.0, -250.3825621334836, -149.15655998280272, -185.3999304533936, -157.30954188620672, -0.04800000227987766, 0.144000006839633, 0.9600000455975533, 0.0, 0.0, 0.0, 0.0, 0.0, 1.7632275939176736E9, 0.0, 2025-11-15 12:26:33.917
56.0, -218.3652786128223, -138.81199670536444, -188.56762571586296, -158.0201228777878, -0.04800000227987766, 0.144000006839633, 0.9600000455975533, 0.0, 0.0, 0.0, 0.0, 0.0, 1.7632275939333892E9, 0.0, 2025-11-15 12:26:33.933
56.0, -97.64878784306347, -25.773520544636995, -85.01353584276512, -36.43597531830892, -0.04800000227987766, 0.144000006839633, 0.9600000455975533, 0.0, 0.0, 0.0, 0.0, 0.0, 1.7632275939333892E9, 0.0, 2025-11-15 12:26:33.933
57.0, -212.59087308123708, -116.53341266931966, -156.0230163014494, -133.59109636722133, -0.04800000227987766, 0.144000006839633, 0.9600000455975533, 0.0, 0.0, 0.0, 0.0, 0.0, 1.763227593934059E9, 0.0, 2025-11-15 12:26:33.934
57.0, -239.4134355634451, -154.5345361190848, -195.24708703672513, -165.3204075912945, -0.04800000227987766, 0.144000006839633, 0.9600000455975533, 0.0, 0.0, 0.0, 0.0, 0.0, 1.763227593934059E9, 0.0, 2025-11-15 12:26:33.934
58.0, -124.64712562318891, -53.46373981656507, -109.86517104832456, -60.93979982798919, -0.04800000227987766, 0.144000006839633, 0.9600000455975533, 0.0, 0.0, 0.0, 0.0, 0.0, 1.7632275939477575E9, 0.0, 2025-11-15 12:26:33.947
58.0, -153.73232757858932, -72.48113109124824, -117.58806445682421, -84.40019225003198, -0.04800000227987766, 0.144000006839633, 0.9600000455975533, 0.0, 0.0, 0.0, 0.0, 0.0, 1.7632275939477575E9, 0.0, 2025-11-15 12:26:33.947
59.0, -247.2260865708813, -155.93325870251283, -199.98928018053994, -178.54095393465832, -0.04800000227987766, 0.144000006839633, 0.9600000455975533, 0.0, 0.0, 0.0, 0.0, 0.0, 1.7632275939633367E9, 0.0, 2025-11-15 12:26:33.963
59.0, -178.17257378902286, -106.58153888722882, -157.04400898935273, -116.72040766710415, -0.04800000227987766, 0.144000006839633, 0.9600000455975533, 0.0, 0.0, 0.0, 0.0, 0.0, 1.7632275939633367E9, 0.0, 2025-11-15 12:26:33.963
60.0, -103.45311257429421, -28.929996107239276, -78.82774131605402, -36.76134661445394, -0.04800000227987766, 0.144000006839633, 1.008000047877431, 0.0, 0.0, 0.0, 0.0, 0.0, 1.763227593964052E9, 0.0, 2025-11-15 12:26:33.964
60.0, -233.38097693491727, -136.0856096376665, -174.07551338756457, -149.55298937810585, -0.04800000227987766, 0.144000006839633, 1.008000047877431, 0.0, 0.0, 0.0, 0.0, 0.0, 1.763227593964052E9, 0.0, 2025-11-15 12:26:33.964
61.0, -219.89115779474378, -133.2283260715194, -174.74495547963306, -144.36200823960826, -0.04800000227987766, 0.144000006839633, 1.008000047877431, 0.0, 0.0, 0.0, 0.0, 0.0, 1.7632275939777243E9, 0.0, 2025-11-15 12:26:33.977
61.0, -79.49157355818897, -18.121685235295445, -80.03946890169755, -43.425848335493356, -0.04800000227987766, 0.144000006839633, 1.008000047877431, 0.0, 0.0, 0.0, 0.0, 0.0, 1.7632275939777243E9, 0.0, 2025-11-15 12:26:33.977
62.0, -207.23533634468913, -102.48260853579268, -130.94324719859287, -101.71966894483194, -0.04800000227987766, 0.144000006839633, 1.008000047877431, 0.0, 0.0, 0.0, 0.0, 0.0, 1.7632275939933553E9, 0.0, 2025-11-15 12:26:33.993
62.0, -238.90106926951557, -146.29927641665563, -183.79551337240264, -161.08684084145352, -0.04800000227987766, 0.144000006839633, 1.008000047877431, 0.0, 0.0, 0.0, 0.0, 0.0, 1.7632275939933553E9, 0.0, 2025-11-15 12:26:33.993
63.0, -112.71310486458242, -37.20265480922535, -111.55934572825208, -89.83052698569372, -0.04800000227987766, 0.144000006839633, 1.008000047877431, 0.0, 0.0, 0.0, 0.0, 0.0, 1.7632275939940474E9, 0.0, 2025-11-15 12:26:33.994
63.0, -152.8085722895339, -65.74931117100641, -110.46355504123494, -83.0201691663824, -0.04800000227987766, 0.144000006839633, 1.008000047877431, 0.0, 0.0, 0.0, 0.0, 0.0, 1.7632275939940474E9, 0.0, 2025-11-15 12:26:33.994
64.0, -239.7836856590584, -142.44717946229503, -176.57002665800974, -138.9728124034591, -0.04800000227987766, 0.144000006839633, 1.008000047877431, 0.0, 0.0, 0.0, 0.0, 0.0, 1.7632275940076864E9, 0.0, 2025-11-15 12:26:34.007
64.0, -163.77021905966103, -92.22406295733526, -153.77533642807975, -119.30093863653019, -0.04800000227987766, 0.144000006839633, 1.008000047877431, 0.0, 0.0, 0.0, 0.0, 0.0, 1.7632275940076864E9, 0.0, 2025-11-15 12:26:34.007
65.0, -82.73780671972781, -12.732489399146289, -74.28002296993509, -35.822631725575775, -0.04800000227987766, 0.144000006839633, 1.008000047877431, 0.0, 0.0, 0.0, 0.0, 0.0, 1.7632275940233786E9, 0.0, 2025-11-15 12:26:34.023
65.0, -244.43238130398095, -140.11348188994452, -168.81721404986456, -131.58277009101585, -0.04800000227987766, 0.144000006839633, 1.008000047877431, 0.0, 0.0, 0.0, 0.0, 0.0, 1.7632275940233786E9, 0.0, 2025-11-15 12:26:34.023
66.0, -222.00420126970857, -126.98643304547295, -177.3666253485717, -141.54212367301807, -0.04800000227987766, 0.144000006839633, 1.008000047877431, 0.0, 0.0, 0.0, 0.0, 0.0, 1.7632275940240436E9, 0.0, 2025-11-15 12:26:34.024
66.0, -85.43053468782455, -17.403624443802983, -95.36931882007048, -71.2731434055604, -0.04800000227987766, 0.144000006839633, 1.008000047877431, 0.0, 0.0, 0.0, 0.0, 0.0, 1.7632275940240436E9, 0.0, 2025-11-15 12:26:34.024
67.0, -209.88318551331758, -108.54872626392171, -138.51654460886493, -104.7003692095168, -0.04800000227987766, 0.144000006839633, 1.008000047877431, 0.0, 0.0, 0.0, 0.0, 0.0, 1.7632275940377269E9, 0.0, 2025-11-15 12:26:34.037
67.0, -238.8524505700916, -140.88764118077233, -185.44854915281758, -152.47385124349967, -0.04800000227987766, 0.144000006839633, 1.008000047877431, 0.0, 0.0, 0.0, 0.0, 0.0, 1.7632275940377269E9, 0.0, 2025-11-15 12:26:34.037
68.0, -99.53369742073119, -32.654936463106424, -111.68650232674554, -90.9524969724007, -0.04800000227987766, 0.144000006839633, 1.008000047877431, 0.0, 0.0, 0.0, 0.0, 0.0, 1.763227594053327E9, 0.0, 2025-11-15 12:26:34.053
68.0, -156.79904554225504, -61.76257781824097, -95.77696791524068, -63.65122729586437, -0.04800000227987766, 0.144000006839633, 1.008000047877431, 0.0, 0.0, 0.0, 0.0, 0.0, 1.763227594053327E9, 0.0, 2025-11-15 12:26:34.053
69.0, -242.66340862493962, -138.44174660975114, -172.63191200466827, -135.43486704537645, -0.04800000227987766, 0.144000006839633, 1.008000047877431, 0.0, 0.0, 0.0, 0.0, 0.0, 1.7632275940540445E9, 0.0, 2025-11-15 12:26:34.054
69.0, -156.46245454624295, -80.51817609602585, -140.31543648755178, -111.50698712887242, -0.04800000227987766, 0.144000006839633, 1.008000047877431, 0.0, 0.0, 0.0, 0.0, 0.0, 1.7632275940540445E9, 0.0, 2025-11-15 12:26:34.054
70.0, -105.70453234761953, -31.686302374582738, -88.85815299721435, -64.88165438128635, -0.04800000227987766, 0.144000006839633, 1.0240000486373901, 0.0, 0.0, 0.0, 0.0, 0.0, 1.7632275940676796E9, 0.0, 2025-11-15 12:26:34.067
70.0, -239.4882335625589, -145.15112713025883, -170.89659842522815, -133.25450537120923, -0.04800000227987766, 0.144000006839633, 1.0240000486373901, 0.0, 0.0, 0.0, 0.0, 0.0, 1.7632275940676796E9, 0.0, 2025-11-15 12:26:34.067
71.0, -210.26839520875365, -127.8952287347056, -176.09131946368143, -137.8957212162204, -0.04800000227987766, 0.144000006839633, 1.0240000486373901, 0.0, 0.0, 0.0, 0.0, 0.0, 1.7632275940833952E9, 0.0, 2025-11-15 12:26:34.083
71.0, -90.61403602641076, -33.46649475349113, -112.90570971230045, -78.76416301680729, -0.04800000227987766, 0.144000006839633, 1.0240000486373901, 0.0, 0.0, 0.0, 0.0, 0.0, 1.7632275940833952E9, 0.0, 2025-11-15 12:26:34.083
72.0, -215.42945714760572, -122.44245459930971, -158.81298166839406, -125.77470545982942, -0.03200000151991844, 0.144000006839633, 1.0240000486373901, 0.0, 0.0, 0.0, 0.0, 0.0, 1.7632275940840528E9, 0.0, 2025-11-15 12:26:34.084
72.0, -236.88152329344302, -149.93071927363053, -194.08023825054988, -157.43295858474448, -0.03200000151991844, 0.144000006839633, 1.0240000486373901, 0.0, 0.0, 0.0, 0.0, 0.0, 1.7632275940840528E9, 0.0, 2025-11-15 12:26:34.084
73.0, -102.84724878147244, -39.857983777765185, -118.17522874986753, -92.77382825082168, -0.03200000151991844, 0.144000006839633, 1.0240000486373901, 0.0, 0.0, 0.0, 0.0, 0.0, 1.7632275940977144E9, 0.0, 2025-11-15 12:26:34.097
73.0, -158.48948032222688, -75.73110415274277, -115.16834918549284, -83.60733345942572, -0.03200000151991844, 0.144000006839633, 1.0240000486373901, 0.0, 0.0, 0.0, 0.0, 0.0, 1.7632275940977144E9, 0.0, 2025-11-15 12:26:34.097
74.0, -250.9360673269257, -147.04351650783792, -185.63180425064638, -148.3076026928611, -0.03200000151991844, 0.144000006839633, 1.0240000486373901, 0.0, 0.0, 0.0, 0.0, 0.0, 1.7632275941133409E9, 0.0, 2025-11-15 12:26:34.113
74.0, -151.37993050646037, -86.281361927744, -154.02964962506667, -116.40999597078189, -0.03200000151991844, 0.144000006839633, 1.0240000486373901, 0.0, 0.0, 0.0, 0.0, 0.0, 1.7632275941133409E9, 0.0, 2025-11-15 12:26:34.113
75.0, -109.40329340379685, -42.1131434510462, -107.5165138761513, -82.1338128768839, -0.03200000151991844, 0.144000006839633, 1.0240000486373901, 0.0, 0.0, 0.0, 0.0, 0.0, 1.763227594114064E9, 0.0, 2025-11-15 12:26:34.114
75.0, -250.19930703565478, -152.0886415480636, -185.50464765215293, -142.9408462564461, -0.03200000151991844, 0.144000006839633, 1.0240000486373901, 0.0, 0.0, 0.0, 0.0, 0.0, 1.763227594114064E9, 0.0, 2025-11-15 12:26:34.114
76.0, -203.74226978607476, -125.49795286310837, -179.93219671817496, -148.49085779068992, -0.03200000151991844, 0.144000006839633, 1.0240000486373901, 0.0, 0.0, 0.0, 0.0, 0.0, 1.763227594127744E9, 0.0, 2025-11-15 12:26:34.127
76.0, -85.8531433828175, -18.892104626167566, -98.3986377841793, -70.13995371898636, -0.03200000151991844, 0.144000006839633, 1.0240000486373901, 0.0, 0.0, 0.0, 0.0, 0.0, 1.763227594127744E9, 0.0, 2025-11-15 12:26:34.127
77.0, -207.31387424375862, -117.00837996369228, -151.0190301607363, -107.68480937415734, -0.03200000151991844, 0.144000006839633, 1.0240000486373901, 0.0, 0.0, 0.0, 0.0, 0.0, 1.763227594143346E9, 0.0, 2025-11-15 12:26:34.143
77.0, -240.3409307524562, -155.10300091234967, -199.51057298621163, -168.14403205784038, -0.03200000151991844, 0.144000006839633, 1.0240000486373901, 0.0, 0.0, 0.0, 0.0, 0.0, 1.763227594143346E9, 0.0, 2025-11-15 12:26:34.143
78.0, -113.13945345953107, -49.888395458925515, -129.9671333101578, -112.45692171761766, -0.03200000151991844, 0.144000006839633, 1.0240000486373901, 0.0, 0.0, 0.0, 0.0, 0.0, 1.7632275941440427E9, 0.0, 2025-11-15 12:26:34.144
78.0, -165.0380451446399, -77.93390522664413, -115.1122506861575, -77.7581299287267, -0.03200000151991844, 0.144000006839633, 1.0240000486373901, 0.0, 0.0, 0.0, 0.0, 0.0, 1.7632275941440427E9, 0.0, 2025-11-15 12:26:34.144
79.0, -254.47027278505266, -162.96053071925417, -193.97552105179057, -153.73045762861148, -0.03200000151991844, 0.144000006839633, 1.0240000486373901, 0.0, 0.0, 0.0, 0.0, 0.0, 1.7632275941741006E9, 0.0, 2025-11-15 12:26:34.174
79.0, -164.83235064707696, -95.54135421803221, -166.33766037924215, -133.96508636279032, -0.03200000151991844, 0.144000006839633, 1.0240000486373901, 0.0, 0.0, 0.0, 0.0, 0.0, 1.7632275941741006E9, 0.0, 2025-11-15 12:26:34.174
80.0, -102.8996073808521, -40.96873406460509, -109.45752195315436, -79.59442080697045, -0.03200000151991844, 0.144000006839633, 1.0240000486373901, 0.0, 0.0, 0.0, 0.0, 0.0, 1.7632275941747699E9, 0.0, 2025-11-15 12:26:34.174
80.0, -241.21232744213194, -149.47071157908067, -180.18650991516188, -140.07234299043193, -0.03200000151991844, 0.144000006839633, 1.0240000486373901, 0.0, 0.0, 0.0, 0.0, 0.0, 1.7632275941747699E9, 0.0, 2025-11-15 12:26:34.174
81.0, -206.09092695824802, -125.25111946603283, -178.67933023301885, -149.81852227495983, -0.03200000151991844, 0.144000006839633, 1.0240000486373901, 0.0, 0.0, 0.0, 0.0, 0.0, 1.7632275941756504E9, 0.0, 2025-11-15 12:26:34.175
81.0, -73.79570592567325, -18.080546335782856, -99.96939576556906, -78.72676401725039, -0.03200000151991844, 0.144000006839633, 1.0240000486373901, 0.0, 0.0, 0.0, 0.0, 0.0, 1.7632275941756504E9, 0.0, 2025-11-15 12:26:34.175
82.0, -203.2112039923668, -115.74803367862478, -149.23135798191652, -105.14915720419958, -0.03200000151991844, 0.144000006839633, 1.0240000486373901, 0.0, 0.0, 0.0, 0.0, 0.0, 1.7632275941876543E9, 0.0, 2025-11-15 12:26:34.187
82.0, -249.1932739475742, -153.99973042542115, -194.6636626436375, -163.9104653079994, -0.03200000151991844, 0.144000006839633, 1.0240000486373901, 0.0, 0.0, 0.0, 0.0, 0.0, 1.7632275941876543E9, 0.0, 2025-11-15 12:26:34.187
83.0, -104.26467086467892, -46.5972834979184, -121.51121951034293, -91.7640552627854, -0.03200000151991844, 0.144000006839633, 1.0240000486373901, 0.0, 0.0, 0.0, 0.0, 0.0, 1.763227594203385E9, 0.0, 2025-11-15 12:26:34.203
83.0, -156.87758344132453, -75.18133885925636, -115.48998058168218, -81.00062319030985, -0.03200000151991844, 0.144000006839633, 1.0240000486373901, 0.0, 0.0, 0.0, 0.0, 0.0, 1.763227594203385E9, 0.0, 2025-11-15 12:26:34.203
84.0, -257.54821044858545, -166.2778219799511, -200.42684847535565, -161.29253533901647, -0.03200000151991844, 0.144000006839633, 1.0240000486373901, 0.0, 0.0, 0.0, 0.0, 0.0, 1.763227594204112E9, 0.0, 2025-11-15 12:26:34.204
84.0, -164.51445915084332, -88.28968820394948, -157.63865308230743, -130.80861080018803, -0.03200000151991844, 0.144000006839633, 1.0240000486373901, 0.0, 0.0, 0.0, 0.0, 0.0, 1.763227594204112E9, 0.0, 2025-11-15 12:26:34.204
85.0, -105.15850695408881, -29.352604802232236, -90.55232767714188, -59.88514804048464, -0.03200000151991844, 0.144000006839633, 1.0240000486373901, 0.0, 0.0, 0.0, 0.0, 0.0, 1.763227594217718E9, 0.0, 2025-11-15 12:26:34.217
85.0, -241.16370874270797, -143.92443994479254, -175.29472077311948, -136.02951113833115, -0.03200000151991844, 0.144000006839633, 1.0240000486373901, 0.0, 0.0, 0.0, 0.0, 0.0, 1.763227594217718E9, 0.0, 2025-11-15 12:26:34.217
86.0, -212.37769878376275, -128.20564043102786, -182.64362418605015, -146.43391281506047, -0.03200000151991844, 0.144000006839633, 1.0240000486373901, 0.0, 0.0, 0.0, 0.0, 0.0, 1.7632275942333674E9, 0.0, 2025-11-15 12:26:34.233
86.0, -78.31350507214665, -16.438730255234987, -94.31840693252161, -70.9028933099471, -0.03200000151991844, 0.144000006839633, 1.0240000486373901, 0.0, 0.0, 0.0, 0.0, 0.0, 1.7632275942333674E9, 0.0, 2025-11-15 12:26:34.233
87.0, -227.8908037999645, -127.7830317360349, -157.99020367814228, -115.56851848075166, -0.03200000151991844, 0.144000006839633, 1.0240000486373901, 0.0, 0.0, 0.0, 0.0, 0.0, 1.7632275942340717E9, 0.0, 2025-11-15 12:26:34.234
87.0, -235.7408538069576, -152.32051534531638, -194.15503624966368, -154.62055381806567, -0.03200000151991844, 0.144000006839633, 1.0240000486373901, 0.0, 0.0, 0.0, 0.0, 0.0, 1.7632275942340717E9, 0.0, 2025-11-15 12:26:34.234
88.0, -99.30182362347841, -35.23546743253246, -121.21202751388773, -89.58743348857388, -0.03200000151991844, 0.144000006839633, 1.0240000486373901, 0.0, 0.0, 0.0, 0.0, 0.0, 1.7632275942477586E9, 0.0, 2025-11-15 12:26:34.247
88.0, -148.5937050394714, -65.24816457694396, -109.48370125284418, -74.80360896373168, -0.03200000151991844, 0.144000006839633, 1.0240000486373901, 0.0, 0.0, 0.0, 0.0, 0.0, 1.7632275942477586E9, 0.0, 2025-11-15 12:26:34.247
89.0, -251.33623662218451, -155.4620313080959, -198.71397429564968, -159.23185046343133, -0.03200000151991844, 0.144000006839633, 1.0240000486373901, 0.0, 0.0, 0.0, 0.0, 0.0, 1.7632275942633688E9, 0.0, 2025-11-15 12:26:34.263
89.0, -163.2578527657315, -88.22610990470275, -158.88029986759648, -123.16425529075786, -0.03200000151991844, 0.144000006839633, 1.0240000486373901, 0.0, 0.0, 0.0, 0.0, 0.0, 1.7632275942633688E9, 0.0, 2025-11-15 12:26:34.263
90.0, -107.89237382169813, -28.877637507859617, -95.29452082095668, -72.00242389691994, -0.03200000151991844, 0.144000006839633, 1.0240000486373901, 0.0, 0.0, 0.0, 0.0, 0.0, 1.7632275942640831E9, 0.0, 2025-11-15 12:26:34.264
90.0, -230.59849136788398, -134.3802152578719, -164.3891725023277, -121.50373971043155, -0.03200000151991844, 0.144000006839633, 1.0240000486373901, 0.0, 0.0, 0.0, 0.0, 0.0, 1.7632275942640831E9, 0.0, 2025-11-15 12:26:34.264
91.0, -209.1763444216922, -124.40216217609122, -180.26878771418706, -150.22243147017434, -0.03200000151991844, 0.144000006839633, 1.0240000486373901, 0.0, 0.0, 0.0, 0.0, 0.0, 1.7632275942777772E9, 0.0, 2025-11-15 12:26:34.277
91.0, -83.25017301365733, -18.24136203387752, -95.57501331763342, -73.4983838791959, -0.03200000151991844, 0.144000006839633, 1.0240000486373901, 0.0, 0.0, 0.0, 0.0, 0.0, 1.7632275942777772E9, 0.0, 2025-11-15 12:26:34.277
92.0, -219.9584759939462, -121.52617911016569, -157.67979198182002, -123.85987668251619, -0.03200000151991844, 0.144000006839633, 1.0240000486373901, 0.0, 0.0, 0.0, 0.0, 0.0, 1.763227594293389E9, 0.0, 2025-11-15 12:26:34.293
92.0, -240.93557484541088, -145.02397053176537, -196.64954952010885, -162.33222752669826, -0.03200000151991844, 0.144000006839633, 1.0240000486373901, 0.0, 0.0, 0.0, 0.0, 0.0, 1.763227594293389E9, 0.0, 2025-11-15 12:26:34.293
93.0, -105.07248925510794, -35.89368982473388, -117.0756981628947, -87.38837231462821, -0.03200000151991844, 0.144000006839633, 1.0240000486373901, 0.0, 0.0, 0.0, 0.0, 0.0, 1.76322759429407E9, 0.0, 2025-11-15 12:26:34.294
93.0, -145.13055768050253, -59.09602914983407, -119.92176202917472, -96.49128880677745, -0.03200000151991844, 0.144000006839633, 1.0240000486373901, 0.0, 0.0, 0.0, 0.0, 0.0, 1.76322759429407E9, 0.0, 2025-11-15 12:26:34.294
94.0, -251.2277795234695, -160.51089624827728, -204.5182990268804, -179.13185812765732, -0.03200000151991844, 0.144000006839633, 1.0240000486373901, 0.0, 0.0, 0.0, 0.0, 0.0, 1.7632275943240423E9, 0.0, 2025-11-15 12:26:34.324
94.0, -166.38814902864397, -94.04539423575625, -155.15161961177364, -103.0323738292791, -0.03200000151991844, 0.144000006839633, 1.0240000486373901, 0.0, 0.0, 0.0, 0.0, 0.0, 1.7632275943240423E9, 0.0, 2025-11-15 12:26:34.324
95.0, -103.47929187398404, -30.04074639407918, -91.45364356646314, -52.99625232210383, -0.03200000151991844, 0.144000006839633, 1.0240000486373901, 0.0, 0.0, 0.0, 0.0, 0.0, 1.7632275943247385E9, 0.0, 2025-11-15 12:26:34.324
95.0, -244.42116160411388, -149.95315867336467, -199.7424467834644, -170.1373987342231, -0.03200000151991844, 0.144000006839633, 1.0240000486373901, 0.0, 0.0, 0.0, 0.0, 0.0, 1.7632275943247385E9, 0.0, 2025-11-15 12:26:34.324
96.0, -229.4466021815315, -143.76736414665356, -194.36447064718232, -144.52282393770292, -0.03200000151991844, 0.144000006839633, 1.0240000486373901, 0.0, 0.0, 0.0, 0.0, 0.0, 1.7632275943254783E9, 0.0, 2025-11-15 12:26:34.325
96.0, -82.42739502340555, -11.86857250938192, -79.58320110710338, -22.33655248535797, -0.03200000151991844, 0.144000006839633, 1.0240000486373901, 0.0, 0.0, 0.0, 0.0, 0.0, 1.7632275943254783E9, 0.0, 2025-11-15 12:26:34.325
97.0, -203.25234289187938, -111.14047693321481, -155.30869540991262, -117.62172355642542, -0.03200000151991844, 0.144000006839633, 1.0240000486373901, 0.0, 0.0, 0.0, 0.0, 0.0, 1.7632275943376706E9, 0.0, 2025-11-15 12:26:34.337
97.0, -244.23416660632938, -156.7186376932077, -206.8258172995411, -174.71503627998754, -0.03200000151991844, 0.144000006839633, 1.0240000486373901, 0.0, 0.0, 0.0, 0.0, 0.0, 1.7632275943376706E9, 0.0, 2025-11-15 12:26:34.337
98.0, -105.61477474868298, -40.97995376447216, -107.58383207535371, -60.56954973237589, -0.03200000151991844, 0.144000006839633, 1.0240000486373901, 0.0, 0.0, 0.0, 0.0, 0.0, 1.7632275943533757E9, 0.0, 2025-11-15 12:26:34.353
98.0, -150.56463231611997, -65.58101567300037, -116.79894556617364, -84.84898024471477, -0.03200000151991844, 0.144000006839633, 1.0240000486373901, 0.0, 0.0, 0.0, 0.0, 0.0, 1.7632275943533757E9, 0.0, 2025-11-15 12:26:34.353
99.0, -249.02871834952384, -154.85616751527414, -203.2654325417243, -171.27432832075283, -0.03200000151991844, 0.144000006839633, 1.0240000486373901, 0.0, 0.0, 0.0, 0.0, 0.0, 1.76322759435406E9, 0.0, 2025-11-15 12:26:34.354
99.0, -174.29055763501674, -92.44845695467666, -155.4956904076971, -104.83874550787732, -0.03200000151991844, 0.144000006839633, 1.0240000486373901, 0.0, 0.0, 0.0, 0.0, 0.0, 1.76322759435406E9, 0.0, 2025-11-15 12:26:34.354
100.0, -97.27479784749448, -17.54200074216351, -78.71554431738332, -36.28637932008132, -0.03200000151991844, 0.144000006839633, 1.0240000486373901, 0.0, 0.0, 0.0, 0.0, 0.0, 1.7632275943684096E9, 0.0, 2025-11-15 12:26:34.368
100.0, -217.7668946199119, -135.83503634063527, -182.9989146818407, -164.15729870507494, -0.03200000151991844, 0.144000006839633, 1.0240000486373901, 0.0, 0.0, 0.0, 0.0, 0.0, 1.7632275943684096E9, 0.0, 2025-11-15 12:26:34.368
0.0, -224.90636363532394, -138.6025623078458, -192.571188618429, -154.1063175741583, -0.03200000151991844, 0.144000006839633, 1.0240000486373901, 0.0, 0.0, 0.0, 0.0, 0.0, 1.763227594369059E9, 0.0, 2025-11-15 12:26:34.369
1.0, -76.69786829128861, -2.6422393186949193, -67.20226230379194, -12.790457848459482, -0.03200000151991844, 0.1600000075995922, 1.0240000486373901, 0.0, 0.0, 0.0, 0.0, 0.0, 1.7632275943826833E9, 0.0, 2025-11-15 12:26:34.382
1.0, -205.64587886352092, -110.50095404079184, -157.05335873924196, -135.60877239331603, -0.03200000151991844, 0.1600000075995922, 1.0240000486373901, 0.0, 0.0, 0.0, 0.0, 0.0, 1.7632275943826833E9, 0.0, 2025-11-15 12:26:34.382
2.0, -237.4051092872396, -150.30096936924383, -203.22990349214524, -168.0449247090146, -0.03200000151991844, 0.1600000075995922, 1.0240000486373901, 0.0, 0.0, 0.0, 0.0, 0.0, 1.7632275943983288E9, 0.0, 2025-11-15 12:26:34.398
2.0, -117.14488631207496, -45.456614011432976, -107.55204292573035, -56.72306262794882, -0.03200000151991844, 0.1600000075995922, 1.0240000486373901, 0.0, 0.0, 0.0, 0.0, 0.0, 1.7632275943983288E9, 0.0, 2025-11-15 12:26:34.398
3.0, -139.99941494129598, -55.84231618838385, -107.10325493104756, -77.52812608145177, -0.03200000151991844, 0.1600000075995922, 1.0240000486373901, 0.0, 0.0, 0.0, 0.0, 0.0, 1.7632275943990335E9, 0.0, 2025-11-15 12:26:34.399
3.0, -251.2726583229378, -151.2359443581663, -199.30300853867084, -173.13492854870856, -0.03200000151991844, 0.1600000075995922, 1.0240000486373901, 0.0, 0.0, 0.0, 0.0, 0.0, 1.7632275943990335E9, 0.0, 2025-11-15 12:26:34.399
4.0, -153.46305478177965, -81.43819148512557, -145.13429758045822, -101.39242769870907, -0.03200000151991844, 0.1600000075995922, 1.0240000486373901, 0.0, 0.0, 0.0, 0.0, 0.0, 1.7632275944127102E9, 0.0, 2025-11-15 12:26:34.412
4.0, -92.66724110208452, -6.494336273055524, -69.54717957600951, -22.95550592802465, -0.03200000151991844, 0.1600000075995922, 1.0240000486373901, 0.0, 0.0, 0.0, 0.0, 0.0, 1.7632275944127102E9, 0.0, 2025-11-15 12:26:34.412
5.0, -232.3001458477229, -139.5263175969012, -185.58879540115595, -156.2193610491231, -0.03200000151991844, 0.1600000075995922, 1.0240000486373901, 0.0, 0.0, 0.0, 0.0, 0.0, 1.7632275944283311E9, 0.0, 2025-11-15 12:26:34.428
5.0, -212.94242367707193, -133.161007872317, -191.1275872355327, -146.67513636220247, -0.03200000151991844, 0.1600000075995922, 1.0240000486373901, 0.0, 0.0, 0.0, 0.0, 0.0, 1.7632275944283311E9, 0.0, 2025-11-15 12:26:34.428
6.0, -67.18730270396918, -8.67843784717843, -79.86182365380228, -23.624948020093143, -0.03200000151991844, 0.1600000075995922, 1.0240000486373901, 0.0, 0.0, 0.0, 0.0, 0.0, 1.7632275944290452E9, 0.0, 2025-11-15 12:26:34.429
6.0, -201.3524737143889, -115.40022298274562, -170.6366753783077, -139.142977851443, -0.03200000151991844, 0.1600000075995922, 1.0240000486373901, 0.0, 0.0, 0.0, 0.0, 0.0, 1.7632275944290452E9, 0.0, 2025-11-15 12:26:34.429
7.0, -244.226686806418, -157.93410517880693, -213.44357027113438, -183.98437832016498, -0.03200000151991844, 0.1600000075995922, 1.0240000486373901, 0.0, 0.0, 0.0, 0.0, 0.0, 1.7632275944427352E9, 0.0, 2025-11-15 12:26:34.442
7.0, -117.96018450241536, -46.60476329782978, -115.34599443338811, -57.08957282360643, -0.03200000151991844, 0.1600000075995922, 1.0240000486373901, 0.0, 0.0, 0.0, 0.0, 0.0, 1.7632275944427352E9, 0.0, 2025-11-15 12:26:34.442
8.0, -146.15155036840588, -66.43745276285335, -118.73808369319886, -80.01889945194125, -0.03200000151991844, 0.1600000075995922, 1.0240000486373901, 0.0, 0.0, 0.0, 0.0, 0.0, 1.763227594458346E9, 0.0, 2025-11-15 12:26:34.458
8.0, -244.4884798033163, -160.26032295124605, -209.44935711845756, -180.88774115685374, -0.03200000151991844, 0.1600000075995922, 1.0240000486373901, 0.0, 0.0, 0.0, 0.0, 0.0, 1.763227594458346E9, 0.0, 2025-11-15 12:26:34.458
9.0, -170.7114733774215, -97.51976129459217, -157.93971502874047, -108.34116181638092, -0.03200000151991844, 0.1600000075995922, 1.0240000486373901, 0.0, 0.0, 0.0, 0.0, 0.0, 1.7632275944590504E9, 0.0, 2025-11-15 12:26:34.459
9.0, -92.76821840088814, -20.71717580454424, -82.17682172637433, -29.7546440474689, -0.03200000151991844, 0.1600000075995922, 1.0240000486373901, 0.0, 0.0, 0.0, 0.0, 0.0, 1.7632275944590504E9, 0.0, 2025-11-15 12:26:34.459
10.0, -234.85823741741478, -144.69111943570897, -192.0588223244995, -165.1203229436651, -0.03200000151991844, 0.1600000075995922, 1.0400000493973494, 0.0, 0.0, 0.0, 0.0, 0.0, 1.763227594472654E9, 0.0, 2025-11-15 12:26:34.472
10.0, -213.87365876603872, -133.44524026894942, -190.59652144182473, -147.53531335201114, -0.03200000151991844, 0.1600000075995922, 1.0400000493973494, 0.0, 0.0, 0.0, 0.0, 0.0, 1.763227594472654E9, 0.0, 2025-11-15 12:26:34.472
11.0, -74.86905721295625, -4.998376290779561, -76.49591369368136, -16.55279720388353, -0.03200000151991844, 0.144000006839633, 1.0400000493973494, 0.0, 0.0, 0.0, 0.0, 0.0, 1.763227594488448E9, 0.0, 2025-11-15 12:26:34.488
11.0, -196.14653297606856, -113.95662159984931, -165.58781043812633, -143.32044610194862, -0.03200000151991844, 0.144000006839633, 1.0400000493973494, 0.0, 0.0, 0.0, 0.0, 0.0, 1.763227594488448E9, 0.0, 2025-11-15 12:26:34.488
12.0, -227.93942249938846, -151.6061944537796, -200.4997765244916, -153.9978604754433, -0.03200000151991844, 0.144000006839633, 1.0400000493973494, 0.0, 0.0, 0.0, 0.0, 0.0, 1.7632275944891028E9, 0.0, 2025-11-15 12:26:34.489
12.0, -130.66088475193828, -55.187833696138114, -121.00072316639125, -61.16232387535274, -0.03200000151991844, 0.144000006839633, 1.0400000493973494, 0.0, 0.0, 0.0, 0.0, 0.0, 1.7632275944891028E9, 0.0, 2025-11-15 12:26:34.489
13.0, -141.65245072171092, -57.27469787141308, -112.17081937100738, -77.99561357591301, -0.03200000151991844, 0.144000006839633, 1.0400000493973494, 0.0, 0.0, 0.0, 0.0, 0.0, 1.7632275945026755E9, 0.0, 2025-11-15 12:26:34.502
13.0, -250.34890303388238, -157.60125408275053, -209.18008432164788, -175.70423981826752, -0.03200000151991844, 0.144000006839633, 1.0400000493973494, 0.0, 0.0, 0.0, 0.0, 0.0, 1.7632275945026755E9, 0.0, 2025-11-15 12:26:34.502
14.0, -170.1542282840237, -89.71832998702303, -155.4115426586941, -112.30545576941222, -0.03200000151991844, 0.144000006839633, 1.0400000493973494, 0.0, 0.0, 0.0, 0.0, 0.0, 1.7632275945184104E9, 0.0, 2025-11-15 12:26:34.518
14.0, -87.1546285673976, -7.500369361136109, -73.84432462509722, -28.883247357793152, -0.03200000151991844, 0.144000006839633, 1.0400000493973494, 0.0, 0.0, 0.0, 0.0, 0.0, 1.7632275945184104E9, 0.0, 2025-11-15 12:26:34.518
15.0, -238.6355363726616, -146.95001900894567, -196.62898007035255, -173.36680234596133, -0.03200000151991844, 0.144000006839633, 1.0400000493973494, 0.0, 0.0, 0.0, 0.0, 0.0, 1.763227594519104E9, 0.0, 2025-11-15 12:26:34.519
15.0, -212.0261481879279, -126.49650615127757, -183.06062303110957, -135.53397439420223, -0.03200000151991844, 0.144000006839633, 1.0400000493973494, 0.0, 0.0, 0.0, 0.0, 0.0, 1.763227594519104E9, 0.0, 2025-11-15 12:26:34.519
16.0, -68.56732578761876, -2.414105421397835, -65.6614235220477, -5.879122730344534, -0.03200000151991844, 0.144000006839633, 1.0400000493973494, 0.0, 0.0, 0.0, 0.0, 0.0, 1.7632275945326629E9, 0.0, 2025-11-15 12:26:34.532
16.0, -209.74480921495706, -116.1856019734405, -164.00957265682518, -132.3999382313341, -0.03200000151991844, 0.144000006839633, 1.0400000493973494, 0.0, 0.0, 0.0, 0.0, 0.0, 1.7632275945326629E9, 0.0, 2025-11-15 12:26:34.532
17.0, -248.0787837607786, -158.33053457411006, -212.0224082879722, -172.91427445132285, -0.03200000151991844, 0.144000006839633, 1.0400000493973494, 0.0, 0.0, 0.0, 0.0, 0.0, 1.7632275945483806E9, 0.0, 2025-11-15 12:26:34.548
17.0, -111.36300098057836, -43.17901493841782, -116.40064622089267, -51.42362439073622, -0.03200000151991844, 0.144000006839633, 1.0400000493973494, 0.0, 0.0, 0.0, 0.0, 0.0, 1.7632275945483806E9, 0.0, 2025-11-15 12:26:34.548
18.0, -138.78768735565245, -54.57823000336066, -113.73783745244145, -85.53899178653955, -0.03200000151991844, 0.144000006839633, 1.0400000493973494, 0.0, 0.0, 0.0, 0.0, 0.0, 1.763227594549142E9, 0.0, 2025-11-15 12:26:34.549
18.0, -244.95970719773322, -150.94797206157818, -205.6533586634323, -181.8638550452888, -0.03200000151991844, 0.144000006839633, 1.0400000493973494, 0.0, 0.0, 0.0, 0.0, 0.0, 1.763227594549142E9, 0.0, 2025-11-15 12:26:34.549
19.0, -176.17546721268445, -94.0640937355347, -161.57863768562675, -112.4999305671081, -0.03200000151991844, 0.144000006839633, 1.0400000493973494, 0.0, 0.0, 0.0, 0.0, 0.0, 1.7632275945626903E9, 0.0, 2025-11-15 12:26:34.562
19.0, -84.16644850280136, -15.46635626675561, -76.92974208854139, -29.268457053229213, -0.03200000151991844, 0.144000006839633, 1.0400000493973494, 0.0, 0.0, 0.0, 0.0, 0.0, 1.7632275945626903E9, 0.0, 2025-11-15 12:26:34.562
20.0, -247.64869526587427, -146.98367810854688, -198.8766599437222, -167.61109631415457, -0.03200000151991844, 0.144000006839633, 1.0400000493973494, 0.0, 0.0, 0.0, 0.0, 0.0, 1.7632275945784073E9, 0.0, 2025-11-15 12:26:34.578
20.0, -216.24475533794612, -133.69207366602495, -191.2061251346022, -144.13574429228902, -0.03200000151991844, 0.144000006839633, 1.0400000493973494, 0.0, 0.0, 0.0, 0.0, 0.0, 1.7632275945784073E9, 0.0, 2025-11-15 12:26:34.578
21.0, -72.2212080443278, -4.175598300527781, -71.48444775305688, -7.838830307126045, -0.03200000151991844, 0.144000006839633, 1.0400000493973494, 0.0, 0.0, 0.0, 0.0, 0.0, 1.7632275945790875E9, 0.0, 2025-11-15 12:26:34.579
21.0, -204.85302007291466, -110.45981514127925, -157.0346592394635, -122.79587514512241, -0.03200000151991844, 0.144000006839633, 1.0400000493973494, 0.0, 0.0, 0.0, 0.0, 0.0, 1.7632275945790875E9, 0.0, 2025-11-15 12:26:34.579
22.0, -239.64904926065356, -149.81104247504845, -197.63501315843314, -151.8848170004785, -0.04800000227987766, 0.144000006839633, 1.0400000493973494, 0.0, 0.0, 0.0, 0.0, 0.0, 1.76322759459272E9, 0.0, 2025-11-15 12:26:34.592
22.0, -110.81697558704764, -38.15632929792628, -105.1996458536014, -35.170019183307886, -0.04800000227987766, 0.144000006839633, 1.0400000493973494, 0.0, 0.0, 0.0, 0.0, 0.0, 1.76322759459272E9, 0.0, 2025-11-15 12:26:34.592
23.0, -137.71059616841376, -53.71805301355198, -101.64674089569598, -57.55332041811198, -0.04800000227987766, 0.144000006839633, 1.0400000493973494, 0.0, 0.0, 0.0, 0.0, 0.0, 1.76322759460838E9, 0.0, 2025-11-15 12:26:34.608
23.0, -249.10725624859333, -152.6458866414614, -203.97040368337184, -160.5165060982108, -0.04800000227987766, 0.144000006839633, 1.0400000493973494, 0.0, 0.0, 0.0, 0.0, 0.0, 1.76322759460838E9, 0.0, 2025-11-15 12:26:34.608
24.0, -169.95975348632783, -93.29741424461827, -154.9964137636125, -94.87752197589725, -0.04800000227987766, 0.144000006839633, 1.0400000493973494, 0.0, 0.0, 0.0, 0.0, 0.0, 1.7632275946091E9, 0.0, 2025-11-15 12:26:34.609
24.0, -95.34874937031418, -12.29866100428626, -77.65528267994523, -24.1971527133137, -0.04800000227987766, 0.144000006839633, 1.0400000493973494, 0.0, 0.0, 0.0, 0.0, 0.0, 1.7632275946091E9, 0.0, 2025-11-15 12:26:34.609
25.0, -231.297852659598, -134.3802152578719, -184.8258558101952, -145.11185818072408, -0.04800000227987766, 0.144000006839633, 1.0400000493973494, 0.0, 0.0, 0.0, 0.0, 0.0, 1.7632275946226895E9, 0.0, 2025-11-15 12:26:34.622
25.0, -217.512581422925, -132.09887628490105, -188.77145026344806, -143.97866849415004, -0.04800000227987766, 0.144000006839633, 1.0400000493973494, 0.0, 0.0, 0.0, 0.0, 0.0, 1.7632275946226895E9, 0.0, 2025-11-15 12:26:34.622
26.0, -75.17946890927851, -2.743216617498547, -70.68036926258355, -6.746779520064592, -0.04800000227987766, 0.144000006839633, 1.0400000493973494, 0.0, 0.0, 0.0, 0.0, 0.0, 1.7632275946383927E9, 0.0, 2025-11-15 12:26:34.638
26.0, -191.18368573486805, -104.734028309118, -151.6267639035359, -124.5386685244739, -0.04800000227987766, 0.144000006839633, 1.0400000493973494, 0.0, 0.0, 0.0, 0.0, 0.0, 1.7632275946383927E9, 0.0, 2025-11-15 12:26:34.638
27.0, -234.84327781759202, -149.88958037411794, -200.2454633275047, -163.91233525797725, -0.04800000227987766, 0.144000006839633, 1.0400000493973494, 0.0, 0.0, 0.0, 0.0, 0.0, 1.763227594639098E9, 0.0, 2025-11-15 12:26:34.639
27.0, -107.76521722320467, -35.848811025265604, -104.06271626707166, -43.214543987996876, -0.04800000227987766, 0.144000006839633, 1.0400000493973494, 0.0, 0.0, 0.0, 0.0, 0.0, 1.763227594639098E9, 0.0, 2025-11-15 12:26:34.639
28.0, -133.41719101928174, -50.95800684625283, -102.98188517987728, -59.52798759471625, -0.04800000227987766, 0.144000006839633, 1.0400000493973494, 0.0, 0.0, 0.0, 0.0, 0.0, 1.7632275946526732E9, 0.0, 2025-11-15 12:26:34.652
28.0, -246.76233897637576, -155.97439760202542, -200.02854913007468, -168.3403768055141, -0.04800000227987766, 0.144000006839633, 1.0400000493973494, 0.0, 0.0, 0.0, 0.0, 0.0, 1.7632275946526732E9, 0.0, 2025-11-15 12:26:34.652
29.0, -176.90474770404398, -93.48814914235845, -152.94694858789444, -89.33499024156481, -0.04800000227987766, 0.144000006839633, 1.0400000493973494, 0.0, 0.0, 0.0, 0.0, 0.0, 1.7632275946683848E9, 0.0, 2025-11-15 12:26:34.668
29.0, -92.42788750492036, -11.692797211464494, -75.90126960072666, -22.6039553321898, -0.04800000227987766, 0.144000006839633, 1.0400000493973494, 0.0, 0.0, 0.0, 0.0, 0.0, 1.7632275946683848E9, 0.0, 2025-11-15 12:26:34.668
30.0, -239.7014078600332, -145.21470542950556, -200.3127815267071, -169.61194279044867, -0.04800000227987766, 0.144000006839633, 1.0240000486373901, 0.0, 0.0, 0.0, 0.0, 0.0, 1.763227594669092E9, 0.0, 2025-11-15 12:26:34.669
30.0, -215.62767184525728, -134.25679855933413, -191.0901882359758, -140.0704730404541, -0.04800000227987766, 0.144000006839633, 1.0240000486373901, 0.0, 0.0, 0.0, 0.0, 0.0, 1.763227594669092E9, 0.0, 2025-11-15 12:26:34.669
31.0, -76.38371669501066, -10.006102331448346, -76.30143889598548, -12.749318948946893, -0.04800000227987766, 0.1600000075995922, 1.0240000486373901, 0.0, 0.0, 0.0, 0.0, 0.0, 1.7632275946826556E9, 0.0, 2025-11-15 12:26:34.682
31.0, -203.07656759396195, -108.91149655962363, -158.9233087170869, -125.48486321326345, -0.04800000227987766, 0.1600000075995922, 1.0240000486373901, 0.0, 0.0, 0.0, 0.0, 0.0, 1.7632275946826556E9, 0.0, 2025-11-15 12:26:34.682
32.0, -246.47810657974333, -161.02700244216248, -211.93265068903565, -168.38525560498238, -0.04800000227987766, 0.1600000075995922, 1.0240000486373901, 0.0, 0.0, 0.0, 0.0, 0.0, 1.763227594698476E9, 0.0, 2025-11-15 12:26:34.698
32.0, -112.67196596506983, -46.20085410261527, -114.29134264588356, -58.43219690769911, -0.04800000227987766, 0.1600000075995922, 1.0240000486373901, 0.0, 0.0, 0.0, 0.0, 0.0, 1.763227594698476E9, 0.0, 2025-11-15 12:26:34.698
33.0, -142.34807211346924, -68.0867486433126, -125.03607521858066, -87.97366665769368, -0.04800000227987766, 0.1600000075995922, 1.0240000486373901, 0.0, 0.0, 0.0, 0.0, 0.0, 1.7632275946991107E9, 0.0, 2025-11-15 12:26:34.699
33.0, -251.59054981917143, -162.97175041912124, -215.45189654733986, -177.36475539859384, -0.04800000227987766, 0.1600000075995922, 1.0240000486373901, 0.0, 0.0, 0.0, 0.0, 0.0, 1.7632275946991107E9, 0.0, 2025-11-15 12:26:34.699
34.0, -171.1901805717498, -99.87589826667681, -161.7768523832783, -101.24657160043716, -0.04800000227987766, 0.1600000075995922, 1.0240000486373901, 0.0, 0.0, 0.0, 0.0, 0.0, 1.7632275947126489E9, 0.0, 2025-11-15 12:26:34.712
34.0, -88.58701025042683, -17.05581374792382, -81.29046543687582, -25.651973796077073, -0.04800000227987766, 0.1600000075995922, 1.0240000486373901, 0.0, 0.0, 0.0, 0.0, 0.0, 1.7632275947126489E9, 0.0, 2025-11-15 12:26:34.712
35.0, -226.87355101201683, -139.96388589171693, -193.08355491235852, -159.79470540676266, -0.04800000227987766, 0.1600000075995922, 1.0240000486373901, 0.0, 0.0, 0.0, 0.0, 0.0, 1.7632275947283852E9, 0.0, 2025-11-15 12:26:34.728
35.0, -223.8479719478637, -138.5315042086877, -189.69520555250347, -142.04888011701405, -0.04800000227987766, 0.1600000075995922, 1.0240000486373901, 0.0, 0.0, 0.0, 0.0, 0.0, 1.7632275947283852E9, 0.0, 2025-11-15 12:26:34.728
36.0, -59.94685638975352, 3.8913659038953483, -63.791473544202745, 2.0232858760282397, -0.04800000227987766, 0.1600000075995922, 1.0240000486373901, 0.0, 0.0, 0.0, 0.0, 0.0, 1.7632275947291393E9, 0.0, 2025-11-15 12:26:34.729
36.0, -205.87027286086231, -112.61399751575664, -165.58781043812633, -134.99542880058289, -0.04800000227987766, 0.1600000075995922, 1.0240000486373901, 0.0, 0.0, 0.0, 0.0, 0.0, 1.7632275947291393E9, 0.0, 2025-11-15 12:26:34.729
37.0, -247.51031896751374, -153.1619928353466, -212.22436288557947, -171.16400127205998, -0.04800000227987766, 0.1600000075995922, 1.0240000486373901, 0.0, 0.0, 0.0, 0.0, 0.0, 1.7632275947427473E9, 0.0, 2025-11-15 12:26:34.742
37.0, -104.38808756321669, -35.53091952903196, -102.32740268763155, -32.9784378092736, -0.04800000227987766, 0.1600000075995922, 1.0240000486373901, 0.0, 0.0, 0.0, 0.0, 0.0, 1.7632275947427473E9, 0.0, 2025-11-15 12:26:34.742
38.0, -139.0270409528166, -55.79369748895988, -106.09348194301128, -69.53595987614244, -0.04800000227987766, 0.1600000075995922, 1.0240000486373901, 0.0, 0.0, 0.0, 0.0, 0.0, 1.7632275947583826E9, 0.0, 2025-11-15 12:26:34.758
38.0, -251.57933011930436, -163.78704860946164, -211.0986529989168, -173.5650170436129, -0.04800000227987766, 0.1600000075995922, 1.0240000486373901, 0.0, 0.0, 0.0, 0.0, 0.0, 1.7632275947583826E9, 0.0, 2025-11-15 12:26:34.758
39.0, -183.24761802889407, -104.23662161501125, -168.51241220347583, -108.74133111163974, -0.04800000227987766, 0.1600000075995922, 1.0240000486373901, 0.0, 0.0, 0.0, 0.0, 0.0, 1.7632275947591133E9, 0.0, 2025-11-15 12:26:34.759
39.0, -101.33258929941803, -23.12193147605285, -84.12530960328877, -19.37268177047372, -0.04800000227987766, 0.1600000075995922, 1.0240000486373901, 0.0, 0.0, 0.0, 0.0, 0.0, 1.7632275947591133E9, 0.0, 2025-11-15 12:26:34.759
40.0, -229.8168522771448, -148.73395128780976, -200.08838752936572, -174.12974193692207, -0.04800000227987766, 0.1600000075995922, 1.0240000486373901, 0.0, 0.0, 0.0, 0.0, 0.0, 1.763227594772741E9, 0.0, 2025-11-15 12:26:34.772
40.0, -220.3623851891607, -142.43595976242796, -199.45634443685412, -156.76538644265383, -0.04800000227987766, 0.1600000075995922, 1.0240000486373901, 0.0, 0.0, 0.0, 0.0, 0.0, 1.763227594772741E9, 0.0, 2025-11-15 12:26:34.772
41.0, -88.17188135534525, -17.90851093782112, -87.23316646646708, -31.198245430365205, -0.04800000227987766, 0.144000006839633, 1.0240000486373901, 0.0, 0.0, 0.0, 0.0, 0.0, 1.76322759478839E9, 0.0, 2025-11-15 12:26:34.788
41.0, -208.25258913263679, -118.57165814517066, -168.87518249917775, -137.29546727333218, -0.04800000227987766, 0.144000006839633, 1.0240000486373901, 0.0, 0.0, 0.0, 0.0, 0.0, 1.76322759478839E9, 0.0, 2025-11-15 12:26:34.788
42.0, -244.60815660189837, -156.30724869808182, -205.66831826325506, -166.50782582722604, -0.04800000227987766, 0.144000006839633, 1.0240000486373901, 0.0, 0.0, 0.0, 0.0, 0.0, 1.7632275947890909E9, 0.0, 2025-11-15 12:26:34.789
42.0, -113.87995365075767, -42.42355514736846, -108.82360891066492, -48.476583225652575, -0.04800000227987766, 0.144000006839633, 1.0240000486373901, 0.0, 0.0, 0.0, 0.0, 0.0, 1.7632275947890909E9, 0.0, 2025-11-15 12:26:34.789
43.0, -145.76634067296982, -56.22752588381991, -114.96078473795205, -74.41652931831777, -0.04800000227987766, 0.144000006839633, 1.0240000486373901, 0.0, 0.0, 0.0, 0.0, 0.0, 1.7632275948028183E9, 0.0, 2025-11-15 12:26:34.802
43.0, -247.57389726676047, -157.04026908939704, -206.22556335665286, -163.32891086488962, -0.04800000227987766, 0.144000006839633, 1.0240000486373901, 0.0, 0.0, 0.0, 0.0, 0.0, 1.7632275948028183E9, 0.0, 2025-11-15 12:26:34.802
44.0, -163.38874926418066, -89.37051929114386, -153.4817542815581, -101.90479399263859, -0.04800000227987766, 0.144000006839633, 1.0240000486373901, 0.0, 0.0, 0.0, 0.0, 0.0, 1.763227594818376E9, 0.0, 2025-11-15 12:26:34.818
44.0, -88.83758354745805, -14.434143878985196, -76.17802219744772, -20.431073457933962, -0.04800000227987766, 0.144000006839633, 1.0240000486373901, 0.0, 0.0, 0.0, 0.0, 0.0, 1.763227594818376E9, 0.0, 2025-11-15 12:26:34.818
45.0, -227.2961597070098, -147.29034990491346, -199.15341254044324, -167.82801051158458, -0.04800000227987766, 0.144000006839633, 1.0240000486373901, 0.0, 0.0, 0.0, 0.0, 0.0, 1.7632275948190815E9, 0.0, 2025-11-15 12:26:34.819
45.0, -216.2858942374587, -133.96134646283463, -193.35656760912389, -146.02065386995673, -0.04800000227987766, 0.144000006839633, 1.0240000486373901, 0.0, 0.0, 0.0, 0.0, 0.0, 1.7632275948190815E9, 0.0, 2025-11-15 12:26:34.819
46.0, -77.39348968304694, -12.552974201273173, -83.17163511458784, -25.868887993507087, -0.04800000227987766, 0.144000006839633, 1.0240000486373901, 0.0, 0.0, 0.0, 0.0, 0.0, 1.7632275948327088E9, 0.0, 2025-11-15 12:26:34.832
46.0, -207.45225054211915, -115.93502867640927, -170.01959188561887, -134.9916889006272, -0.04800000227987766, 0.144000006839633, 1.0240000486373901, 0.0, 0.0, 0.0, 0.0, 0.0, 1.7632275948327088E9, 0.0, 2025-11-15 12:26:34.832
47.0, -243.91627511009574, -158.34549417393282, -213.13315857481211, -165.83090393524617, -0.04800000227987766, 0.144000006839633, 1.0240000486373901, 0.0, 0.0, 0.0, 0.0, 0.0, 1.7632275948484352E9, 0.0, 2025-11-15 12:26:34.848
47.0, -98.69221993070096, -39.65976908011362, -110.8319351868704, -48.73837622255087, -0.04800000227987766, 0.144000006839633, 1.0240000486373901, 0.0, 0.0, 0.0, 0.0, 0.0, 1.7632275948484352E9, 0.0, 2025-11-15 12:26:34.848
48.0, -141.79082702007145, -57.7122661662288, -119.43744498491287, -76.7053480912, -0.04800000227987766, 0.144000006839633, 1.0240000486373901, 0.0, 0.0, 0.0, 0.0, 0.0, 1.763227594849095E9, 0.0, 2025-11-15 12:26:34.849
48.0, -243.47496691532433, -149.18273928249255, -205.1372524695471, -163.0371986683458, -0.04800000227987766, 0.144000006839633, 1.0240000486373901, 0.0, 0.0, 0.0, 0.0, 0.0, 1.763227594849095E9, 0.0, 2025-11-15 12:26:34.849
49.0, -154.75706016644835, -87.00690251914784, -156.4811540460214, -108.20652541797608, -0.04800000227987766, 0.144000006839633, 1.0240000486373901, 0.0, 0.0, 0.0, 0.0, 0.0, 1.7632275948627665E9, 0.0, 2025-11-15 12:26:34.862
49.0, -108.68897251226008, -31.877037272322923, -97.77968434151262, -48.095113430172205, -0.04800000227987766, 0.144000006839633, 1.0240000486373901, 0.0, 0.0, 0.0, 0.0, 0.0, 1.7632275948627665E9, 0.0, 2025-11-15 12:26:34.862
50.0, -235.39678301103413, -145.54755652556196, -196.35970727354288, -153.89688317663968, -0.04800000227987766, 0.144000006839633, 1.0400000493973494, 0.0, 0.0, 0.0, 0.0, 0.0, 1.7632275948783908E9, 0.0, 2025-11-15 12:26:34.878
50.0, -211.38662529550493, -141.06715637864545, -199.21699083968997, -147.47173505276442, -0.04800000227987766, 0.144000006839633, 1.0400000493973494, 0.0, 0.0, 0.0, 0.0, 0.0, 1.7632275948783908E9, 0.0, 2025-11-15 12:26:34.878
51.0, -80.54248544573784, -14.602439376991242, -80.890296141617, -21.66898034326732, -0.04800000227987766, 0.144000006839633, 1.0400000493973494, 0.0, 0.0, 0.0, 0.0, 0.0, 1.763227594879082E9, 0.0, 2025-11-15 12:26:34.879
51.0, -209.5391147173941, -115.23940728465095, -163.42240836378187, -115.51802983134985, -0.04800000227987766, 0.144000006839633, 1.0400000493973494, 0.0, 0.0, 0.0, 0.0, 0.0, 1.763227594879082E9, 0.0, 2025-11-15 12:26:34.879
52.0, -238.19422817789018, -159.36274696188048, -211.2856479967013, -167.19970731902868, -0.04800000227987766, 0.144000006839633, 1.0400000493973494, 0.0, 0.0, 0.0, 0.0, 0.0, 1.7632275948927345E9, 0.0, 2025-11-15 12:26:34.892
52.0, -107.8661945220083, -45.00782601675019, -112.30171586945653, -42.13371290080249, -0.04800000227987766, 0.144000006839633, 1.0400000493973494, 0.0, 0.0, 0.0, 0.0, 0.0, 1.7632275948927345E9, 0.0, 2025-11-15 12:26:34.892
53.0, -146.13285086862743, -61.24273172440007, -122.96043074317276, -86.10371667984873, -0.04800000227987766, 0.144000006839633, 1.0400000493973494, 0.0, 0.0, 0.0, 0.0, 0.0, 1.7632275949084888E9, 0.0, 2025-11-15 12:26:34.908
53.0, -238.3363443762064, -147.39506710367277, -205.8029546616599, -165.83838373515755, -0.04800000227987766, 0.144000006839633, 1.0400000493973494, 0.0, 0.0, 0.0, 0.0, 0.0, 1.7632275949084888E9, 0.0, 2025-11-15 12:26:34.908
54.0, -168.47875310387462, -96.31551350886002, -160.66236219648272, -99.72817221842706, -0.04800000227987766, 0.144000006839633, 1.0400000493973494, 0.0, 0.0, 0.0, 0.0, 0.0, 1.763227594909104E9, 0.0, 2025-11-15 12:26:34.909
54.0, -99.87402831669897, -23.866171567235142, -86.36924957670271, -24.675859907642007, -0.04800000227987766, 0.144000006839633, 1.0400000493973494, 0.0, 0.0, 0.0, 0.0, 0.0, 1.763227594909104E9, 0.0, 2025-11-15 12:26:34.909
55.0, -227.19144250825047, -149.76242377562448, -194.62813359405845, -150.75910711381584, -0.04800000227987766, 0.144000006839633, 1.0400000493973494, 0.0, 0.0, 0.0, 0.0, 0.0, 1.7632275949227028E9, 0.0, 2025-11-15 12:26:34.922
55.0, -208.37974573113024, -135.99585203872994, -191.606294429861, -135.20112329814583, -0.04800000227987766, 0.144000006839633, 1.0400000493973494, 0.0, 0.0, 0.0, 0.0, 0.0, 1.7632275949227028E9, 0.0, 2025-11-15 12:26:34.922
56.0, -73.02902643475682, -9.187064241152257, -72.43812224175781, -10.108949580229819, -0.04800000227987766, 0.144000006839633, 1.0400000493973494, 0.0, 0.0, 0.0, 0.0, 0.0, 1.763227594938378E9, 0.0, 2025-11-15 12:26:34.938
56.0, -186.1647399943322, -111.81739882519469, -150.3626777185127, -110.39810679201037, -0.04800000227987766, 0.144000006839633, 1.0400000493973494, 0.0, 0.0, 0.0, 0.0, 0.0, 1.763227594938378E9, 0.0, 2025-11-15 12:26:34.938
57.0, -245.565570990555, -159.2767292628996, -204.66602507513016, -154.12875697389245, -0.04800000227987766, 0.144000006839633, 1.0400000493973494, 0.0, 0.0, 0.0, 0.0, 0.0, 1.7632275949390917E9, 0.0, 2025-11-15 12:26:34.939
57.0, -103.80092327017337, -39.67098877998069, -109.71370510011911, -53.45439006667584, -0.04800000227987766, 0.144000006839633, 1.0400000493973494, 0.0, 0.0, 0.0, 0.0, 0.0, 1.7632275949390917E9, 0.0, 2025-11-15 12:26:34.939
58.0, -154.83933796547353, -70.24841081770137, -120.37989977374673, -77.06063858699054, -0.04800000227987766, 0.144000006839633, 1.0400000493973494, 0.0, 0.0, 0.0, 0.0, 0.0, 1.7632275949527085E9, 0.0, 2025-11-15 12:26:34.952
58.0, -247.66739476565272, -155.04690241301432, -200.32774112652987, -154.1474564736709, -0.04800000227987766, 0.144000006839633, 1.0400000493973494, 0.0, 0.0, 0.0, 0.0, 0.0, 1.7632275949527085E9, 0.0, 2025-11-15 12:26:34.952
59.0, -153.69492857903242, -89.93150428449735, -158.65029602032155, -105.18468625377864, -0.04800000227987766, 0.144000006839633, 1.0400000493973494, 0.0, 0.0, 0.0, 0.0, 0.0, 1.763227594968367E9, 0.0, 2025-11-15 12:26:34.968
59.0, -106.06356274336576, -33.2570603559725, -98.99515182711184, -43.308041486889124, -0.04800000227987766, 0.144000006839633, 1.0400000493973494, 0.0, 0.0, 0.0, 0.0, 0.0, 1.763227594968367E9, 0.0, 2025-11-15 12:26:34.968
60.0, -236.35793729964644, -149.8260020748712, -193.7230778047815, -152.180269096978, -0.04800000227987766, 0.144000006839633, 1.0400000493973494, 0.0, 0.0, 0.0, 0.0, 0.0, 1.7632275949690833E9, 0.0, 2025-11-15 12:26:34.969
60.0, -206.5097957532853, -128.31783742969856, -186.81548258662224, -134.1801306102425, -0.04800000227987766, 0.144000006839633, 1.0400000493973494, 0.0, 0.0, 0.0, 0.0, 0.0, 1.7632275949690833E9, 0.0, 2025-11-15 12:26:34.969
61.0, -72.01925344672054, -12.205163505394012, -92.48398600425571, -43.44267788529396, -0.04800000227987766, 0.144000006839633, 1.0400000493973494, 0.0, 0.0, 0.0, 0.0, 0.0, 1.76322759498269E9, 0.0, 2025-11-15 12:26:34.982
61.0, -195.682785381563, -113.15254310937598, -158.71387431956828, -114.4970371434465, -0.04800000227987766, 0.144000006839633, 1.0400000493973494, 0.0, 0.0, 0.0, 0.0, 0.0, 1.76322759498269E9, 0.0, 2025-11-15 12:26:34.982
62.0, -239.76872605923563, -153.8351748273708, -201.96581730712205, -151.31261230725795, -0.04800000227987766, 0.144000006839633, 1.0400000493973494, 0.0, 0.0, 0.0, 0.0, 0.0, 1.76322759499841E9, 0.0, 2025-11-15 12:26:34.998
62.0, -94.88126187585294, -40.01131967594847, -113.44238535594195, -59.18391679879278, -0.04800000227987766, 0.144000006839633, 1.0400000493973494, 0.0, 0.0, 0.0, 0.0, 0.0, 1.76322759499841E9, 0.0, 2025-11-15 12:26:34.998
63.0, -150.81894551310688, -74.85596756311134, -121.21015756390989, -76.7053480912, -0.04800000227987766, 0.144000006839633, 1.0400000493973494, 0.0, 0.0, 0.0, 0.0, 0.0, 1.7632275949991007E9, 0.0, 2025-11-15 12:26:34.999
63.0, -247.28592497017235, -167.6578450636007, -206.730449850671, -155.14226986188442, -0.04800000227987766, 0.144000006839633, 1.0400000493973494, 0.0, 0.0, 0.0, 0.0, 0.0, 1.7632275949991007E9, 0.0, 2025-11-15 12:26:34.999
64.0, -166.87059612292796, -98.09944578772411, -161.31310478877276, -115.27493633423, -0.04800000227987766, 0.144000006839633, 1.0400000493973494, 0.0, 0.0, 0.0, 0.0, 0.0, 1.7632275950127213E9, 0.0, 2025-11-15 12:26:35.012
64.0, -88.38879555277526, -27.448995724786073, -90.35598292946815, -50.4325509024784, -0.04800000227987766, 0.144000006839633, 1.0400000493973494, 0.0, 0.0, 0.0, 0.0, 0.0, 1.7632275950127213E9, 0.0, 2025-11-15 12:26:35.012
65.0, -236.2980989003554, -141.38878777483478, -185.99270459637046, -144.01980739366263, -0.04800000227987766, 0.144000006839633, 1.0400000493973494, 0.0, 0.0, 0.0, 0.0, 0.0, 1.7632275950283756E9, 0.0, 2025-11-15 12:26:35.028
65.0, -202.26874920353293, -127.72693323669955, -186.0188838960603, -142.53132721129805, -0.04800000227987766, 0.144000006839633, 1.0400000493973494, 0.0, 0.0, 0.0, 0.0, 0.0, 1.7632275950283756E9, 0.0, 2025-11-15 12:26:35.028
66.0, -61.401677472516894, -6.834667169023305, -84.3721430003643, -43.50999608449638, -0.04800000227987766, 0.144000006839633, 1.0400000493973494, 0.0, 0.0, 0.0, 0.0, 0.0, 1.7632275950290809E9, 0.0, 2025-11-15 12:26:35.029
66.0, -210.68352410383523, -113.48539420543239, -157.73402053117752, -119.4262252850458, -0.04800000227987766, 0.144000006839633, 1.0400000493973494, 0.0, 0.0, 0.0, 0.0, 0.0, 1.7632275950290809E9, 0.0, 2025-11-15 12:26:35.029
67.0, -234.7460404187441, -145.58495552511886, -195.80246218014508, -155.87903015315533, -0.04800000227987766, 0.144000006839633, 1.0400000493973494, 0.0, 0.0, 0.0, 0.0, 0.0, 1.7632275950427008E9, 0.0, 2025-11-15 12:26:35.042
67.0, -95.25525187142193, -29.842531696427613, -110.93291248567402, -67.83430539630353, -0.04800000227987766, 0.144000006839633, 1.0400000493973494, 0.0, 0.0, 0.0, 0.0, 0.0, 1.7632275950427008E9, 0.0, 2025-11-15 12:26:35.042
68.0, -146.91448995936662, -66.24297796515748, -117.22716411110014, -75.31036540772766, -0.04800000227987766, 0.144000006839633, 1.0400000493973494, 0.0, 0.0, 0.0, 0.0, 0.0, 1.7632275950584047E9, 0.0, 2025-11-15 12:26:35.058
68.0, -249.94125393871218, -149.29867618111894, -194.16064609959722, -154.58128486853093, -0.04800000227987766, 0.144000006839633, 1.0400000493973494, 0.0, 0.0, 0.0, 0.0, 0.0, 1.7632275950584047E9, 0.0, 2025-11-15 12:26:35.058
69.0, -151.76888010185212, -78.70432461751625, -146.07675236929208, -99.16718722507358, -0.04800000227987766, 0.144000006839633, 1.0400000493973494, 0.0, 0.0, 0.0, 0.0, 0.0, 1.7632275950590825E9, 0.0, 2025-11-15 12:26:35.059
69.0, -94.11084248498082, -22.478668683674186, -81.481200334616, -46.19150435272604, -0.04800000227987766, 0.144000006839633, 1.0400000493973494, 0.0, 0.0, 0.0, 0.0, 0.0, 1.7632275950590825E9, 0.0, 2025-11-15 12:26:35.059
70.0, -233.90456292871386, -136.1940667363815, -179.76203127019107, -142.91279700677842, -0.04800000227987766, 0.144000006839633, 1.0400000493973494, 0.0, 0.0, 0.0, 0.0, 0.0, 1.7632275950726888E9, 0.0, 2025-11-15 12:26:35.072
70.0, -208.0581143349409, -123.27645228942856, -179.21974577661604, -133.73882241547108, -0.04800000227987766, 0.144000006839633, 1.0400000493973494, 0.0, 0.0, 0.0, 0.0, 0.0, 1.7632275950726888E9, 0.0, 2025-11-15 12:26:35.072
71.0, -62.594705558381975, -3.3565602102316916, -80.84167744219303, -47.231196540407836, -0.04800000227987766, 0.144000006839633, 1.0400000493973494, 0.0, 0.0, 0.0, 0.0, 0.0, 1.7632275950891285E9, 0.0, 2025-11-15 12:26:35.089
71.0, -209.05666762311012, -111.66780282696709, -144.56209288723767, -106.20941884163767, -0.04800000227987766, 0.144000006839633, 1.0400000493973494, 0.0, 0.0, 0.0, 0.0, 0.0, 1.7632275950891285E9, 0.0, 2025-11-15 12:26:35.089
72.0, -249.65328164212406, -153.00865693716332, -193.45380500797182, -153.23866078443825, -0.03200000151991844, 0.144000006839633, 1.0400000493973494, 0.0, 0.0, 0.0, 0.0, 0.0, 1.7632275950898123E9, 0.0, 2025-11-15 12:26:35.089
72.0, -97.2336589479819, -29.958468595054, -109.76980359945446, -70.67288946267217, -0.03200000151991844, 0.144000006839633, 1.0400000493973494, 0.0, 0.0, 0.0, 0.0, 0.0, 1.7632275950898123E9, 0.0, 2025-11-15 12:26:35.089
73.0, -158.6315965205431, -80.03946890169755, -130.97503634821624, -90.13158893212676, -0.03200000151991844, 0.144000006839633, 1.0400000493973494, 0.0, 0.0, 0.0, 0.0, 0.0, 1.763227595102714E9, 0.0, 2025-11-15 12:26:35.102
73.0, -248.44155405648053, -161.913358731661, -207.25403584446758, -160.94659459311515, -0.03200000151991844, 0.144000006839633, 1.0400000493973494, 0.0, 0.0, 0.0, 0.0, 0.0, 1.763227595102714E9, 0.0, 2025-11-15 12:26:35.102
74.0, -158.6689955201, -92.71398985153064, -162.83898397069424, -118.80540189240128, -0.03200000151991844, 0.144000006839633, 1.0400000493973494, 0.0, 0.0, 0.0, 0.0, 0.0, 1.7632275951183665E9, 0.0, 2025-11-15 12:26:35.118
74.0, -96.4146208576858, -32.06029237015173, -100.77908410597593, -64.11310494039208, -0.03200000151991844, 0.144000006839633, 1.0400000493973494, 0.0, 0.0, 0.0, 0.0, 0.0, 1.7632275951183665E9, 0.0, 2025-11-15 12:26:35.118
75.0, -239.39099616371095, -143.53923024935648, -190.35716784466058, -153.60891088005155, -0.03200000151991844, 0.144000006839633, 1.0400000493973494, 0.0, 0.0, 0.0, 0.0, 0.0, 1.7632275951190755E9, 0.0, 2025-11-15 12:26:35.119
75.0, -212.66567108035088, -123.1530355908908, -182.24906474072486, -134.53168120607734, -0.03200000151991844, 0.144000006839633, 1.0400000493973494, 0.0, 0.0, 0.0, 0.0, 0.0, 1.7632275951190755E9, 0.0, 2025-11-15 12:26:35.119
76.0, -74.42026921827346, -12.912004597019404, -87.5248786630109, -54.62497875280678, -0.03200000151991844, 0.144000006839633, 1.0400000493973494, 0.0, 0.0, 0.0, 0.0, 0.0, 1.763227595132724E9, 0.0, 2025-11-15 12:26:35.132
76.0, -203.70487078651786, -112.80847231345251, -152.11669079773128, -118.16213910002261, -0.03200000151991844, 0.144000006839633, 1.0400000493973494, 0.0, 0.0, 0.0, 0.0, 0.0, 1.763227595132724E9, 0.0, 2025-11-15 12:26:35.132
77.0, -235.0377526152879, -148.21036529401317, -195.4583913842216, -159.58901090919971, -0.03200000151991844, 0.144000006839633, 1.0400000493973494, 0.0, 0.0, 0.0, 0.0, 0.0, 1.763227595148425E9, 0.0, 2025-11-15 12:26:35.148
77.0, -98.84929572883993, -38.612597092520446, -119.75533648114651, -82.0384454280138, -0.03200000151991844, 0.144000006839633, 1.0400000493973494, 0.0, 0.0, 0.0, 0.0, 0.0, 1.763227595148425E9, 0.0, 2025-11-15 12:26:35.148
78.0, -155.38536335900426, -72.33527499297634, -121.34105406235904, -81.18200833816081, -0.03200000151991844, 0.144000006839633, 1.0400000493973494, 0.0, 0.0, 0.0, 0.0, 0.0, 1.7632275951490796E9, 0.0, 2025-11-15 12:26:35.149
78.0, -238.4822004744783, -152.61596744181588, -202.75493619777262, -157.72280083131045, -0.03200000151991844, 0.144000006839633, 1.0400000493973494, 0.0, 0.0, 0.0, 0.0, 0.0, 1.7632275951490796E9, 0.0, 2025-11-15 12:26:35.149
79.0, -158.17532872594893, -80.07312800129876, -152.41588279418647, -111.48267777916044, -0.03200000151991844, 0.144000006839633, 1.0400000493973494, 0.0, 0.0, 0.0, 0.0, 0.0, 1.7632275951627152E9, 0.0, 2025-11-15 12:26:35.162
79.0, -108.43465931527317, -30.605471287388355, -91.14136192016304, -57.710396216250956, -0.03200000151991844, 0.144000006839633, 1.0400000493973494, 0.0, 0.0, 0.0, 0.0, 0.0, 1.7632275951627152E9, 0.0, 2025-11-15 12:26:35.162
80.0, -248.02268526144326, -154.39615982072428, -193.162092811428, -149.12851073313504, -0.03200000151991844, 0.144000006839633, 1.0400000493973494, 0.0, 0.0, 0.0, 0.0, 0.0, 1.7632275951783695E9, 0.0, 2025-11-15 12:26:35.178
80.0, -211.18093079794198, -135.16559424856678, -187.91501317359507, -139.6964830448851, -0.03200000151991844, 0.144000006839633, 1.0400000493973494, 0.0, 0.0, 0.0, 0.0, 0.0, 1.7632275951783695E9, 0.0, 2025-11-15 12:26:35.178
81.0, -80.89403604157269, -18.622831829357892, -95.72273936588317, -59.07919960003346, -0.03200000151991844, 0.144000006839633, 1.0400000493973494, 0.0, 0.0, 0.0, 0.0, 0.0, 1.7632275951790812E9, 0.0, 2025-11-15 12:26:35.179
81.0, -207.84494003746659, -117.27391286054626, -154.97023446392268, -107.54830302577466, -0.03200000151991844, 0.144000006839633, 1.0400000493973494, 0.0, 0.0, 0.0, 0.0, 0.0, 1.7632275951790812E9, 0.0, 2025-11-15 12:26:35.179
82.0, -239.69392806012183, -152.15221984731033, -201.70776421017945, -156.72050764318556, -0.04800000227987766, 0.144000006839633, 1.0400000493973494, 0.0, 0.0, 0.0, 0.0, 0.0, 1.7632275951927168E9, 0.0, 2025-11-15 12:26:35.192
82.0, -114.50451694335788, -49.34984986530617, -129.8755057612434, -102.31992288772017, -0.04800000227987766, 0.144000006839633, 1.0400000493973494, 0.0, 0.0, 0.0, 0.0, 0.0, 1.7632275951927168E9, 0.0, 2025-11-15 12:26:35.192
83.0, -162.0049862805754, -76.19859164720401, -124.08614062983543, -85.80078478343785, -0.04800000227987766, 0.144000006839633, 1.0400000493973494, 0.0, 0.0, 0.0, 0.0, 0.0, 1.7632275952083683E9, 0.0, 2025-11-15 12:26:35.208
83.0, -250.03475143760443, -158.23329717526212, -200.03602892998606, -160.2285338016227, -0.04800000227987766, 0.144000006839633, 1.0400000493973494, 0.0, 0.0, 0.0, 0.0, 0.0, 1.7632275952083683E9, 0.0, 2025-11-15 12:26:35.208
84.0, -156.93742184061557, -88.76839539827779, -161.12236989103258, -122.38448614999652, -0.04800000227987766, 0.144000006839633, 1.0400000493973494, 0.0, 0.0, 0.0, 0.0, 0.0, 1.763227595209096E9, 0.0, 2025-11-15 12:26:35.209
84.0, -97.69366664253175, -33.761946849990636, -99.30182362347841, -62.83405915554613, -0.04800000227987766, 0.144000006839633, 1.0400000493973494, 0.0, 0.0, 0.0, 0.0, 0.0, 1.763227595209096E9, 0.0, 2025-11-15 12:26:35.209
85.0, -243.04487842042, -151.44911865564063, -187.9748515728861, -147.00424755830318, -0.04800000227987766, 0.144000006839633, 1.0400000493973494, 0.0, 0.0, 0.0, 0.0, 0.0, 1.7632275952227297E9, 0.0, 2025-11-15 12:26:35.222
85.0, -207.83372033759952, -129.42858771653846, -182.76143103465438, -143.59719869866967, -0.04800000227987766, 0.144000006839633, 1.0400000493973494, 0.0, 0.0, 0.0, 0.0, 0.0, 1.7632275952227297E9, 0.0, 2025-11-15 12:26:35.222
86.0, -66.01671401783824, -10.133258929941803, -88.86002294719219, -51.37500569131225, -0.04800000227987766, 0.144000006839633, 1.0400000493973494, 0.0, 0.0, 0.0, 0.0, 0.0, 1.7632275952383697E9, 0.0, 2025-11-15 12:26:35.238
86.0, -216.00166184082627, -125.5577912623994, -161.10741029120982, -122.6126200472936, -0.04800000227987766, 0.144000006839633, 1.0400000493973494, 0.0, 0.0, 0.0, 0.0, 0.0, 1.7632275952383697E9, 0.0, 2025-11-15 12:26:35.238
87.0, -231.34647135902196, -146.67326641222462, -191.75215052813292, -151.82871850114316, -0.04800000227987766, 0.144000006839633, 1.0400000493973494, 0.0, 0.0, 0.0, 0.0, 0.0, 1.7632275952390656E9, 0.0, 2025-11-15 12:26:35.239
87.0, -93.1571679962799, -33.032666358631104, -109.63890710100532, -74.63344351574779, -0.04800000227987766, 0.144000006839633, 1.0400000493973494, 0.0, 0.0, 0.0, 0.0, 0.0, 1.7632275952390656E9, 0.0, 2025-11-15 12:26:35.239
88.0, -147.3258789544925, -65.24068477703258, -111.52381667867303, -72.254867143929, -0.04800000227987766, 0.144000006839633, 1.0400000493973494, 0.0, 0.0, 0.0, 0.0, 0.0, 1.763227595252726E9, 0.0, 2025-11-15 12:26:35.252
88.0, -228.70984189026058, -138.53898400859907, -180.02756416704506, -135.7359289918095, -0.04800000227987766, 0.144000006839633, 1.0400000493973494, 0.0, 0.0, 0.0, 0.0, 0.0, 1.763227595252726E9, 0.0, 2025-11-15 12:26:35.252
89.0, -134.72241610381752, -64.40294718695804, -132.0296881357208, -85.94290098175406, -0.04800000227987766, 0.144000006839633, 1.0400000493973494, 0.0, 0.0, 0.0, 0.0, 0.0, 1.7632275952683544E9, 0.0, 2025-11-15 12:26:35.268
89.0, -79.72718725539744, -4.4486109972931445, -60.137591287493706, -27.33866867609322, -0.04800000227987766, 0.144000006839633, 1.0400000493973494, 0.0, 0.0, 0.0, 0.0, 0.0, 1.7632275952683544E9, 0.0, 2025-11-15 12:26:35.268
90.0, -214.8086337549612, -109.94370894739404, -144.98096168227494, -110.03533649630845, -0.04800000227987766, 0.144000006839633, 1.0400000493973494, 0.0, 0.0, 0.0, 0.0, 0.0, 1.763227595269075E9, 0.0, 2025-11-15 12:26:35.269
90.0, -183.32615592796355, -100.67623685719445, -153.57525178045034, -113.60694095399231, -0.04800000227987766, 0.144000006839633, 1.0400000493973494, 0.0, 0.0, 0.0, 0.0, 0.0, 1.763227595269075E9, 0.0, 2025-11-15 12:26:35.269
91.0, -54.62871865276247, 8.828033845406026, -68.11105799302459, -31.216944930143654, -0.04800000227987766, 0.144000006839633, 1.0400000493973494, 0.0, 0.0, 0.0, 0.0, 0.0, 1.7632275952826984E9, 0.0, 2025-11-15 12:26:35.282
91.0, -189.56430905405432, -101.98894174164161, -135.81820679083467, -101.57194289658219, -0.04800000227987766, 0.144000006839633, 1.0400000493973494, 0.0, 0.0, 0.0, 0.0, 0.0, 1.7632275952826984E9, 0.0, 2025-11-15 12:26:35.282
92.0, -209.8757057134062, -122.61822989722714, -165.8608231348917, -127.9120582845062, -0.04800000227987766, 0.144000006839633, 1.0400000493973494, 0.0, 0.0, 0.0, 0.0, 0.0, 1.7632275952984192E9, 0.0, 2025-11-15 12:26:35.298
92.0, -79.78702565468848, -15.043747571762651, -87.76049236021936, -44.62822617124766, -0.04800000227987766, 0.144000006839633, 1.0400000493973494, 0.0, 0.0, 0.0, 0.0, 0.0, 1.7632275952984192E9, 0.0, 2025-11-15 12:26:35.298
93.0, -139.20281625073403, -54.43237390508875, -99.47011912148446, -61.03142737690359, -0.04800000227987766, 0.144000006839633, 1.0400000493973494, 0.0, 0.0, 0.0, 0.0, 0.0, 1.7632275952991264E9, 0.0, 2025-11-15 12:26:35.299
93.0, -229.0352131864056, -142.98572505591437, -181.80775654595345, -142.2882337141782, -0.04800000227987766, 0.144000006839633, 1.0400000493973494, 0.0, 0.0, 0.0, 0.0, 0.0, 1.7632275952991264E9, 0.0, 2025-11-15 12:26:35.299
94.0, -146.32358576636761, -69.25733732944354, -137.67319716885686, -95.03459777403623, -0.04800000227987766, 0.144000006839633, 1.0400000493973494, 0.0, 0.0, 0.0, 0.0, 0.0, 1.763227595312705E9, 0.0, 2025-11-15 12:26:35.312
94.0, -83.27261241339147, -9.774228534195572, -70.13434386905283, -31.602154625579715, -0.04800000227987766, 0.144000006839633, 1.0400000493973494, 0.0, 0.0, 0.0, 0.0, 0.0, 1.763227595312705E9, 0.0, 2025-11-15 12:26:35.312
95.0, -221.75736787263304, -137.17018062481657, -177.01694470271468, -145.6279643746093, -0.04800000227987766, 0.144000006839633, 1.0400000493973494, 0.0, 0.0, 0.0, 0.0, 0.0, 1.7632275953284092E9, 0.0, 2025-11-15 12:26:35.328
95.0, -194.78520939219743, -128.53475162712857, -185.42797970306128, -142.53880701120943, -0.04800000227987766, 0.144000006839633, 1.0400000493973494, 0.0, 0.0, 0.0, 0.0, 0.0, 1.7632275953284092E9, 0.0, 2025-11-15 12:26:35.328
96.0, -63.11455165222287, -8.035175054799765, -74.0724585223943, -31.101008031517267, -0.04800000227987766, 0.144000006839633, 1.0400000493973494, 0.0, 0.0, 0.0, 0.0, 0.0, 1.7632275953291273E9, 0.0, 2025-11-15 12:26:35.329
96.0, -200.71669072192162, -112.84213141305372, -159.30851841252297, -126.82000749744475, -0.04800000227987766, 0.144000006839633, 1.0400000493973494, 0.0, 0.0, 0.0, 0.0, 0.0, 1.7632275953291273E9, 0.0, 2025-11-15 12:26:35.329
97.0, -233.070565238595, -153.63322022976354, -205.74685616232455, -175.77155801746994, -0.04800000227987766, 0.144000006839633, 1.0400000493973494, 0.0, 0.0, 0.0, 0.0, 0.0, 1.763227595342732E9, 0.0, 2025-11-15 12:26:35.342
97.0, -102.7911502821371, -46.51500569889322, -112.58220836613327, -68.22699489165097, -0.04800000227987766, 0.144000006839633, 1.0400000493973494, 0.0, 0.0, 0.0, 0.0, 0.0, 1.763227595342732E9, 0.0, 2025-11-15 12:26:35.342
98.0, -144.5172140877694, -72.24551739403978, -128.4281644783914, -101.11193520203233, -0.04800000227987766, 0.144000006839633, 1.0400000493973494, 0.0, 0.0, 0.0, 0.0, 0.0, 1.763227595358426E9, 0.0, 2025-11-15 12:26:35.358
98.0, -237.1881950898096, -163.78330870950595, -216.89549793023616, -191.99524402525276, -0.04800000227987766, 0.144000006839633, 1.0400000493973494, 0.0, 0.0, 0.0, 0.0, 0.0, 1.763227595358426E9, 0.0, 2025-11-15 12:26:35.358
99.0, -164.46210055146366, -102.66960353357717, -167.98882620967925, -124.06370123010129, -0.04800000227987766, 0.144000006839633, 1.0400000493973494, 0.0, 0.0, 0.0, 0.0, 0.0, 1.7632275953591304E9, 0.0, 2025-11-15 12:26:35.359
99.0, -101.77389749418944, -39.52513268170878, -105.35672165174037, -68.27187369111925, -0.04800000227987766, 0.144000006839633, 1.0400000493973494, 0.0, 0.0, 0.0, 0.0, 0.0, 1.7632275953591304E9, 0.0, 2025-11-15 12:26:35.359
100.0, -243.60960331372917, -159.9424314550124, -218.08478611614555, -189.66528635285795, -0.04800000227987766, 0.144000006839633, 1.0400000493973494, 0.0, 0.0, 0.0, 0.0, 0.0, 1.7632275953734355E9, 0.0, 2025-11-15 12:26:35.373
100.0, -219.3301728013903, -156.04919560113922, -214.68895695637912, -172.11019596084952, -0.04800000227987766, 0.144000006839633, 1.0400000493973494, 0.0, 0.0, 0.0, 0.0, 0.0, 1.7632275953734355E9, 0.0, 2025-11-15 12:26:35.373
0.0, -87.10226996801794, -40.45262787071988, -109.88574049808085, -62.0673796646297, -0.04800000227987766, 0.144000006839633, 1.0400000493973494, 0.0, 0.0, 0.0, 0.0, 0.0, 1.7632275953741286E9, 0.0, 2025-11-15 12:26:35.374
1.0, -224.50619434006512, -147.32774890447035, -195.1666791876778, -174.20453993603587, -0.04800000227987766, 0.144000006839633, 1.0400000493973494, 0.0, 0.0, 0.0, 0.0, 0.0, 1.7632275953877568E9, 0.0, 2025-11-15 12:26:35.387
1.0, -260.70468601118773, -188.79575961316004, -245.5992300901562, -208.08055373467505, -0.04800000227987766, 0.144000006839633, 1.0400000493973494, 0.0, 0.0, 0.0, 0.0, 0.0, 1.7632275953877568E9, 0.0, 2025-11-15 12:26:35.387
2.0, -119.56834148336202, -63.43431309843436, -137.5796996699646, -85.43427458778024, -0.04800000227987766, 0.144000006839633, 1.0400000493973494, 0.0, 0.0, 0.0, 0.0, 0.0, 1.7632275954034152E9, 0.0, 2025-11-15 12:26:35.403
2.0, -167.9327277103439, -103.54474012320861, -156.35773734748363, -125.89999210834503, -0.04800000227987766, 0.144000006839633, 1.0400000493973494, 0.0, 0.0, 0.0, 0.0, 0.0, 1.7632275954034152E9, 0.0, 2025-11-15 12:26:35.403
3.0, -264.7587375631556, -196.53735252143815, -247.11014967225492, -211.92891078907996, -0.04800000227987766, 0.144000006839633, 1.0400000493973494, 0.0, 0.0, 0.0, 0.0, 0.0, 1.763227595404123E9, 0.0, 2025-11-15 12:26:35.404
3.0, -182.77639063447714, -128.79280472407117, -190.89945333823562, -147.12766425684094, -0.04800000227987766, 0.144000006839633, 1.0400000493973494, 0.0, 0.0, 0.0, 0.0, 0.0, 1.763227595404123E9, 0.0, 2025-11-15 12:26:35.404
4.0, -120.0919274771586, -60.778984129894525, -119.38508638553321, -77.34861088357866, -0.04800000227987766, 0.144000006839633, 1.0400000493973494, 0.0, 0.0, 0.0, 0.0, 0.0, 1.7632275954177575E9, 0.0, 2025-11-15 12:26:35.417
4.0, -254.55629048403352, -181.15888390364125, -229.18854908458889, -201.2776757152751, -0.04800000227987766, 0.144000006839633, 1.0400000493973494, 0.0, 0.0, 0.0, 0.0, 0.0, 1.7632275954177575E9, 0.0, 2025-11-15 12:26:35.417
5.0, -232.79007274191827, -169.92796433670446, -229.68221587873995, -180.76432445831597, -0.04800000227987766, 0.144000006839633, 1.0400000493973494, 0.0, 0.0, 0.0, 0.0, 0.0, 1.7632275954334145E9, 0.0, 2025-11-15 12:26:35.433
5.0, -103.59522877261043, -51.58257013885304, -119.22053078748286, -58.83610610291362, -0.04800000227987766, 0.144000006839633, 1.0400000493973494, 0.0, 0.0, 0.0, 0.0, 0.0, 1.7632275954334145E9, 0.0, 2025-11-15 12:26:35.433
6.0, -228.90057678800076, -150.39446686813608, -195.66034598182887, -166.39936872851104, -0.04800000227987766, 0.144000006839633, 1.0400000493973494, 0.0, 0.0, 0.0, 0.0, 0.0, 1.763227595434127E9, 0.0, 2025-11-15 12:26:35.434
6.0, -256.5945359598845, -185.34009205410257, -234.46554792206734, -195.58180808275938, -0.04800000227987766, 0.144000006839633, 1.0400000493973494, 0.0, 0.0, 0.0, 0.0, 0.0, 1.763227595434127E9, 0.0, 2025-11-15 12:26:35.434
7.0, -129.9465638604015, -70.06889561982825, -138.41743726003915, -77.06437848694623, -0.04800000227987766, 0.144000006839633, 1.0400000493973494, 0.0, 0.0, 0.0, 0.0, 0.0, 1.763227595447772E9, 0.0, 2025-11-15 12:26:35.447
7.0, -169.43242759257555, -96.92885710159317, -150.2205615201965, -121.66642535850406, -0.04800000227987766, 0.144000006839633, 1.0400000493973494, 0.0, 0.0, 0.0, 0.0, 0.0, 1.763227595447772E9, 0.0, 2025-11-15 12:26:35.447
8.0, -268.68563251663, -185.82253914838657, -235.27710621245205, -208.74251602683216, -0.04800000227987766, 0.144000006839633, 1.0400000493973494, 0.0, 0.0, 0.0, 0.0, 0.0, 1.7632275954634202E9, 0.0, 2025-11-15 12:26:35.463
8.0, -177.21889930032194, -110.7029086383991, -176.81499010510743, -123.12498634122312, -0.04800000227987766, 0.144000006839633, 1.0400000493973494, 0.0, 0.0, 0.0, 0.0, 0.0, 1.7632275954634202E9, 0.0, 2025-11-15 12:26:35.463
9.0, -117.4627778083086, -50.9692265461199, -113.50596365518868, -74.47636771760881, -0.04800000227987766, 0.144000006839633, 1.0400000493973494, 0.0, 0.0, 0.0, 0.0, 0.0, 1.7632275954641209E9, 0.0, 2025-11-15 12:26:35.464
9.0, -256.62819505948573, -176.71962265623733, -224.4800150403753, -198.7644629450515, -0.04800000227987766, 0.144000006839633, 1.0400000493973494, 0.0, 0.0, 0.0, 0.0, 0.0, 1.7632275954641209E9, 0.0, 2025-11-15 12:26:35.464
10.0, -215.29482074920088, -147.10335490712896, -198.3493340499699, -160.1873949021101, -0.04800000227987766, 0.144000006839633, 1.0400000493973494, 0.0, 0.0, 0.0, 0.0, 0.0, 1.7632275954777756E9, 0.0, 2025-11-15 12:26:35.477
10.0, -102.18154658935964, -36.41727581853047, -103.21001907717437, -61.18476327508688, -0.04800000227987766, 0.144000006839633, 1.0400000493973494, 0.0, 0.0, 0.0, 0.0, 0.0, 1.7632275954777756E9, 0.0, 2025-11-15 12:26:35.477
11.0, -210.88921860139817, -133.40410136943683, -180.65212745964527, -151.09195820987225, -0.04800000227987766, 0.144000006839633, 1.0400000493973494, 0.0, 0.0, 0.0, 0.0, 0.0, 1.7632275954934194E9, 0.0, 2025-11-15 12:26:35.493
11.0, -269.1755594108254, -184.49113476416096, -230.48629436921328, -189.18657915852964, -0.04800000227987766, 0.144000006839633, 1.0400000493973494, 0.0, 0.0, 0.0, 0.0, 0.0, 1.7632275954934194E9, 0.0, 2025-11-15 12:26:35.493
12.0, -121.25877626333386, -63.142600901890546, -132.37001903168857, -89.12181594409049, -0.04800000227987766, 0.144000006839633, 1.0400000493973494, 0.0, 0.0, 0.0, 0.0, 0.0, 1.7632275954941273E9, 0.0, 2025-11-15 12:26:35.494
12.0, -175.35268922243267, -99.57670627022162, -149.0312733342871, -111.70707177650183, -0.04800000227987766, 0.144000006839633, 1.0400000493973494, 0.0, 0.0, 0.0, 0.0, 0.0, 1.7632275954941273E9, 0.0, 2025-11-15 12:26:35.494
13.0, -262.9336663847789, -174.5504806819372, -219.49472839944065, -169.83633678779006, -0.04800000227987766, 0.144000006839633, 1.0400000493973494, 0.0, 0.0, 0.0, 0.0, 0.0, 1.7632275955077655E9, 0.0, 2025-11-15 12:26:35.507
13.0, -172.95541335083544, -115.31794518372044, -179.77699087001383, -133.45832991879433, -0.04800000227987766, 0.144000006839633, 1.0400000493973494, 0.0, 0.0, 0.0, 0.0, 0.0, 1.7632275955077655E9, 0.0, 2025-11-15 12:26:35.507
14.0, -118.39775279723108, -49.41716806450859, -116.78959581628442, -84.49181979894638, -0.04800000227987766, 0.144000006839633, 1.0400000493973494, 0.0, 0.0, 0.0, 0.0, 0.0, 1.7632275955234027E9, 0.0, 2025-11-15 12:26:35.523
14.0, -256.22054596431553, -170.11495933448896, -202.47444370109588, -153.96794127579778, -0.04800000227987766, 0.144000006839633, 1.0400000493973494, 0.0, 0.0, 0.0, 0.0, 0.0, 1.7632275955234027E9, 0.0, 2025-11-15 12:26:35.523
15.0, -215.20132325030863, -142.2340051648207, -195.6154671823606, -156.5522121451795, -0.04800000227987766, 0.144000006839633, 1.0400000493973494, 0.0, 0.0, 0.0, 0.0, 0.0, 1.7632275955241191E9, 0.0, 2025-11-15 12:26:35.524
15.0, -75.77037310227752, -30.990680982824415, -113.36758735682815, -86.78811837173998, -0.04800000227987766, 0.144000006839633, 1.0400000493973494, 0.0, 0.0, 0.0, 0.0, 0.0, 1.7632275955241191E9, 0.0, 2025-11-15 12:26:35.524
16.0, -227.83844520058483, -142.41352036269382, -168.74054610077292, -119.80395518057048, -0.04800000227987766, 0.144000006839633, 1.0400000493973494, 0.0, 0.0, 0.0, 0.0, 0.0, 1.7632275955377717E9, 0.0, 2025-11-15 12:26:35.537
16.0, -240.60646364931017, -163.39809901406989, -209.71489001531154, -160.34447070024908, -0.04800000227987766, 0.144000006839633, 1.0400000493973494, 0.0, 0.0, 0.0, 0.0, 0.0, 1.7632275955377717E9, 0.0, 2025-11-15 12:26:35.537
17.0, -105.96632534451783, -57.04282407416031, -145.90845687128603, -109.56784900184721, -0.04800000227987766, 0.144000006839633, 1.0400000493973494, 0.0, 0.0, 0.0, 0.0, 0.0, 1.7632275955534155E9, 0.0, 2025-11-15 12:26:35.553
17.0, -184.2312117172405, -100.0292341648601, -136.96261617727578, -86.31315107736737, -0.04800000227987766, 0.144000006839633, 1.0400000493973494, 0.0, 0.0, 0.0, 0.0, 0.0, 1.7632275955534155E9, 0.0, 2025-11-15 12:26:35.553
18.0, -260.40923391468823, -176.9589762534015, -211.39036519546062, -165.0754441441968, -0.04800000227987766, 0.144000006839633, 1.0400000493973494, 0.0, 0.0, 0.0, 0.0, 0.0, 1.7632275955541196E9, 0.0, 2025-11-15 12:26:35.554
18.0, -166.72100012470037, -106.70495558576658, -180.21455916482955, -144.3601382896304, -0.04800000227987766, 0.144000006839633, 1.0400000493973494, 0.0, 0.0, 0.0, 0.0, 0.0, 1.7632275955541196E9, 0.0, 2025-11-15 12:26:35.554
19.0, -113.78271625190973, -53.7105732136406, -112.35407446883619, -75.52727960515767, -0.04800000227987766, 0.144000006839633, 1.0400000493973494, 0.0, 0.0, 0.0, 0.0, 0.0, 1.763227595567783E9, 0.0, 2025-11-15 12:26:35.567
19.0, -247.27844517026097, -162.0554749299772, -189.06690235994756, -144.86502478364855, -0.04800000227987766, 0.144000006839633, 1.0400000493973494, 0.0, 0.0, 0.0, 0.0, 0.0, 1.763227595567783E9, 0.0, 2025-11-15 12:26:35.567
20.0, -208.51438212953508, -139.54501709667966, -193.87641370296478, -151.8174988012761, -0.04800000227987766, 0.144000006839633, 1.0400000493973494, 0.0, 0.0, 0.0, 0.0, 0.0, 1.7632275955834012E9, 0.0, 2025-11-15 12:26:35.583
20.0, -83.76627920754254, -30.964501683134586, -115.32729493360966, -90.8945285230875, -0.04800000227987766, 0.144000006839633, 1.0400000493973494, 0.0, 0.0, 0.0, 0.0, 0.0, 1.7632275955834012E9, 0.0, 2025-11-15 12:26:35.583
21.0, -226.53322011604905, -136.6391148311086, -161.13358959089965, -115.70876472909003, -0.04800000227987766, 0.144000006839633, 1.0400000493973494, 0.0, 0.0, 0.0, 0.0, 0.0, 1.7632275955841208E9, 0.0, 2025-11-15 12:26:35.584
21.0, -241.24598654173315, -156.82335489196703, -196.43824517261237, -151.33879160694778, -0.04800000227987766, 0.144000006839633, 1.0400000493973494, 0.0, 0.0, 0.0, 0.0, 0.0, 1.7632275955841208E9, 0.0, 2025-11-15 12:26:35.584
22.0, -104.9041937571019, -57.551450468134135, -139.67778354510665, -123.4316581375897, -0.04800000227987766, 0.144000006839633, 1.0400000493973494, 0.0, 0.0, 0.0, 0.0, 0.0, 1.7632275955978453E9, 0.0, 2025-11-15 12:26:35.597
22.0, -171.42579426895827, -90.04370128316805, -120.86234686803073, -73.21602143254131, -0.04800000227987766, 0.144000006839633, 1.0400000493973494, 0.0, 0.0, 0.0, 0.0, 0.0, 1.7632275955978453E9, 0.0, 2025-11-15 12:26:35.597
23.0, -250.92110772710294, -161.71888393396512, -195.3536741854623, -148.61614443920553, -0.04800000227987766, 0.144000006839633, 1.0400000493973494, 0.0, 0.0, 0.0, 0.0, 0.0, 1.7632275956134088E9, 0.0, 2025-11-15 12:26:35.613
23.0, -156.38765654712915, -90.59346657665446, -163.95721405744553, -138.1032856637612, -0.04800000227987766, 0.144000006839633, 1.0400000493973494, 0.0, 0.0, 0.0, 0.0, 0.0, 1.7632275956134088E9, 0.0, 2025-11-15 12:26:35.613
24.0, -117.77692940458655, -47.461200387682766, -107.5707424255088, -82.84252391848713, -0.04800000227987766, 0.144000006839633, 1.0400000493973494, 0.0, 0.0, 0.0, 0.0, 0.0, 1.7632275956141188E9, 0.0, 2025-11-15 12:26:35.614
24.0, -243.04861832037568, -152.85906093893573, -181.89751414489, -137.09351267572492, -0.04800000227987766, 0.144000006839633, 1.0400000493973494, 0.0, 0.0, 0.0, 0.0, 0.0, 1.7632275956141188E9, 0.0, 2025-11-15 12:26:35.614
25.0, -211.27068839687854, -131.96423988649622, -187.73923787567765, -148.29825294297189, -0.04800000227987766, 0.144000006839633, 1.0400000493973494, 0.0, 0.0, 0.0, 0.0, 0.0, 1.763227595627803E9, 0.0, 2025-11-15 12:26:35.627
25.0, -75.05231231078506, -26.435482836794108, -102.66025378368795, -81.67941503226757, -0.04800000227987766, 0.144000006839633, 1.0400000493973494, 0.0, 0.0, 0.0, 0.0, 0.0, 1.763227595627803E9, 0.0, 2025-11-15 12:26:35.627
26.0, -225.87499772384763, -131.02178509766236, -150.10088472161442, -108.67775281239301, -0.04800000227987766, 0.144000006839633, 1.0400000493973494, 0.0, 0.0, 0.0, 0.0, 0.0, 1.7632275956434088E9, 0.0, 2025-11-15 12:26:35.643
26.0, -231.02483996283263, -150.8357750629075, -192.462731519714, -146.89953035954386, -0.04800000227987766, 0.144000006839633, 1.0400000493973494, 0.0, 0.0, 0.0, 0.0, 0.0, 1.7632275956434088E9, 0.0, 2025-11-15 12:26:35.643
27.0, -114.5007770434022, -51.60874943854287, -136.33805288467556, -111.26950348168612, -0.04800000227987766, 0.144000006839633, 1.0400000493973494, 0.0, 0.0, 0.0, 0.0, 0.0, 1.7632275956441314E9, 0.0, 2025-11-15 12:26:35.644
27.0, -171.6352286664769, -85.70167743461207, -118.45011139661074, -79.4055558592081, -0.04800000227987766, 0.144000006839633, 1.0400000493973494, 0.0, 0.0, 0.0, 0.0, 0.0, 1.7632275956441314E9, 0.0, 2025-11-15 12:26:35.644
28.0, -246.7436394765973, -155.40967270871624, -190.17017284687608, -146.31984586641192, -0.04800000227987766, 0.144000006839633, 1.0400000493973494, 0.0, 0.0, 0.0, 0.0, 0.0, 1.763227595657752E9, 0.0, 2025-11-15 12:26:35.657
28.0, -153.02922638691962, -89.67345118755475, -162.49117327481508, -140.64267773367465, -0.04800000227987766, 0.144000006839633, 1.0400000493973494, 0.0, 0.0, 0.0, 0.0, 0.0, 1.763227595657752E9, 0.0, 2025-11-15 12:26:35.657
29.0, -113.75279705226421, -42.1131434510462, -97.59268934372813, -68.35041159018874, -0.04800000227987766, 0.144000006839633, 1.0400000493973494, 0.0, 0.0, 0.0, 0.0, 0.0, 1.763227595673413E9, 0.0, 2025-11-15 12:26:35.673
29.0, -248.95766025036573, -158.9476180667989, -184.47056531440467, -140.91195053048432, -0.04800000227987766, 0.144000006839633, 1.0400000493973494, 0.0, 0.0, 0.0, 0.0, 0.0, 1.763227595673413E9, 0.0, 2025-11-15 12:26:35.673
30.0, -211.24076919723302, -133.09742957307026, -185.1213079066947, -149.5174603285268, -0.04800000227987766, 0.144000006839633, 1.0400000493973494, 0.0, 0.0, 0.0, 0.0, 0.0, 1.763227595674119E9, 0.0, 2025-11-15 12:26:35.674
30.0, -82.71536731999367, -21.94012309005484, -101.13437460176647, -78.00309337582439, -0.04800000227987766, 0.144000006839633, 1.0400000493973494, 0.0, 0.0, 0.0, 0.0, 0.0, 1.763227595674119E9, 0.0, 2025-11-15 12:26:35.674
31.0, -220.9906883817166, -125.68120796093717, -149.89893012400717, -106.02616374380887, -0.04800000227987766, 0.144000006839633, 1.0400000493973494, 0.0, 0.0, 0.0, 0.0, 0.0, 1.7632275956877768E9, 0.0, 2025-11-15 12:26:35.687
31.0, -239.14416276663542, -150.76471696374938, -190.06545564811677, -155.91642915271223, -0.04800000227987766, 0.144000006839633, 1.0400000493973494, 0.0, 0.0, 0.0, 0.0, 0.0, 1.7632275956877768E9, 0.0, 2025-11-15 12:26:35.687
32.0, -98.61368203163147, -41.91492875339463, -129.00036917161196, -113.13571355957538, -0.04800000227987766, 0.144000006839633, 1.0400000493973494, 0.0, 0.0, 0.0, 0.0, 0.0, 1.7632275957033987E9, 0.0, 2025-11-15 12:26:35.703
32.0, -173.55005744379014, -84.05238155415282, -115.7947824280709, -78.36586367152631, -0.04800000227987766, 0.144000006839633, 1.0400000493973494, 0.0, 0.0, 0.0, 0.0, 0.0, 1.7632275957033987E9, 0.0, 2025-11-15 12:26:35.703
33.0, -243.70310081262141, -150.3907269681804, -187.29792968090624, -142.61734491027892, -0.04800000227987766, 0.144000006839633, 1.0400000493973494, 0.0, 0.0, 0.0, 0.0, 0.0, 1.7632275957041023E9, 0.0, 2025-11-15 12:26:35.704
33.0, -155.2619466604665, -84.37401295034215, -158.19402822572738, -134.6214388050139, -0.04800000227987766, 0.144000006839633, 1.0400000493973494, 0.0, 0.0, 0.0, 0.0, 0.0, 1.7632275957041023E9, 0.0, 2025-11-15 12:26:35.704
34.0, -105.22956505324692, -35.54587912885472, -90.65143502596766, -58.31626000907272, -0.04800000227987766, 0.144000006839633, 1.0400000493973494, 0.0, 0.0, 0.0, 0.0, 0.0, 1.7632275957177556E9, 0.0, 2025-11-15 12:26:35.717
34.0, -252.6040627071634, -149.34355498058721, -174.17836063634604, -130.3542129555717, -0.04800000227987766, 0.144000006839633, 1.0400000493973494, 0.0, 0.0, 0.0, 0.0, 0.0, 1.7632275957177556E9, 0.0, 2025-11-15 12:26:35.717
35.0, -198.73454374540597, -116.98594056395814, -173.13492854870856, -141.989041717723, -0.04800000227987766, 0.144000006839633, 1.0400000493973494, 0.0, 0.0, 0.0, 0.0, 0.0, 1.763227595733792E9, 0.0, 2025-11-15 12:26:35.733
35.0, -84.1140899034217, -18.35355903254822, -101.4560059979558, -89.83239693567157, -0.04800000227987766, 0.144000006839633, 1.0400000493973494, 0.0, 0.0, 0.0, 0.0, 0.0, 1.763227595733792E9, 0.0, 2025-11-15 12:26:35.733
36.0, -214.33366646058857, -117.01959966355935, -139.52444764692336, -99.09612912591547, -0.04800000227987766, 0.144000006839633, 1.0400000493973494, 0.0, 0.0, 0.0, 0.0, 0.0, 1.763227595748411E9, 0.0, 2025-11-15 12:26:35.748
36.0, -224.01626744586974, -133.65841456642374, -173.28078464698046, -140.8782914308831, -0.04800000227987766, 0.144000006839633, 1.0400000493973494, 0.0, 0.0, 0.0, 0.0, 0.0, 1.763227595748411E9, 0.0, 2025-11-15 12:26:35.748
37.0, -91.40315491706133, -33.61609075171873, -117.82554810401052, -105.09492865484208, -0.04800000227987766, 0.144000006839633, 1.0400000493973494, 0.0, 0.0, 0.0, 0.0, 0.0, 1.7632275957491229E9, 0.0, 2025-11-15 12:26:35.749
37.0, -154.3681105710566, -71.28436310542747, -100.19939961284399, -63.61569824628532, -0.04800000227987766, 0.144000006839633, 1.0400000493973494, 0.0, 0.0, 0.0, 0.0, 0.0, 1.7632275957491229E9, 0.0, 2025-11-15 12:26:35.749
38.0, -237.9623543806374, -141.07837607851252, -169.53714479133487, -126.49837610125542, -0.04800000227987766, 0.144000006839633, 1.0400000493973494, 0.0, 0.0, 0.0, 0.0, 0.0, 1.76322759576342E9, 0.0, 2025-11-15 12:26:35.763
38.0, -139.90965734235942, -75.91435925057158, -145.85983817186207, -124.95753731951118, -0.04800000227987766, 0.144000006839633, 1.0400000493973494, 0.0, 0.0, 0.0, 0.0, 0.0, 1.76322759576342E9, 0.0, 2025-11-15 12:26:35.763
39.0, -86.12615607958287, -18.892104626167566, -76.46225459408015, -49.695790611207485, -0.04800000227987766, 0.144000006839633, 1.0400000493973494, 0.0, 0.0, 0.0, 0.0, 0.0, 1.7632275957641053E9, 0.0, 2025-11-15 12:26:35.764
39.0, -244.7801919998601, -138.74093860620633, -164.42096165195107, -125.22681011632085, -0.04800000227987766, 0.144000006839633, 1.0400000493973494, 0.0, 0.0, 0.0, 0.0, 0.0, 1.7632275957641053E9, 0.0, 2025-11-15 12:26:35.764
40.0, -195.54440908320248, -110.50469394074753, -168.8938819989562, -135.42177739553154, -0.04800000227987766, 0.144000006839633, 1.0400000493973494, 0.0, 0.0, 0.0, 0.0, 0.0, 1.7632275957777503E9, 0.0, 2025-11-15 12:26:35.777
40.0, -81.1146901389584, -17.88981143804267, -100.19939961284399, -92.22219300735742, -0.04800000227987766, 0.144000006839633, 1.0400000493973494, 0.0, 0.0, 0.0, 0.0, 0.0, 1.7632275957777503E9, 0.0, 2025-11-15 12:26:35.777
41.0, -218.85520550701767, -119.0728047392331, -139.4758289474994, -98.32196983508766, -0.04800000227987766, 0.144000006839633, 1.0400000493973494, 0.0, 0.0, 0.0, 0.0, 0.0, 1.7632275957933972E9, 0.0, 2025-11-15 12:26:35.793
41.0, -235.8193917060271, -140.2331586885266, -182.07702934276313, -141.90302401874214, -0.04800000227987766, 0.144000006839633, 1.0400000493973494, 0.0, 0.0, 0.0, 0.0, 0.0, 1.7632275957933972E9, 0.0, 2025-11-15 12:26:35.793
42.0, -107.6418005246669, -47.057291192468256, -134.09411291126162, -117.59367430675775, -0.04800000227987766, 0.144000006839633, 1.0400000493973494, 0.0, 0.0, 0.0, 0.0, 0.0, 1.763227595794108E9, 0.0, 2025-11-15 12:26:35.794
42.0, -177.67142719496042, -89.36677939118817, -123.27458233945072, -78.11529037449509, -0.04800000227987766, 0.144000006839633, 1.0400000493973494, 0.0, 0.0, 0.0, 0.0, 0.0, 1.763227595794108E9, 0.0, 2025-11-15 12:26:35.794
43.0, -256.0073716668412, -154.8711271150969, -186.53872998990119, -139.79746034368873, -0.04800000227987766, 0.144000006839633, 1.0400000493973494, 0.0, 0.0, 0.0, 0.0, 0.0, 1.7632275958077683E9, 0.0, 2025-11-15 12:26:35.807
43.0, -167.29320481792092, -92.01462855981663, -164.1516888551414, -135.74714869167656, -0.04800000227987766, 0.144000006839633, 1.0400000493973494, 0.0, 0.0, 0.0, 0.0, 0.0, 1.7632275958077683E9, 0.0, 2025-11-15 12:26:35.807
44.0, -118.08734110090882, -42.40111574763432, -98.95775282755494, -67.105024904944, -0.04800000227987766, 0.144000006839633, 1.0400000493973494, 0.0, 0.0, 0.0, 0.0, 0.0, 1.7632275958397772E9, 0.0, 2025-11-15 12:26:35.839
44.0, -252.379668709822, -154.8748670150526, -174.61966883111745, -131.79407443851233, -0.04800000227987766, 0.144000006839633, 1.0400000493973494, 0.0, 0.0, 0.0, 0.0, 0.0, 1.7632275958397772E9, 0.0, 2025-11-15 12:26:35.839
45.0, -219.2142359027639, -141.6019620723091, -194.04096930101514, -163.43362806364894, -0.04800000227987766, 0.144000006839633, 1.0400000493973494, 0.0, 0.0, 0.0, 0.0, 0.0, 1.7632275958404903E9, 0.0, 2025-11-15 12:26:35.840
45.0, -91.9678798103705, -36.69028851529583, -114.48207754362375, -104.17491326574236, -0.04800000227987766, 0.144000006839633, 1.0400000493973494, 0.0, 0.0, 0.0, 0.0, 0.0, 1.7632275958404903E9, 0.0, 2025-11-15 12:26:35.840
46.0, -231.24549406021833, -133.01889167400077, -157.31515173614025, -110.78705638740212, -0.04800000227987766, 0.144000006839633, 1.0400000493973494, 0.0, 0.0, 0.0, 0.0, 0.0, 1.7632275958412635E9, 0.0, 2025-11-15 12:26:35.841
46.0, -243.16829511895776, -149.7886030753143, -188.5732355657965, -149.7755134254694, -0.04800000227987766, 0.144000006839633, 1.0400000493973494, 0.0, 0.0, 0.0, 0.0, 0.0, 1.7632275958412635E9, 0.0, 2025-11-15 12:26:35.841
47.0, -111.14608678314835, -48.02966518094763, -139.75632144417614, -121.39715256169438, -0.04800000227987766, 0.144000006839633, 1.0400000493973494, 0.0, 0.0, 0.0, 0.0, 0.0, 1.763227595841997E9, 0.0, 2025-11-15 12:26:35.841
47.0, -178.5316041847691, -90.06614068290219, -118.04246230144054, -77.21771438512951, -0.04800000227987766, 0.144000006839633, 1.0400000493973494, 0.0, 0.0, 0.0, 0.0, 0.0, 1.763227595841997E9, 0.0, 2025-11-15 12:26:35.841
48.0, -246.3359903814271, -152.87776043871418, -178.21371268853545, -132.99832222424448, -0.04800000227987766, 0.144000006839633, 1.0400000493973494, 0.0, 0.0, 0.0, 0.0, 0.0, 1.763227595852713E9, 0.0, 2025-11-15 12:26:35.852
48.0, -186.34051529224962, -102.81919953180477, -169.70170038938522, -140.0255942409858, -0.04800000227987766, 0.144000006839633, 1.0400000493973494, 0.0, 0.0, 0.0, 0.0, 0.0, 1.763227595852713E9, 0.0, 2025-11-15 12:26:35.852
49.0, -127.62408598791808, -49.36106956517324, -96.822269952856, -67.4378760010004, -0.04800000227987766, 0.144000006839633, 1.0400000493973494, 0.0, 0.0, 0.0, 0.0, 0.0, 1.7632275958677428E9, 0.0, 2025-11-15 12:26:35.867
49.0, -258.73375873453915, -151.32944185705855, -175.28163112327456, -128.86573277320713, -0.04800000227987766, 0.144000006839633, 1.0400000493973494, 0.0, 0.0, 0.0, 0.0, 0.0, 1.7632275958677428E9, 0.0, 2025-11-15 12:26:35.867
50.0, -210.56010740529746, -124.95566736953333, -178.43810668587685, -139.19533645082265, -0.04800000227987766, 0.144000006839633, 1.0400000493973494, 0.0, 0.0, 0.0, 0.0, 0.0, 1.7632275958834891E9, 0.0, 2025-11-15 12:26:35.883
50.0, -87.9287878582254, -24.049426665063947, -104.0140975676477, -88.35887635312974, -0.04800000227987766, 0.144000006839633, 1.0400000493973494, 0.0, 0.0, 0.0, 0.0, 0.0, 1.7632275958834891E9, 0.0, 2025-11-15 12:26:35.883
51.0, -228.04039979819208, -122.1507424027659, -149.12851073313504, -106.19445924181491, -0.04800000227987766, 0.144000006839633, 1.0400000493973494, 0.0, 0.0, 0.0, 0.0, 0.0, 1.763227595884163E9, 0.0, 2025-11-15 12:26:35.884
51.0, -239.40221586357802, -143.98427834408358, -191.87556722667068, -156.3016388481483, -0.04800000227987766, 0.144000006839633, 1.0400000493973494, 0.0, 0.0, 0.0, 0.0, 0.0, 1.763227595884163E9, 0.0, 2025-11-15 12:26:35.884
52.0, -105.6035550488159, -41.088410863187164, -132.71408982761204, -127.25757579226047, -0.04800000227987766, 0.144000006839633, 1.0400000493973494, 0.0, 0.0, 0.0, 0.0, 0.0, 1.7632275959140863E9, 0.0, 2025-11-15 12:26:35.914
52.0, -170.69277387764305, -77.44023843249306, -110.76087708771229, -75.35150430724025, -0.04800000227987766, 0.144000006839633, 1.0400000493973494, 0.0, 0.0, 0.0, 0.0, 0.0, 1.7632275959140863E9, 0.0, 2025-11-15 12:26:35.914
53.0, -243.68814121279866, -149.0555826839991, -181.87881464511156, -148.18979584425688, -0.04800000227987766, 0.144000006839633, 1.0400000493973494, 0.0, 0.0, 0.0, 0.0, 0.0, 1.7632275959147909E9, 0.0, 2025-11-15 12:26:35.914
53.0, -156.72424754314125, -85.71289713447914, -162.35279697645456, -138.85500555485487, -0.04800000227987766, 0.144000006839633, 1.0400000493973494, 0.0, 0.0, 0.0, 0.0, 0.0, 1.7632275959147909E9, 0.0, 2025-11-15 12:26:35.914
54.0, -118.70442459359765, -44.282285425346345, -97.38325494620949, -70.88980366010219, -0.04800000227987766, 0.144000006839633, 1.0400000493973494, 0.0, 0.0, 0.0, 0.0, 0.0, 1.763227595915642E9, 0.0, 2025-11-15 12:26:35.915
54.0, -249.484986144118, -151.4266792559065, -175.50228522066027, -131.10593284666538, -0.04800000227987766, 0.144000006839633, 1.0400000493973494, 0.0, 0.0, 0.0, 0.0, 0.0, 1.763227595915642E9, 0.0, 2025-11-15 12:26:35.915
55.0, -198.07632135320455, -123.87109638238326, -179.9789454676211, -147.75596744939685, -0.04800000227987766, 0.144000006839633, 1.0400000493973494, 0.0, 0.0, 0.0, 0.0, 0.0, 1.7632275959277496E9, 0.0, 2025-11-15 12:26:35.927
55.0, -95.23655237164348, -25.388310849200934, -103.22871857695282, -87.62959586177021, -0.04800000227987766, 0.144000006839633, 1.0400000493973494, 0.0, 0.0, 0.0, 0.0, 0.0, 1.7632275959277496E9, 0.0, 2025-11-15 12:26:35.927
56.0, -217.48266222327948, -115.76299327844754, -140.6202383339405, -102.92578668054193, -0.04800000227987766, 0.144000006839633, 1.0400000493973494, 0.0, 0.0, 0.0, 0.0, 0.0, 1.763227595943408E9, 0.0, 2025-11-15 12:26:35.943
56.0, -215.71368954423815, -130.65901480196044, -177.92574039194733, -142.4752287119627, -0.04800000227987766, 0.144000006839633, 1.0400000493973494, 0.0, 0.0, 0.0, 0.0, 0.0, 1.763227595943408E9, 0.0, 2025-11-15 12:26:35.943
57.0, -113.98841074947268, -49.966933357995, -137.97986896522343, -119.67679858207703, -0.04800000227987766, 0.144000006839633, 1.0400000493973494, 0.0, 0.0, 0.0, 0.0, 0.0, 1.7632275959441152E9, 0.0, 2025-11-15 12:26:35.944
57.0, -169.68300088960677, -74.2762830699794, -110.70103868842125, -79.79824535455555, -0.04800000227987766, 0.144000006839633, 1.0400000493973494, 0.0, 0.0, 0.0, 0.0, 0.0, 1.7632275959441152E9, 0.0, 2025-11-15 12:26:35.944
58.0, -236.52623279765248, -145.33064232813194, -184.62764111254364, -143.29800670221448, -0.04800000227987766, 0.144000006839633, 1.0400000493973494, 0.0, 0.0, 0.0, 0.0, 0.0, 1.7632275959577954E9, 0.0, 2025-11-15 12:26:35.957
58.0, -154.27461307216436, -86.08314723009244, -162.97736026905477, -144.59949188679457, -0.04800000227987766, 0.144000006839633, 1.0400000493973494, 0.0, 0.0, 0.0, 0.0, 0.0, 1.7632275959577954E9, 0.0, 2025-11-15 12:26:35.957
59.0, -122.32464775070548, -47.1881876909174, -104.83313565794379, -78.53415916953236, -0.04800000227987766, 0.144000006839633, 1.0400000493973494, 0.0, 0.0, 0.0, 0.0, 0.0, 1.7632275959734123E9, 0.0, 2025-11-15 12:26:35.973
59.0, -242.84666372276843, -139.62355499574915, -166.6312425257638, -116.51284321956336, -0.04800000227987766, 0.144000006839633, 1.0400000493973494, 0.0, 0.0, 0.0, 0.0, 0.0, 1.7632275959734123E9, 0.0, 2025-11-15 12:26:35.973
60.0, -190.78725633956492, -115.00379358744249, -169.94853378646076, -130.34299325570464, -0.04800000227987766, 0.144000006839633, 1.0400000493973494, 0.0, 0.0, 0.0, 0.0, 0.0, 1.763227595974134E9, 0.0, 2025-11-15 12:26:35.974
60.0, -85.31459778919816, -23.08453247649595, -108.06814911961555, -98.02277783863246, -0.04800000227987766, 0.144000006839633, 1.0400000493973494, 0.0, 0.0, 0.0, 0.0, 0.0, 1.763227595974134E9, 0.0, 2025-11-15 12:26:35.974
61.0, -230.1048245737329, -125.5951902619563, -143.97118869423866, -103.72612527105957, -0.04800000227987766, 0.144000006839633, 1.0400000493973494, 0.0, 0.0, 0.0, 0.0, 0.0, 1.7632275959877617E9, 0.0, 2025-11-15 12:26:35.987
61.0, -228.4368291934952, -144.7920967345126, -184.6052017128095, -146.79481316078454, -0.04800000227987766, 0.144000006839633, 1.0400000493973494, 0.0, 0.0, 0.0, 0.0, 0.0, 1.7632275959877617E9, 0.0, 2025-11-15 12:26:35.987
62.0, -106.7180452356115, -44.682454720605165, -129.2846015682444, -115.94063852634281, -0.04800000227987766, 0.144000006839633, 1.0400000493973494, 0.0, 0.0, 0.0, 0.0, 0.0, 1.7632275960034285E9, 0.0, 2025-11-15 12:26:36.003
62.0, -171.64644836634398, -82.76585596939549, -107.16683323029429, -67.19852240383625, -0.04800000227987766, 0.144000006839633, 1.0400000493973494, 0.0, 0.0, 0.0, 0.0, 0.0, 1.7632275960034285E9, 0.0, 2025-11-15 12:26:36.003
63.0, -247.99276606179774, -148.71151188807562, -180.7905037580058, -140.76235453225672, -0.04800000227987766, 0.144000006839633, 1.0400000493973494, 0.0, 0.0, 0.0, 0.0, 0.0, 1.7632275960041146E9, 0.0, 2025-11-15 12:26:36.004
63.0, -149.69323562644422, -79.74027690524235, -155.5199997574091, -134.04549421183765, -0.04800000227987766, 0.144000006839633, 1.0400000493973494, 0.0, 0.0, 0.0, 0.0, 0.0, 1.7632275960041146E9, 0.0, 2025-11-15 12:26:36.004
64.0, -115.00566353742033, -36.09564442234114, -92.89163509942591, -74.6297036157921, -0.04800000227987766, 0.144000006839633, 1.0400000493973494, 0.0, 0.0, 0.0, 0.0, 0.0, 1.7632275960177553E9, 0.0, 2025-11-15 12:26:36.017
64.0, -229.4802612811327, -135.47974584484473, -161.05879159178585, -123.03148884233087, -0.04800000227987766, 0.144000006839633, 1.0400000493973494, 0.0, 0.0, 0.0, 0.0, 0.0, 1.7632275960177553E9, 0.0, 2025-11-15 12:26:36.017
