%OpenBCI Raw EXG Data
%Number of channels = 4
%Sample Rate = 200 Hz
%Board = OpenBCI_GUI$BoardGanglionBLE
Sample Index, EXG Channel 0, EXG Channel 1, EXG Channel 2, EXG Channel 3, Accel Channel 0, Accel Channel 1, Accel Channel 2, Other, Other, Other, Other, Other, Timestamp, Marker Channel, Timestamp (Formatted)
52.0, 242.14356253109872, 212.9910423764959, 181.9349131444469, 147.80458614882082, -0.03200000151991844, 0.0, 0.0, 0.0, 0.0, 0.0, 0.0, 0.0, 1.7632263151606393E9, 0.0, 2025-11-15 12:05:15.160
52.0, 211.00515550002456, 124.43395132571459, 161.1859481902793, 134.4381837071851, -0.03200000151991844, 0.0, 0.0, 0.0, 0.0, 0.0, 0.0, 0.0, 1.7632263151606393E9, 0.0, 2025-11-15 12:05:15.160
0.0, -61.345578973181546, 0.8489572899416089, -54.46042315475643, -40.3535205218941, -0.03200000151991844, 0.0, 0.0, 0.0, 0.0, 0.0, 0.0, 0.0, 1.7632263151817453E9, 0.0, 2025-11-15 12:05:15.181
1.0, -29.3469949522987, 48.34194682724774, 10.707333573140204, 19.821469765156507, -0.03200000151991844, 0.20800000987946987, 0.0, 0.0, 0.0, 0.0, 0.0, 0.0, 1.763226315195212E9, 0.0, 2025-11-15 12:05:15.195
1.0, -251.74388571735471, -147.0715657575056, -160.09015750326216, -133.93703711312264, -0.03200000151991844, 0.20800000987946987, 0.0, 0.0, 0.0, 0.0, 0.0, 0.0, 1.763226315195212E9, 0.0, 2025-11-15 12:05:15.195
2.0, -166.69856072496623, -88.71790674887598, -121.65894555859268, -97.39821454603225, -0.03200000151991844, 0.20800000987946987, 0.0, 0.0, 0.0, 0.0, 0.0, 0.0, 1.7632263152119188E9, 0.0, 2025-11-15 12:05:15.211
2.0, 36.766956464387476, 95.29639077093452, 40.806048416532576, 35.43181218020618, -0.03200000151991844, 0.20800000987946987, 0.0, 0.0, 0.0, 0.0, 0.0, 0.0, 1.7632263152119188E9, 0.0, 2025-11-15 12:05:15.211
3.0, 254.00465524056926, -131.92871083691716, -149.0761521337554, -120.62673317082226, -0.03200000151991844, 0.20800000987946987, 0.0, 0.0, 0.0, 0.0, 0.0, 0.0, 1.7632263152126625E9, 0.0, 2025-11-15 12:05:15.212
3.0, 257.42666370002553, -152.56921869236976, -183.06062303110957, -153.51167348120362, -0.03200000151991844, 0.20800000987946987, 0.0, 0.0, 0.0, 0.0, 0.0, 0.0, 1.7632263152126625E9, 0.0, 2025-11-15 12:05:15.212
4.0, 488.94143055705354, 67.54259319975972, 1.2715659849345684, 6.686941120773554, -0.03200000151991844, 0.20800000987946987, 0.0, 0.0, 0.0, 0.0, 0.0, 0.0, 1.7632263152250257E9, 0.0, 2025-11-15 12:05:15.225
4.0, 355.38960313936695, -44.078460877761245, -81.9299883292988, -65.22011532727629, -0.03200000151991844, 0.20800000987946987, 0.0, 0.0, 0.0, 0.0, 0.0, 0.0, 1.7632263152250257E9, 0.0, 2025-11-15 12:05:15.225
5.0, 226.00776417227462, -167.23710631858557, -188.14688697084785, -156.45123484637588, -0.03200000151991844, 0.20800000987946987, 0.0, 0.0, 0.0, 0.0, 0.0, 0.0, 1.7632263152406917E9, 0.0, 2025-11-15 12:05:15.240
5.0, 415.4037777283229, -15.415867617353797, -67.8829240957275, -53.783501262776554, -0.03200000151991844, 0.20800000987946987, 0.0, 0.0, 0.0, 0.0, 0.0, 0.0, 1.7632263152406917E9, 0.0, 2025-11-15 12:05:15.240
6.0, 453.9097876721062, 38.805201940238476, -3.4706271588802338, 9.547964586876333, -0.03200000151991844, 0.20800000987946987, 0.0, 0.0, 0.0, 0.0, 0.0, 0.0, 1.7632263152414308E9, 0.0, 2025-11-15 12:05:15.241
6.0, 224.65018048835918, -170.45716018043458, -187.19321248214692, -155.42276235856116, -0.03200000151991844, 0.20800000987946987, 0.0, 0.0, 0.0, 0.0, 0.0, 0.0, 1.7632263152414308E9, 0.0, 2025-11-15 12:05:15.241
7.0, 313.67475903360173, -108.0157905202359, -149.7792533254251, -121.22885706368834, -0.03200000151991844, 0.20800000987946987, 0.0, 0.0, 0.0, 0.0, 0.0, 0.0, 1.7632263152549696E9, 0.0, 2025-11-15 12:05:15.254
7.0, 521.1531888754107, 87.3378836652264, 26.747764483094215, 31.32540202885866, -0.03200000151991844, 0.20800000987946987, 0.0, 0.0, 0.0, 0.0, 0.0, 0.0, 1.7632263152549696E9, 0.0, 2025-11-15 12:05:15.254
8.0, 736.3002835763618, -145.7326815733686, -164.05445145629346, -137.08229297585785, -0.03200000151991844, 0.20800000987946987, 0.0, 0.0, 0.0, 0.0, 0.0, 0.0, 1.7632263152707078E9, 0.0, 2025-11-15 12:05:15.270
8.0, 734.875381693244, -160.36691009998322, -188.14688697084785, -149.6633164267987, -0.03200000151991844, 0.20800000987946987, 0.0, 0.0, 0.0, 0.0, 0.0, 0.0, 1.7632263152707078E9, 0.0, 2025-11-15 12:05:15.270
9.0, 507.30807923944667, 66.86567130777985, 3.5117660583928227, 8.601769898086786, -0.03200000151991844, 0.20800000987946987, 0.0, 0.0, 0.0, 0.0, 0.0, 0.0, 1.7632263152714164E9, 0.0, 2025-11-15 12:05:15.271
9.0, 334.0310344924219, -67.22470170352608, -92.9327739989385, -73.63489022757858, -0.03200000151991844, 0.20800000987946987, 0.0, 0.0, 0.0, 0.0, 0.0, 0.0, 1.7632263152714164E9, 0.0, 2025-11-15 12:05:15.271
10.0, 230.11417432362214, -171.85214286390692, -187.81403587479144, -156.64196974411607, -0.03200000151991844, 0.20800000987946987, 1.0240000486373901, 0.0, 0.0, 0.0, 0.0, 0.0, 1.7632263152851117E9, 0.0, 2025-11-15 12:05:15.285
10.0, 399.868233312387, -30.914013033732772, -84.66385519690812, -76.19672169722617, -0.03200000151991844, 0.20800000987946987, 1.0240000486373901, 0.0, 0.0, 0.0, 0.0, 0.0, 1.7632263152851117E9, 0.0, 2025-11-15 12:05:15.285
11.0, 473.4358053407632, 45.44726426154375, -0.3178914962336421, 6.922554817982018, -0.03200000151991844, 0.11200000531971455, 1.0240000486373901, 0.0, 0.0, 0.0, 0.0, 0.0, 1.7632263153007E9, 0.0, 2025-11-15 12:05:15.300
11.0, 707.1178442221135, -174.65706783067435, -186.69206588808447, -156.79156574234366, -0.03200000151991844, 0.11200000531971455, 1.0240000486373901, 0.0, 0.0, 0.0, 0.0, 0.0, 1.7632263153007E9, 0.0, 2025-11-15 12:05:15.300
12.0, 802.2085404954851, -100.80526340566576, -137.74051536805928, -115.80974202789366, -0.01600000075995922, 0.11200000531971455, 1.0240000486373901, 0.0, 0.0, 0.0, 0.0, 0.0, 1.7632263153014123E9, 0.0, 2025-11-15 12:05:15.301
12.0, 1003.0187287162989, 81.3353442363441, 16.717352801933885, 17.64858789090067, -0.01600000075995922, 0.11200000531971455, 1.0240000486373901, 0.0, 0.0, 0.0, 0.0, 0.0, 1.7632263153014123E9, 0.0, 2025-11-15 12:05:15.301
13.0, 1223.992587548215, -141.3308193255216, -158.6727354200557, -129.45289706625044, -0.01600000075995922, 0.11200000531971455, 1.0240000486373901, 0.0, 0.0, 0.0, 0.0, 0.0, 1.7632263153150213E9, 0.0, 2025-11-15 12:05:15.315
13.0, 1220.8772508851252, -166.01415903307498, -195.41351258475333, -164.2676257537678, -0.01600000075995922, 0.11200000531971455, 1.0240000486373901, 0.0, 0.0, 0.0, 0.0, 0.0, 1.7632263153150213E9, 0.0, 2025-11-15 12:05:15.315
14.0, 978.7056391043589, 49.21708341687918, -18.314290083013475, -13.70673333760351, -0.01600000075995922, 0.11200000531971455, 1.0240000486373901, 0.0, 0.0, 0.0, 0.0, 0.0, 1.7632263153306873E9, 0.0, 2025-11-15 12:05:15.330
14.0, 831.6078940471634, -60.49662168323994, -88.75530574843287, -66.85819150786847, -0.01600000075995922, 0.11200000531971455, 1.0240000486373901, 0.0, 0.0, 0.0, 0.0, 0.0, 1.7632263153306873E9, 0.0, 2025-11-15 12:05:15.330
15.0, 706.9532886240631, -183.04192353133112, -208.12917243409902, -176.84116940479726, -0.01600000075995922, 0.11200000531971455, 1.0240000486373901, 0.0, 0.0, 0.0, 0.0, 0.0, 1.763226315331402E9, 0.0, 2025-11-15 12:05:15.331
15.0, 876.5465319147334, -38.73788374103606, -93.89018838759512, -75.31784520763904, -0.01600000075995922, 0.11200000531971455, 1.0240000486373901, 0.0, 0.0, 0.0, 0.0, 0.0, 1.763226315331402E9, 0.0, 2025-11-15 12:05:15.331
16.0, 942.3014529356733, 34.17894569505006, -11.713366661220789, -6.193274326622486, -0.01600000075995922, 0.11200000531971455, 1.0240000486373901, 0.0, 0.0, 0.0, 0.0, 0.0, 1.7632263153451166E9, 0.0, 2025-11-15 12:05:15.345
16.0, 707.1253240220249, -172.85069615207613, -192.33931482117623, -167.05759112071246, -0.01600000075995922, 0.11200000531971455, 1.0240000486373901, 0.0, 0.0, 0.0, 0.0, 0.0, 1.7632263153451166E9, 0.0, 2025-11-15 12:05:15.345
17.0, 786.6243773801252, -117.02894941344857, -155.96878775209188, -131.64821834024042, -0.01600000075995922, 0.11200000531971455, 1.0240000486373901, 0.0, 0.0, 0.0, 0.0, 0.0, 1.7632263153607025E9, 0.0, 2025-11-15 12:05:15.360
17.0, 1019.1489172251895, 92.7121199015528, 29.522770250216126, 39.3138283342123, -0.01600000075995922, 0.11200000531971455, 1.0240000486373901, 0.0, 0.0, 0.0, 0.0, 0.0, 1.7632263153607025E9, 0.0, 2025-11-15 12:05:15.360
18.0, 1232.010933053214, -143.86273159552366, -160.5239858981222, -129.69973046332598, -0.01600000075995922, 0.11200000531971455, 1.0240000486373901, 0.0, 0.0, 0.0, 0.0, 0.0, 1.7632263153614109E9, 0.0, 2025-11-15 12:05:15.361
18.0, 1241.9553270353936, -155.3330047596246, -184.51544411387295, -157.13189663831145, -0.01600000075995922, 0.11200000531971455, 1.0240000486373901, 0.0, 0.0, 0.0, 0.0, 0.0, 1.7632263153614109E9, 0.0, 2025-11-15 12:05:15.361
19.0, 1465.238574089948, 40.5367756197229, -29.305856052786112, -29.3843939518556, -0.01600000075995922, 0.11200000531971455, 1.0240000486373901, 0.0, 0.0, 0.0, 0.0, 0.0, 1.7632263153750415E9, 0.0, 2025-11-15 12:05:15.375
19.0, 1306.5022603706457, -70.5158136645332, -99.85906871687621, -81.87388982996345, -0.01600000075995922, 0.11200000531971455, 1.0240000486373901, 0.0, 0.0, 0.0, 0.0, 0.0, 1.7632263153750415E9, 0.0, 2025-11-15 12:05:15.375
20.0, 1193.310448311735, -183.28875692840666, -209.359599519521, -178.47550568543375, -0.01600000075995922, 0.11200000531971455, 0.576000027358532, 0.0, 0.0, 0.0, 0.0, 0.0, 1.7632263153907557E9, 0.0, 2025-11-15 12:05:15.390
20.0, 1376.4196900422685, -35.626286977902055, -91.85568281169981, -76.78762589022517, -0.01600000075995922, 0.11200000531971455, 0.576000027358532, 0.0, 0.0, 0.0, 0.0, 0.0, 1.7632263153907557E9, 0.0, 2025-11-15 12:05:15.390
21.0, 1431.8263078858145, 34.17146589513868, -17.076383197680116, -5.168541738763452, -0.01600000075995922, 0.1600000075995922, 0.576000027358532, 0.0, 0.0, 0.0, 0.0, 0.0, 1.763226315391422E9, 0.0, 2025-11-15 12:05:15.391
21.0, 1195.2477164887823, -175.73789891786873, -200.9859635187313, -169.38380889315158, -0.01600000075995922, 0.1600000075995922, 0.576000027358532, 0.0, 0.0, 0.0, 0.0, 0.0, 1.763226315391422E9, 0.0, 2025-11-15 12:05:15.391
22.0, 1287.769101492595, -112.0174834728241, -151.19667540863156, -122.73977664578706, -0.03200000151991844, 0.1600000075995922, 0.576000027358532, 0.0, 0.0, 0.0, 0.0, 0.0, 1.7632263154050465E9, 0.0, 2025-11-15 12:05:15.405
22.0, 1501.0144570660777, 84.38336270023137, 21.953212739899755, 20.285217359662056, -0.03200000151991844, 0.1600000075995922, 0.576000027358532, 0.0, 0.0, 0.0, 0.0, 0.0, 1.7632263154050465E9, 0.0, 2025-11-15 12:05:15.405
23.0, 1717.3022212535143, -141.18870312720537, -154.05021907482296, -130.242015956901, -0.03200000151991844, 0.1600000075995922, 0.576000027358532, 0.0, 0.0, 0.0, 0.0, 0.0, 1.7632263154207006E9, 0.0, 2025-11-15 12:05:15.420
23.0, 1720.0286083212122, -165.24747954215854, -193.2368908105418, -155.2245476609096, -0.03200000151991844, 0.1600000075995922, 0.576000027358532, 0.0, 0.0, 0.0, 0.0, 0.0, 1.7632263154207006E9, 0.0, 2025-11-15 12:05:15.420
24.0, 1956.128492523916, 49.19838391710073, -19.911227364093065, -15.333589818328619, -0.03200000151991844, 0.1600000075995922, 0.576000027358532, 0.0, 0.0, 0.0, 0.0, 0.0, 1.763226315421399E9, 0.0, 2025-11-15 12:05:15.421
24.0, 1808.3538255747408, -63.69049624539912, -88.02602525707334, -72.25112724397331, -0.03200000151991844, 0.1600000075995922, 0.576000027358532, 0.0, 0.0, 0.0, 0.0, 0.0, 1.763226315421399E9, 0.0, 2025-11-15 12:05:15.421
25.0, 1685.1428215345368, -187.69061917625368, -210.00286231189966, -174.07738333754241, -0.03200000151991844, 0.1600000075995922, 0.576000027358532, 0.0, 0.0, 0.0, 0.0, 0.0, 1.7632263154350135E9, 0.0, 2025-11-15 12:05:15.435
25.0, 1869.594687349163, -34.65017308946699, -89.86605603527278, -80.46020764671266, -0.03200000151991844, 0.1600000075995922, 0.576000027358532, 0.0, 0.0, 0.0, 0.0, 0.0, 1.7632263154350135E9, 0.0, 2025-11-15 12:05:15.435
26.0, 1924.7095929961652, 30.023916844278574, -12.210773355327547, -7.098330115899444, -0.03200000151991844, 0.1600000075995922, 0.576000027358532, 0.0, 0.0, 0.0, 0.0, 0.0, 1.763226315450694E9, 0.0, 2025-11-15 12:05:15.450
26.0, 1688.3142566969618, -172.32711015827954, -191.04530943650752, -159.13648301456124, -0.03200000151991844, 0.1600000075995922, 0.576000027358532, 0.0, 0.0, 0.0, 0.0, 0.0, 1.763226315450694E9, 0.0, 2025-11-15 12:05:15.450
27.0, 1784.8261149534956, -115.51428993139416, -152.071811998263, -120.06200827751309, -0.03200000151991844, 0.1600000075995922, 0.576000027358532, 0.0, 0.0, 0.0, 0.0, 0.0, 1.763226315451406E9, 0.0, 2025-11-15 12:05:15.451
27.0, 1988.8301777364686, 81.39892253559083, 22.233705236576498, 19.013651374727488, -0.03200000151991844, 0.1600000075995922, 0.576000027358532, 0.0, 0.0, 0.0, 0.0, 0.0, 1.763226315451406E9, 0.0, 2025-11-15 12:05:15.451
28.0, 2216.397480190266, -133.96695631276816, -155.557398756966, -124.60224682372063, -0.03200000151991844, 0.1600000075995922, 0.576000027358532, 0.0, 0.0, 0.0, 0.0, 0.0, 1.7632263154651115E9, 0.0, 2025-11-15 12:05:15.465
28.0, 2193.748646058608, -174.9674795269966, -203.21868379227817, -165.7112271366641, -0.03200000151991844, 0.1600000075995922, 0.576000027358532, 0.0, 0.0, 0.0, 0.0, 0.0, 1.7632263154651115E9, 0.0, 2025-11-15 12:05:15.465
29.0, 1961.760781857185, 52.44835697859526, -15.359769118018448, -9.503085787408054, -0.03200000151991844, 0.1600000075995922, 0.576000027358532, 0.0, 0.0, 0.0, 0.0, 0.0, 1.7632263154806948E9, 0.0, 2025-11-15 12:05:15.480
29.0, 1827.6255300464109, -44.15699877683073, -71.64152355119586, -60.24604838620871, -0.03200000151991844, 0.1600000075995922, 0.576000027358532, 0.0, 0.0, 0.0, 0.0, 0.0, 1.7632263154806948E9, 0.0, 2025-11-15 12:05:15.480
30.0, 1677.311471027322, -189.0145437605679, -209.38577881921083, -174.88894162792712, -0.03200000151991844, 0.1600000075995922, 0.800000037997961, 0.0, 0.0, 0.0, 0.0, 0.0, 1.7632263154813993E9, 0.0, 2025-11-15 12:05:15.481
30.0, 1864.9011129047722, -36.57996146660298, -97.09528264962137, -80.40036924742162, -0.03200000151991844, 0.1600000075995922, 0.800000037997961, 0.0, 0.0, 0.0, 0.0, 0.0, 1.7632263154813993E9, 0.0, 2025-11-15 12:05:15.481
31.0, 1921.0519708395004, 26.807602882385254, -19.215605972334743, -15.124155420809984, -0.03200000151991844, 0.17600000835955143, 0.800000037997961, 0.0, 0.0, 0.0, 0.0, 0.0, 1.7632263155114288E9, 0.0, 2025-11-15 12:05:15.511
31.0, 1687.2184660099447, -175.50602512061596, -191.71101162862033, -161.7394533837214, -0.03200000151991844, 0.17600000835955143, 0.800000037997961, 0.0, 0.0, 0.0, 0.0, 0.0, 1.7632263155114288E9, 0.0, 2025-11-15 12:05:15.511
32.0, 1766.3360495725647, -123.53263543639332, -159.2561598131433, -134.70371660403907, -0.03200000151991844, 0.17600000835955143, 0.800000037997961, 0.0, 0.0, 0.0, 0.0, 0.0, 1.7632263155121324E9, 0.0, 2025-11-15 12:05:15.512
32.0, 2000.2929711006582, 90.43452082853764, 28.426979563198984, 29.578868749551475, -0.03200000151991844, 0.17600000835955143, 0.800000037997961, 0.0, 0.0, 0.0, 0.0, 0.0, 1.7632263155121324E9, 0.0, 2025-11-15 12:05:15.512
33.0, 2226.4391115712933, -126.04210830666125, -140.68755653314292, -115.56290863081813, -0.03200000151991844, 0.17600000835955143, 0.800000037997961, 0.0, 0.0, 0.0, 0.0, 0.0, 1.763226315512865E9, 0.0, 2025-11-15 12:05:15.512
33.0, 2214.9912778069265, -160.98773349262774, -187.047356383875, -153.98290087562054, -0.03200000151991844, 0.17600000835955143, 0.800000037997961, 0.0, 0.0, 0.0, 0.0, 0.0, 1.763226315512865E9, 0.0, 2025-11-15 12:05:15.512
34.0, 2443.7198191969655, 46.7263100463897, -22.10654863808304, -13.70299343764782, -0.03200000151991844, 0.17600000835955143, 0.800000037997961, 0.0, 0.0, 0.0, 0.0, 0.0, 1.7632263155250173E9, 0.0, 2025-11-15 12:05:15.525
34.0, 2320.6060525556095, -40.93320501502603, -70.85988446045667, -52.137945282272995, -0.03200000151991844, 0.17600000835955143, 0.800000037997961, 0.0, 0.0, 0.0, 0.0, 0.0, 1.7632263155250173E9, 0.0, 2025-11-15 12:05:15.525
35.0, 2185.9472147510387, -173.77445144113153, -194.47105779591948, -164.54063845053315, -0.03200000151991844, 0.17600000835955143, 0.800000037997961, 0.0, 0.0, 0.0, 0.0, 0.0, 1.7632263155406623E9, 0.0, 2025-11-15 12:05:15.540
35.0, 2354.287591556553, -39.34000763390213, -88.62814914993942, -73.26838003192097, -0.03200000151991844, 0.17600000835955143, 0.800000037997961, 0.0, 0.0, 0.0, 0.0, 0.0, 1.7632263155406623E9, 0.0, 2025-11-15 12:05:15.540
36.0, 2426.5087996008806, 42.455344296991825, 1.3014851845800877, 7.65931510925293, -0.03200000151991844, 0.17600000835955143, 0.800000037997961, 0.0, 0.0, 0.0, 0.0, 0.0, 1.76322631554138E9, 0.0, 2025-11-15 12:05:15.541
36.0, 2186.5381189440377, -168.4824930038303, -182.03215054329485, -158.39598282333463, -0.03200000151991844, 0.17600000835955143, 0.800000037997961, 0.0, 0.0, 0.0, 0.0, 0.0, 1.76322631554138E9, 0.0, 2025-11-15 12:05:15.541
37.0, 2270.020165754948, -108.20278551802039, -145.8523583719507, -122.38448614999652, -0.03200000151991844, 0.17600000835955143, 0.800000037997961, 0.0, 0.0, 0.0, 0.0, 0.0, 1.7632263155550067E9, 0.0, 2025-11-15 12:05:15.555
37.0, 2477.846406292636, 79.34197755996138, 18.830396276898682, 21.586702544242144, -0.03200000151991844, 0.17600000835955143, 0.800000037997961, 0.0, 0.0, 0.0, 0.0, 0.0, 1.7632263155550067E9, 0.0, 2025-11-15 12:05:15.555
38.0, 2247.0123012275435, -110.75339728780091, -130.75438225083053, -112.07358197215945, -0.03200000151991844, 0.17600000835955143, 0.800000037997961, 0.0, 0.0, 0.0, 0.0, 0.0, 1.7632263155707016E9, 0.0, 2025-11-15 12:05:15.570
38.0, 2201.3630823683925, -160.31081160064787, -185.74213129933923, -152.82353188935667, -0.03200000151991844, 0.17600000835955143, 0.800000037997961, 0.0, 0.0, 0.0, 0.0, 0.0, 1.7632263155707016E9, 0.0, 2025-11-15 12:05:15.570
39.0, 1964.849939220585, 54.20237005781382, -8.594290098175406, -6.866456318646669, -0.03200000151991844, 0.17600000835955143, 0.800000037997961, 0.0, 0.0, 0.0, 0.0, 0.0, 1.7632263155713844E9, 0.0, 2025-11-15 12:05:15.571
39.0, 1841.470639682375, -35.47669097967446, -62.89763745479286, -54.99896874837577, -0.03200000151991844, 0.17600000835955143, 0.800000037997961, 0.0, 0.0, 0.0, 0.0, 0.0, 1.7632263155713844E9, 0.0, 2025-11-15 12:05:15.571
40.0, 1706.9613978760317, -161.53001898620278, -180.83538255747408, -154.5177065692842, -0.03200000151991844, 0.17600000835955143, 0.8960000425577164, 0.0, 0.0, 0.0, 0.0, 0.0, 1.7632263155850055E9, 0.0, 2025-11-15 12:05:15.585
40.0, 1865.8473075935617, -32.52217001467943, -84.82841079495847, -71.47322805318981, -0.03200000151991844, 0.17600000835955143, 0.8960000425577164, 0.0, 0.0, 0.0, 0.0, 0.0, 1.7632263155850055E9, 0.0, 2025-11-15 12:05:15.585
41.0, 1944.441305162385, 56.03118113614619, 8.399815300479531, 12.10231625661254, -0.03200000151991844, 0.19200000911951065, 0.8960000425577164, 0.0, 0.0, 0.0, 0.0, 0.0, 1.7632263156006713E9, 0.0, 2025-11-15 12:05:15.600
41.0, 1721.214156607166, -143.13345110416412, -163.35883006453514, -138.9185838541016, -0.03200000151991844, 0.19200000911951065, 0.8960000425577164, 0.0, 0.0, 0.0, 0.0, 0.0, 1.7632263156006713E9, 0.0, 2025-11-15 12:05:15.600
42.0, 1778.0755955334753, -96.42584055755287, -134.90941110160202, -112.23439767025411, -0.03200000151991844, 0.19200000911951065, 0.8960000425577164, 0.0, 0.0, 0.0, 0.0, 0.0, 1.7632263156013808E9, 0.0, 2025-11-15 12:05:15.601
42.0, 1982.1245371159166, 86.61608297377825, 29.201138854026794, 26.13068099040538, -0.03200000151991844, 0.19200000911951065, 0.8960000425577164, 0.0, 0.0, 0.0, 0.0, 0.0, 1.7632263156013808E9, 0.0, 2025-11-15 12:05:15.601
43.0, 1742.6998818526044, -106.84894173406065, -127.39969199057668, -112.51489016693085, -0.03200000151991844, 0.19200000911951065, 0.8960000425577164, 0.0, 0.0, 0.0, 0.0, 0.0, 1.7632263156149971E9, 0.0, 2025-11-15 12:05:15.614
43.0, 1717.668731449172, -148.7732202373445, -177.54427059646696, -152.57669849228114, -0.03200000151991844, 0.19200000911951065, 0.8960000425577164, 0.0, 0.0, 0.0, 0.0, 0.0, 1.7632263156149971E9, 0.0, 2025-11-15 12:05:15.614
44.0, 1960.5228749718517, 52.8036474743858, -9.177714491263032, -13.725432837381959, -0.03200000151991844, 0.19200000911951065, 0.8960000425577164, 0.0, 0.0, 0.0, 0.0, 0.0, 1.7632263156306956E9, 0.0, 2025-11-15 12:05:15.630
44.0, 1838.2057070210576, -31.82280872296542, -57.81511341501027, -38.831381239928305, -0.03200000151991844, 0.19200000911951065, 0.8960000425577164, 0.0, 0.0, 0.0, 0.0, 0.0, 1.7632263156306956E9, 0.0, 2025-11-15 12:05:15.630
45.0, 1699.167446368374, -164.7463329480961, -184.900653809309, -146.68261616211385, -0.03200000151991844, 0.19200000911951065, 0.8960000425577164, 0.0, 0.0, 0.0, 0.0, 0.0, 1.7632263156313927E9, 0.0, 2025-11-15 12:05:15.631
45.0, 1864.6318401079625, -26.863701381720603, -81.61583673302084, -66.5851788111031, -0.03200000151991844, 0.19200000911951065, 0.8960000425577164, 0.0, 0.0, 0.0, 0.0, 0.0, 1.7632263156313927E9, 0.0, 2025-11-15 12:05:15.631
46.0, 1943.2707164762542, 56.22565593384206, 6.795398219488561, 6.245632926002145, -0.03200000151991844, 0.19200000911951065, 0.8960000425577164, 0.0, 0.0, 0.0, 0.0, 0.0, 1.7632263156450472E9, 0.0, 2025-11-15 12:05:15.645
46.0, 1713.0088161043823, -150.1457635210827, -170.74139257706702, -146.30862616654485, -0.03200000151991844, 0.19200000911951065, 0.8960000425577164, 0.0, 0.0, 0.0, 0.0, 0.0, 1.7632263156450472E9, 0.0, 2025-11-15 12:05:15.645
47.0, 1767.9554262533784, -106.44877243880183, -152.15408979728818, -121.55048845987767, -0.03200000151991844, 0.19200000911951065, 0.8960000425577164, 0.0, 0.0, 0.0, 0.0, 0.0, 1.7632263156607697E9, 0.0, 2025-11-15 12:05:15.660
47.0, 2009.9942715857178, 104.27963046450168, 36.419145768508315, 34.91944588627666, -0.03200000151991844, 0.19200000911951065, 0.8960000425577164, 0.0, 0.0, 0.0, 0.0, 0.0, 1.7632263156607697E9, 0.0, 2025-11-15 12:05:15.660
48.0, 2233.6346790860407, -112.87392056267709, -134.8383530024439, -109.71370510011911, -0.03200000151991844, 0.19200000911951065, 0.8960000425577164, 0.0, 0.0, 0.0, 0.0, 0.0, 1.763226315661451E9, 0.0, 2025-11-15 12:05:15.661
48.0, 2210.72779185744, -152.83849148917943, -182.25654454063624, -144.30777969025075, -0.03200000151991844, 0.19200000911951065, 0.8960000425577164, 0.0, 0.0, 0.0, 0.0, 0.0, 1.763226315661451E9, 0.0, 2025-11-15 12:05:15.661
49.0, 1967.7521015862003, 56.33785293251276, -21.107995349913836, -12.584763350896537, -0.03200000151991844, 0.19200000911951065, 0.8960000425577164, 0.0, 0.0, 0.0, 0.0, 0.0, 1.7632263156750414E9, 0.0, 2025-11-15 12:05:15.675
49.0, 1835.4232214540243, -31.463778327219188, -63.57081944681704, -44.39635237399489, -0.03200000151991844, 0.19200000911951065, 0.8960000425577164, 0.0, 0.0, 0.0, 0.0, 0.0, 1.7632263156750414E9, 0.0, 2025-11-15 12:05:15.675
50.0, 1706.2844759840518, -157.83125793002546, -177.50313169695437, -145.4372294768691, -0.03200000151991844, 0.19200000911951065, 0.9600000455975533, 0.0, 0.0, 0.0, 0.0, 0.0, 1.7632263156907551E9, 0.0, 2025-11-15 12:05:15.690
50.0, 1870.5521017378196, -26.351335087791085, -81.87388982996345, -68.15967669244856, -0.03200000151991844, 0.19200000911951065, 0.9600000455975533, 0.0, 0.0, 0.0, 0.0, 0.0, 1.7632263156907551E9, 0.0, 2025-11-15 12:05:15.690
51.0, 1951.3788195801899, 63.46236234810203, 10.87562907114625, 14.985779122449458, -0.03200000151991844, 0.19200000911951065, 0.9600000455975533, 0.0, 0.0, 0.0, 0.0, 0.0, 1.7632263156914485E9, 0.0, 2025-11-15 12:05:15.691
51.0, 2189.1560489130206, -152.06433219835162, -169.10331639647484, -130.1709578577429, -0.03200000151991844, 0.19200000911951065, 0.9600000455975533, 0.0, 0.0, 0.0, 0.0, 0.0, 1.7632263156914485E9, 0.0, 2025-11-15 12:05:15.691
52.0, 2283.0125782010145, -94.74288557749242, -140.57909943442792, -115.85088092740625, -0.03200000151991844, 0.19200000911951065, 0.9600000455975533, 0.0, 0.0, 0.0, 0.0, 0.0, 1.7632263157050147E9, 0.0, 2025-11-15 12:05:15.705
52.0, 2472.3973720571958, 88.87872244697064, 27.155413578264415, 28.860807958059013, -0.03200000151991844, 0.19200000911951065, 0.9600000455975533, 0.0, 0.0, 0.0, 0.0, 0.0, 1.7632263157050147E9, 0.0, 2025-11-15 12:05:15.705
53.0, 2247.7266221190803, -103.0492033790797, -119.86753347981721, -92.46902640443295, -0.03200000151991844, 0.19200000911951065, 0.9600000455975533, 0.0, 0.0, 0.0, 0.0, 0.0, 1.7632263157207787E9, 0.0, 2025-11-15 12:05:15.720
53.0, 2204.4858988313936, -153.6650093793869, -179.99764496739954, -148.70964193809777, -0.03200000151991844, 0.19200000911951065, 0.9600000455975533, 0.0, 0.0, 0.0, 0.0, 0.0, 1.7632263157207787E9, 0.0, 2025-11-15 12:05:15.720
54.0, 1970.7851604502648, 62.65454395767301, 1.006033088080585, 4.955367441289127, -0.03200000151991844, 0.19200000911951065, 0.9600000455975533, 0.0, 0.0, 0.0, 0.0, 0.0, 1.763226315721468E9, 0.0, 2025-11-15 12:05:15.721
54.0, 1852.4472460523248, -18.14973448496312, -45.77637545764446, -33.13551360741258, -0.03200000151991844, 0.19200000911951065, 0.9600000455975533, 0.0, 0.0, 0.0, 0.0, 0.0, 1.763226315721468E9, 0.0, 2025-11-15 12:05:15.721
55.0, 1721.7975810002536, -143.71687549725175, -169.6381220901385, -141.41683702450246, -0.03200000151991844, 0.19200000911951065, 0.9600000455975533, 0.0, 0.0, 0.0, 0.0, 0.0, 1.7632263157350068E9, 0.0, 2025-11-15 12:05:15.735
55.0, 1845.5882695335895, -41.41565210931003, -87.25934576615691, -73.56009222846478, -0.03200000151991844, 0.19200000911951065, 0.9600000455975533, 0.0, 0.0, 0.0, 0.0, 0.0, 1.7632263157350068E9, 0.0, 2025-11-15 12:05:15.735
56.0, 1945.1593659538776, 59.015621300786734, 11.387995365075767, 12.218253155238926, -0.03200000151991844, 0.19200000911951065, 0.9600000455975533, 0.0, 0.0, 0.0, 0.0, 0.0, 1.7632263157507586E9, 0.0, 2025-11-15 12:05:15.750
56.0, 1714.0335486922413, -145.05575968138874, -161.75441298354417, -135.34697939641774, -0.03200000151991844, 0.19200000911951065, 0.9600000455975533, 0.0, 0.0, 0.0, 0.0, 0.0, 1.7632263157507586E9, 0.0, 2025-11-15 12:05:15.750
57.0, 1770.9735255176201, -104.50402446184307, -143.07361270487309, -114.99444383755326, -0.03200000151991844, 0.19200000911951065, 0.9600000455975533, 0.0, 0.0, 0.0, 0.0, 0.0, 1.7632263157514389E9, 0.0, 2025-11-15 12:05:15.751
57.0, 2015.3311088224873, 104.51524416171014, 41.90183910354972, 35.41311268042773, -0.03200000151991844, 0.19200000911951065, 0.9600000455975533, 0.0, 0.0, 0.0, 0.0, 0.0, 1.7632263157514389E9, 0.0, 2025-11-15 12:05:15.751
58.0, 2241.8961180881597, -94.76158507727087, -109.80346269905567, -92.21845310740173, -0.03200000151991844, 0.19200000911951065, 0.9600000455975533, 0.0, 0.0, 0.0, 0.0, 0.0, 1.7632263157814481E9, 0.0, 2025-11-15 12:05:15.781
58.0, 2221.352847631555, -127.08554039429873, -154.5214464692399, -127.79238148592412, -0.03200000151991844, 0.19200000911951065, 0.9600000455975533, 0.0, 0.0, 0.0, 0.0, 0.0, 1.7632263157814481E9, 0.0, 2025-11-15 12:05:15.781
59.0, 2446.3975875652395, 52.74380907509476, -12.928834146820009, -7.161908415146172, -0.03200000151991844, 0.19200000911951065, 0.9600000455975533, 0.0, 0.0, 0.0, 0.0, 0.0, 1.763226315782091E9, 0.0, 2025-11-15 12:05:15.782
59.0, 2348.2214738284238, -17.32695649471134, -51.54704108927399, -37.08110806066543, -0.03200000151991844, 0.19200000911951065, 0.9600000455975533, 0.0, 0.0, 0.0, 0.0, 0.0, 1.763226315782091E9, 0.0, 2025-11-15 12:05:15.782
60.0, 2174.727514883969, -168.5647708028555, -190.36090774461627, -159.65258920844644, -0.03200000151991844, 0.19200000911951065, 0.9920000471174717, 0.0, 0.0, 0.0, 0.0, 0.0, 1.7632263157828472E9, 0.0, 2025-11-15 12:05:15.782
60.0, 2339.4925473318435, -48.917891420423985, -98.62490173149854, -83.78871860727668, -0.03200000151991844, 0.19200000911951065, 0.9920000471174717, 0.0, 0.0, 0.0, 0.0, 0.0, 1.7632263157828472E9, 0.0, 2025-11-15 12:05:15.782
61.0, 2434.6879608039744, 46.59541354794055, 0.7031011916697025, 8.82616389542818, -0.03200000151991844, 0.19200000911951065, 0.9920000471174717, 0.0, 0.0, 0.0, 0.0, 0.0, 1.7632263157950346E9, 0.0, 2025-11-15 12:05:15.795
61.0, 2679.6869369512424, -163.7477796599269, -187.66069997660816, -152.82353188935667, -0.03200000151991844, 0.19200000911951065, 0.9920000471174717, 0.0, 0.0, 0.0, 0.0, 0.0, 1.7632263157950346E9, 0.0, 2025-11-15 12:05:15.795
62.0, 2753.0712538817897, -109.85208139847964, -157.2253941372037, -120.4995765723288, -0.03200000151991844, 0.19200000911951065, 0.9920000471174717, 0.0, 0.0, 0.0, 0.0, 0.0, 1.7632263158107197E9, 0.0, 2025-11-15 12:05:15.810
62.0, 2975.946851841174, 86.66470167320222, 18.841615976765752, 20.251558260060847, -0.03200000151991844, 0.19200000911951065, 0.9920000471174717, 0.0, 0.0, 0.0, 0.0, 0.0, 1.7632263158107197E9, 0.0, 2025-11-15 12:05:15.810
63.0, 2732.2699303282425, -112.36155426874757, -134.94681010115892, -111.37422068044543, -0.03200000151991844, 0.19200000911951065, 0.9920000471174717, 0.0, 0.0, 0.0, 0.0, 0.0, 1.763226315811428E9, 0.0, 2025-11-15 12:05:15.811
63.0, 2705.6044436441734, -150.67308941483498, -181.28417055215687, -152.73003439046443, -0.03200000151991844, 0.19200000911951065, 0.9920000471174717, 0.0, 0.0, 0.0, 0.0, 0.0, 1.763226315811428E9, 0.0, 2025-11-15 12:05:15.811
64.0, 2925.798533335328, 37.645832953974605, -24.98253170400858, -18.688280078582466, -0.03200000151991844, 0.19200000911951065, 0.9920000471174717, 0.0, 0.0, 0.0, 0.0, 0.0, 1.76322631582508E9, 0.0, 2025-11-15 12:05:15.825
64.0, 2826.190037915483, -32.13696031924337, -67.30323960259557, -44.33651397470385, -0.03200000151991844, 0.19200000911951065, 0.9920000471174717, 0.0, 0.0, 0.0, 0.0, 0.0, 1.76322631582508E9, 0.0, 2025-11-15 12:05:15.825
65.0, 2673.8152940208092, -167.50263921543956, -188.21794507000595, -151.79131950158626, -0.03200000151991844, 0.19200000911951065, 0.9920000471174717, 0.0, 0.0, 0.0, 0.0, 0.0, 1.7632263158407397E9, 0.0, 2025-11-15 12:05:15.840
65.0, 2837.454616582021, -40.77986911684275, -93.62839539069682, -75.74793370254338, -0.03200000151991844, 0.19200000911951065, 0.9920000471174717, 0.0, 0.0, 0.0, 0.0, 0.0, 1.7632263158407397E9, 0.0, 2025-11-15 12:05:15.840
66.0, 2923.9098838577047, 53.9517967607826, 4.944147741422057, 13.228026143275201, -0.03200000151991844, 0.19200000911951065, 0.9920000471174717, 0.0, 0.0, 0.0, 0.0, 0.0, 1.7632263158414161E9, 0.0, 2025-11-15 12:05:15.841
66.0, 2690.472808423452, -149.2893264312297, -171.55295086745173, -140.9605692299083, -0.03200000151991844, 0.19200000911951065, 0.9920000471174717, 0.0, 0.0, 0.0, 0.0, 0.0, 1.7632263158414161E9, 0.0, 2025-11-15 12:05:15.841
67.0, 2747.147252351977, -110.62250078935176, -157.0795380389318, -127.01822219509631, -0.03200000151991844, 0.19200000911951065, 0.9920000471174717, 0.0, 0.0, 0.0, 0.0, 0.0, 1.763226315855029E9, 0.0, 2025-11-15 12:05:15.855
67.0, 2974.2676367610693, 87.90260855853558, 18.781777577474713, 20.16928046103567, -0.03200000151991844, 0.19200000911951065, 0.9920000471174717, 0.0, 0.0, 0.0, 0.0, 0.0, 1.763226315855029E9, 0.0, 2025-11-15 12:05:15.855
68.0, 2740.0003035366535, -108.19156581815332, -131.96610983647406, -110.15501329489052, -0.03200000151991844, 0.19200000911951065, 0.9920000471174717, 0.0, 0.0, 0.0, 0.0, 0.0, 1.763226315870726E9, 0.0, 2025-11-15 12:05:15.870
68.0, 2695.117764168419, -159.02428601589054, -182.33134253975004, -147.27352035511285, -0.03200000151991844, 0.19200000911951065, 0.9920000471174717, 0.0, 0.0, 0.0, 0.0, 0.0, 1.763226315870726E9, 0.0, 2025-11-15 12:05:15.870
69.0, 2926.280980429612, 41.40443240944296, -28.92812615726143, -14.91846092324704, -0.03200000151991844, 0.19200000911951065, 0.9920000471174717, 0.0, 0.0, 0.0, 0.0, 0.0, 1.7632263158714259E9, 0.0, 2025-11-15 12:05:15.871
69.0, 2828.059987893328, -29.107641355134547, -61.6223315699026, -36.62484026607126, -0.03200000151991844, 0.19200000911951065, 0.9920000471174717, 0.0, 0.0, 0.0, 0.0, 0.0, 1.7632263158714259E9, 0.0, 2025-11-15 12:05:15.871
70.0, 2679.002535259351, -159.61893010884523, -182.67167343571782, -148.56378583982587, -0.03200000151991844, 0.19200000911951065, 1.008000047877431, 0.0, 0.0, 0.0, 0.0, 0.0, 1.7632263158850513E9, 0.0, 2025-11-15 12:05:15.885
70.0, 2836.179310697131, -43.04624848999083, -95.90599446371198, -77.71138117928058, -0.03200000151991844, 0.19200000911951065, 1.008000047877431, 0.0, 0.0, 0.0, 0.0, 0.0, 1.7632263158850513E9, 0.0, 2025-11-15 12:05:15.885
71.0, 2912.6340854912996, 50.462470102123916, 4.615036545321345, 16.623855303041637, -0.03200000151991844, 0.19200000911951065, 1.008000047877431, 0.0, 0.0, 0.0, 0.0, 0.0, 1.7632263159007015E9, 0.0, 2025-11-15 12:05:15.900
71.0, 2691.935109306127, -152.22888779640198, -164.60795664973557, -128.08783358242363, -0.03200000151991844, 0.19200000911951065, 1.008000047877431, 0.0, 0.0, 0.0, 0.0, 0.0, 1.7632263159007015E9, 0.0, 2025-11-15 12:05:15.900
72.0, 2751.96050359495, -108.9769448088482, -148.42166964150965, -116.58016141876578, -0.03200000151991844, 0.19200000911951065, 1.008000047877431, 0.0, 0.0, 0.0, 0.0, 0.0, 1.7632263159014106E9, 0.0, 2025-11-15 12:05:15.901
72.0, 2972.2256513852626, 88.64684864971787, 21.77369754202664, 31.613374325446784, -0.03200000151991844, 0.19200000911951065, 1.008000047877431, 0.0, 0.0, 0.0, 0.0, 0.0, 1.7632263159014106E9, 0.0, 2025-11-15 12:05:15.901
73.0, 2743.0520619004965, -101.23909180052578, -119.02231608983129, -96.53803755622357, -0.03200000151991844, 0.19200000911951065, 1.008000047877431, 0.0, 0.0, 0.0, 0.0, 0.0, 1.7632263159150507E9, 0.0, 2025-11-15 12:05:15.915
73.0, 2710.7804651828483, -147.56523255165666, -176.3811617102474, -142.00026141759008, -0.03200000151991844, 0.19200000911951065, 1.008000047877431, 0.0, 0.0, 0.0, 0.0, 0.0, 1.7632263159150507E9, 0.0, 2025-11-15 12:05:15.915
74.0, 2929.961041986011, 47.19379754085094, -15.756198513321579, -7.0235321167856455, -0.03200000151991844, 0.19200000911951065, 1.008000047877431, 0.0, 0.0, 0.0, 0.0, 0.0, 1.7632263159307468E9, 0.0, 2025-11-15 12:05:15.930
74.0, 2832.1102995453402, -25.487418198026717, -56.199476634152234, -39.601800630800426, -0.03200000151991844, 0.19200000911951065, 1.008000047877431, 0.0, 0.0, 0.0, 0.0, 0.0, 1.7632263159307468E9, 0.0, 2025-11-15 12:05:15.930
75.0, 2691.886490606703, -150.27292011957616, -168.09728330839425, -138.6231317576021, -0.03200000151991844, 0.19200000911951065, 1.008000047877431, 0.0, 0.0, 0.0, 0.0, 0.0, 1.76322631593142E9, 0.0, 2025-11-15 12:05:15.931
75.0, 2833.729676226154, -44.69180447049439, -90.10166973248124, -80.4452480468899, -0.03200000151991844, 0.19200000911951065, 1.008000047877431, 0.0, 0.0, 0.0, 0.0, 0.0, 1.76322631593142E9, 0.0, 2025-11-15 12:05:15.931
76.0, 2927.8218192113563, 56.45378983113915, 12.809157348237932, 18.617221979424357, -0.03200000151991844, 0.19200000911951065, 1.008000047877431, 0.0, 0.0, 0.0, 0.0, 0.0, 1.763226315945045E9, 0.0, 2025-11-15 12:05:15.945
76.0, 2695.4019965650514, -145.0669793812558, -160.31455150060356, -126.9883029954508, -0.03200000151991844, 0.19200000911951065, 1.008000047877431, 0.0, 0.0, 0.0, 0.0, 0.0, 1.763226315945045E9, 0.0, 2025-11-15 12:05:15.945
77.0, 2765.768214231357, -107.63806062471122, -143.38028450123966, -121.08674086537212, -0.03200000151991844, 0.19200000911951065, 1.008000047877431, 0.0, 0.0, 0.0, 0.0, 0.0, 1.763226315960704E9, 0.0, 2025-11-15 12:05:15.960
77.0, 2973.284043072723, 87.25934576615691, 25.270504000596702, 30.96637163311243, -0.03200000151991844, 0.19200000911951065, 1.008000047877431, 0.0, 0.0, 0.0, 0.0, 0.0, 1.763226315960704E9, 0.0, 2025-11-15 12:05:15.960
78.0, 2733.2834432162344, -109.34345500450581, -129.83062696177512, -99.05873012635857, -0.03200000151991844, 0.19200000911951065, 1.008000047877431, 0.0, 0.0, 0.0, 0.0, 0.0, 1.7632263159614155E9, 0.0, 2025-11-15 12:05:15.961
78.0, 2699.3550708182156, -154.98145416378975, -175.0796765256673, -142.1835165154189, -0.03200000151991844, 0.19200000911951065, 1.008000047877431, 0.0, 0.0, 0.0, 0.0, 0.0, 1.7632263159614155E9, 0.0, 2025-11-15 12:05:15.961
79.0, 2925.162750342861, 37.249403558671474, -28.61023466102779, -20.277737559750676, -0.03200000151991844, 0.19200000911951065, 1.008000047877431, 0.0, 0.0, 0.0, 0.0, 0.0, 1.7632263159750347E9, 0.0, 2025-11-15 12:05:15.975
79.0, 2843.255201413296, -18.792997277341783, -49.662131511606276, -35.05782218463719, -0.03200000151991844, 0.19200000911951065, 1.008000047877431, 0.0, 0.0, 0.0, 0.0, 0.0, 1.7632263159750347E9, 0.0, 2025-11-15 12:05:15.975
80.0, 2688.928229741752, -159.2187608135864, -181.5684029487893, -145.89349727146327, -0.03200000151991844, 0.19200000911951065, 1.008000047877431, 0.0, 0.0, 0.0, 0.0, 0.0, 1.7632263159906828E9, 0.0, 2025-11-15 12:05:15.990
80.0, 2825.5093761235476, -45.58190065994859, -92.45406680461019, -69.78653317317367, -0.03200000151991844, 0.19200000911951065, 1.008000047877431, 0.0, 0.0, 0.0, 0.0, 0.0, 1.7632263159906828E9, 0.0, 2025-11-15 12:05:15.990
81.0, 2940.3654436627403, 63.89993064291775, 19.36520197056234, 22.667533631436527, -0.03200000151991844, 0.19200000911951065, 1.008000047877431, 0.0, 0.0, 0.0, 0.0, 0.0, 1.763226315991407E9, 0.0, 2025-11-15 12:05:15.991
81.0, 3183.9282982270233, -150.75910711381584, -163.8599766585976, -136.85041917860508, -0.03200000151991844, 0.19200000911951065, 1.008000047877431, 0.0, 0.0, 0.0, 0.0, 0.0, 1.763226315991407E9, 0.0, 2025-11-15 12:05:15.991
82.0, 3258.105473948177, -105.55493634939194, -141.79082702007145, -115.73868392873555, -0.03200000151991844, 0.19200000911951065, 1.008000047877431, 0.0, 0.0, 0.0, 0.0, 0.0, 1.763226316005064E9, 0.0, 2025-11-15 12:05:16.005
82.0, 3458.1340230782516, 84.72369359619915, 24.52252400945872, 24.716998807154596, -0.03200000151991844, 0.19200000911951065, 1.008000047877431, 0.0, 0.0, 0.0, 0.0, 0.0, 1.763226316005064E9, 0.0, 2025-11-15 12:05:16.005
83.0, 3233.75498533668, -102.10300869029015, -123.18856464046985, -103.69620607141405, -0.03200000151991844, 0.19200000911951065, 1.008000047877431, 0.0, 0.0, 0.0, 0.0, 0.0, 1.7632263160207517E9, 0.0, 2025-11-15 12:05:16.020
83.0, 3191.841926533263, -149.48380122892559, -173.5612771436572, -144.4723352883011, -0.03200000151991844, 0.19200000911951065, 1.008000047877431, 0.0, 0.0, 0.0, 0.0, 0.0, 1.7632263160207517E9, 0.0, 2025-11-15 12:05:16.020
84.0, 3429.2844348200597, 46.72257014643401, -19.103408973664045, -12.89891494717449, -0.03200000151991844, 0.19200000911951065, 1.008000047877431, 0.0, 0.0, 0.0, 0.0, 0.0, 1.763226316021418E9, 0.0, 2025-11-15 12:05:16.021
84.0, 3329.2533307052217, -19.567156568169594, -49.63221231196076, -36.10125427227467, -0.03200000151991844, 0.19200000911951065, 1.008000047877431, 0.0, 0.0, 0.0, 0.0, 0.0, 1.763226316021418E9, 0.0, 2025-11-15 12:05:16.021
85.0, 3181.7890754523687, -152.20644839666784, -174.03624443802983, -148.61614443920553, -0.03200000151991844, 0.19200000911951065, 1.008000047877431, 0.0, 0.0, 0.0, 0.0, 0.0, 1.7632263160350533E9, 0.0, 2025-11-15 12:05:16.035
85.0, 3330.674492688384, -36.60614076629281, -86.45526727568358, -74.33799141924828, -0.03200000151991844, 0.19200000911951065, 1.008000047877431, 0.0, 0.0, 0.0, 0.0, 0.0, 1.7632263160350533E9, 0.0, 2025-11-15 12:05:16.035
86.0, 3419.0445887413807, 64.59929193463176, 15.68514041416347, 16.272304707206786, -0.03200000151991844, 0.19200000911951065, 1.008000047877431, 0.0, 0.0, 0.0, 0.0, 0.0, 1.7632263160506926E9, 0.0, 2025-11-15 12:05:16.050
86.0, 3188.8724459684454, -143.60841839853674, -160.8568369941786, -135.5040551945567, -0.03200000151991844, 0.19200000911951065, 1.008000047877431, 0.0, 0.0, 0.0, 0.0, 0.0, 1.7632263160506926E9, 0.0, 2025-11-15 12:05:16.050
87.0, 3238.2241657837294, -113.6854788530618, -150.6656096149236, -124.96127721946687, -0.03200000151991844, 0.19200000911951065, 1.008000047877431, 0.0, 0.0, 0.0, 0.0, 0.0, 1.7632263160514007E9, 0.0, 2025-11-15 12:05:16.051
87.0, 3457.04197229119, 78.08537117484957, 17.921600587666035, 23.969018816016614, -0.03200000151991844, 0.19200000911951065, 1.008000047877431, 0.0, 0.0, 0.0, 0.0, 0.0, 1.7632263160514007E9, 0.0, 2025-11-15 12:05:16.051
88.0, 3242.532530532684, -91.58267011493444, -113.81637535151094, -88.31399755366147, -0.03200000151991844, 0.19200000911951065, 1.008000047877431, 0.0, 0.0, 0.0, 0.0, 0.0, 1.7632263160650787E9, 0.0, 2025-11-15 12:05:16.065
88.0, 3204.0078210891224, -147.78962654899806, -173.84550954028964, -148.32069234270602, -0.03200000151991844, 0.19200000911951065, 1.008000047877431, 0.0, 0.0, 0.0, 0.0, 0.0, 1.7632263160650787E9, 0.0, 2025-11-15 12:05:16.065
89.0, 3390.7634652764536, 22.50297803338617, -36.61362056620419, -30.11367444321513, -0.03200000151991844, 0.19200000911951065, 1.008000047877431, 0.0, 0.0, 0.0, 0.0, 0.0, 1.7632263160806932E9, 0.0, 2025-11-15 12:05:16.080
89.0, 3330.4014799916185, -17.28207769524306, -48.17739122919738, -36.075074972584844, -0.03200000151991844, 0.19200000911951065, 1.008000047877431, 0.0, 0.0, 0.0, 0.0, 0.0, 1.7632263160806932E9, 0.0, 2025-11-15 12:05:16.080
90.0, 3186.018902302254, -149.11355113331228, -171.8558827638626, -146.1440705684945, -0.03200000151991844, 0.19200000911951065, 1.0240000486373901, 0.0, 0.0, 0.0, 0.0, 0.0, 1.7632263160814135E9, 0.0, 2025-11-15 12:05:16.081
90.0, 3328.093961718958, -38.64438624214381, -83.39976901188493, -68.24195449147373, -0.03200000151991844, 0.19200000911951065, 1.0240000486373901, 0.0, 0.0, 0.0, 0.0, 0.0, 1.7632263160814135E9, 0.0, 2025-11-15 12:05:16.081
91.0, 3415.869413679, 55.94890333712101, 5.65098883304745, 12.311750654131174, -0.03200000151991844, 0.19200000911951065, 1.0240000486373901, 0.0, 0.0, 0.0, 0.0, 0.0, 1.7632263160950975E9, 0.0, 2025-11-15 12:05:16.095
91.0, 3205.8179326676764, -127.21269699279219, -152.5579989925027, -133.34613292012364, -0.03200000151991844, 0.19200000911951065, 1.0240000486373901, 0.0, 0.0, 0.0, 0.0, 0.0, 1.7632263160950975E9, 0.0, 2025-11-15 12:05:16.095
92.0, 3230.3965551764704, -116.7970756161958, -148.93777583539486, -130.94511714857072, -0.03200000151991844, 0.19200000911951065, 1.0240000486373901, 0.0, 0.0, 0.0, 0.0, 0.0, 1.763226316110702E9, 0.0, 2025-11-15 12:05:16.110
92.0, 3437.8001870191656, 64.89100413117558, 8.930881094187498, 13.6730742380023, -0.03200000151991844, 0.19200000911951065, 1.0240000486373901, 0.0, 0.0, 0.0, 0.0, 0.0, 1.763226316110702E9, 0.0, 2025-11-15 12:05:16.110
93.0, 3264.3922457736917, -70.64671016298234, -97.03170435037464, -82.64804912079126, -0.03200000151991844, 0.19200000911951065, 1.0240000486373901, 0.0, 0.0, 0.0, 0.0, 0.0, 1.7632263161114113E9, 0.0, 2025-11-15 12:05:16.111
93.0, 3224.29677834874, -121.71504405792803, -149.6259174272418, -130.44397055450827, -0.03200000151991844, 0.19200000911951065, 1.0240000486373901, 0.0, 0.0, 0.0, 0.0, 0.0, 1.7632263161114113E9, 0.0, 2025-11-15 12:05:16.111
94.0, 3386.4139616279863, 13.482339340262115, -39.42976523283869, -27.76501727104187, -0.03200000151991844, 0.19200000911951065, 1.0240000486373901, 0.0, 0.0, 0.0, 0.0, 0.0, 1.763226316125017E9, 0.0, 2025-11-15 12:05:16.125
94.0, 3317.6633807425387, -24.395367410965264, -55.731989139690995, -42.35810689814389, -0.03200000151991844, 0.19200000911951065, 1.0240000486373901, 0.0, 0.0, 0.0, 0.0, 0.0, 1.763226316125017E9, 0.0, 2025-11-15 12:05:16.125
95.0, 3195.7837810865603, -142.16855691559613, -169.0098188975826, -147.83824524842203, -0.03200000151991844, 0.19200000911951065, 1.0240000486373901, 0.0, 0.0, 0.0, 0.0, 0.0, 1.7632263161407545E9, 0.0, 2025-11-15 12:05:16.140
95.0, 3311.664581213612, -54.00041546020657, -99.44767972175032, -79.30831846036017, -0.03200000151991844, 0.19200000911951065, 1.0240000486373901, 0.0, 0.0, 0.0, 0.0, 0.0, 1.7632263161407545E9, 0.0, 2025-11-15 12:05:16.140
96.0, 3404.7207719110884, 40.035629025660455, -11.328156965784729, 3.4781069587916136, -0.03200000151991844, 0.19200000911951065, 1.0240000486373901, 0.0, 0.0, 0.0, 0.0, 0.0, 1.7632263161414692E9, 0.0, 2025-11-15 12:05:16.141
96.0, 3208.1553701399826, -129.16118486970663, -152.68515559099615, -127.85595978517085, -0.03200000151991844, 0.19200000911951065, 1.0240000486373901, 0.0, 0.0, 0.0, 0.0, 0.0, 1.7632263161414692E9, 0.0, 2025-11-15 12:05:16.141
97.0, 3252.9855509088375, -93.76303178910166, -133.00206212420017, -112.17455927096307, -0.03200000151991844, 0.19200000911951065, 1.0240000486373901, 0.0, 0.0, 0.0, 0.0, 0.0, 1.763226316155046E9, 0.0, 2025-11-15 12:05:16.155
97.0, 3430.114692610223, 58.62293180543929, 0.6544824922457337, 8.736406296491623, -0.03200000151991844, 0.19200000911951065, 1.0240000486373901, 0.0, 0.0, 0.0, 0.0, 0.0, 1.763226316155046E9, 0.0, 2025-11-15 12:05:16.155
98.0, 3264.3361472743563, -76.48469399381429, -103.58400907274336, -87.09105026815087, -0.03200000151991844, 0.19200000911951065, 1.0240000486373901, 0.0, 0.0, 0.0, 0.0, 0.0, 1.7632263161708713E9, 0.0, 2025-11-15 12:05:16.170
98.0, 3207.1530769518577, -133.16661772225052, -161.02513249218464, -129.99892245978117, -0.03200000151991844, 0.19200000911951065, 1.0240000486373901, 0.0, 0.0, 0.0, 0.0, 0.0, 1.7632263161708713E9, 0.0, 2025-11-15 12:05:16.170
99.0, 3397.394307897892, 22.301023435778916, -30.296929541043937, -20.030904162675142, -0.03200000151991844, 0.19200000911951065, 1.0240000486373901, 0.0, 0.0, 0.0, 0.0, 0.0, 1.7632263161714647E9, 0.0, 2025-11-15 12:05:16.171
99.0, 3339.246343386825, -14.574390127323568, -50.522308501414955, -36.34060786943883, -0.03200000151991844, 0.19200000911951065, 1.0240000486373901, 0.0, 0.0, 0.0, 0.0, 0.0, 1.7632263161714647E9, 0.0, 2025-11-15 12:05:16.171
100.0, 3196.4420034787618, -136.15479778684676, -161.64969578478485, -136.45024988334626, -0.03200000151991844, 0.19200000911951065, 1.0240000486373901, 0.0, 0.0, 0.0, 0.0, 0.0, 1.7632263161857429E9, 0.0, 2025-11-15 12:05:16.185
100.0, 3310.546351126861, -50.72426309902221, -95.01589827425778, -75.5160599052906, -0.03200000151991844, 0.19200000911951065, 1.0240000486373901, 0.0, 0.0, 0.0, 0.0, 0.0, 1.7632263161857429E9, 0.0, 2025-11-15 12:05:16.185
0.0, -11.004655619617552, 53.97797606047243, 8.197860702872276, 18.454536331351846, -0.03200000151991844, 0.19200000911951065, 1.0240000486373901, 0.0, 0.0, 0.0, 0.0, 0.0, 1.7632263161864488E9, 0.0, 2025-11-15 12:05:16.186
1.0, -213.9391070152633, -118.86524029169232, -145.4447092767805, -119.24110023723915, -0.03200000151991844, 0.19200000911951065, 1.0240000486373901, 0.0, 0.0, 0.0, 0.0, 0.0, 1.76322631621645E9, 0.0, 2025-11-15 12:05:16.216
1.0, -184.71178886154667, -107.20797212980688, -143.93378969468176, -115.22818758478388, -0.03200000151991844, 0.19200000911951065, 1.0240000486373901, 0.0, 0.0, 0.0, 0.0, 0.0, 1.76322631621645E9, 0.0, 2025-11-15 12:05:16.216
2.0, 9.564794136676937, 68.64212378673255, 9.076737192459404, 29.95472869509831, -0.03200000151991844, 0.19200000911951065, 1.0240000486373901, 0.0, 0.0, 0.0, 0.0, 0.0, 1.7632263162171204E9, 0.0, 2025-11-15 12:05:16.217
2.0, -180.4370832121931, -85.64370898529887, -111.06006908416748, -84.81158124515787, -0.03200000151991844, 0.19200000911951065, 1.0240000486373901, 0.0, 0.0, 0.0, 0.0, 0.0, 1.7632263162171204E9, 0.0, 2025-11-15 12:05:16.217
3.0, -231.37078070873395, -137.26180817373097, -161.6272563850507, -131.6014695907943, -0.03200000151991844, 0.19200000911951065, 1.0240000486373901, 0.0, 0.0, 0.0, 0.0, 0.0, 1.763226316217863E9, 0.0, 2025-11-15 12:05:16.217
3.0, -39.865463577676564, 28.61023466102779, -30.719538236036897, -15.402777967508882, -0.03200000151991844, 0.19200000911951065, 1.0240000486373901, 0.0, 0.0, 0.0, 0.0, 0.0, 1.763226316217863E9, 0.0, 2025-11-15 12:05:16.217
4.0, -98.72774898028001, -10.299684477970004, -41.32215461041778, -25.11903805239126, -0.03200000151991844, 0.19200000911951065, 1.0240000486373901, 0.0, 0.0, 0.0, 0.0, 0.0, 1.7632263162300866E9, 0.0, 2025-11-15 12:05:16.230
4.0, -242.1005536816083, -144.96600208245218, -166.13009593170136, -136.22024603607133, -0.03200000151991844, 0.19200000911951065, 1.0240000486373901, 0.0, 0.0, 0.0, 0.0, 0.0, 1.7632263162300866E9, 0.0, 2025-11-15 12:05:16.230
5.0, -114.53630609298125, -41.666225406341255, -85.87932268250734, -65.30426307627931, -0.03200000151991844, 0.19200000911951065, 1.0240000486373901, 0.0, 0.0, 0.0, 0.0, 0.0, 1.7632263162457936E9, 0.0, 2025-11-15 12:05:16.245
5.0, -13.626325488556176, 54.972789448685944, 11.212220067158341, 24.76000765664503, -0.03200000151991844, 0.19200000911951065, 1.0240000486373901, 0.0, 0.0, 0.0, 0.0, 0.0, 1.7632263162457936E9, 0.0, 2025-11-15 12:05:16.245
6.0, -229.08196193585172, -130.0288416594267, -145.46340877655894, -119.71232763165608, -0.03200000151991844, 0.19200000911951065, 1.0240000486373901, 0.0, 0.0, 0.0, 0.0, 0.0, 1.763226316246473E9, 0.0, 2025-11-15 12:05:16.246
6.0, -186.27880694298074, -103.69994597136974, -140.35470543708652, -107.31081937858835, -0.03200000151991844, 0.19200000911951065, 1.0240000486373901, 0.0, 0.0, 0.0, 0.0, 0.0, 1.763226316246473E9, 0.0, 2025-11-15 12:05:16.246
7.0, 31.17393608065322, 86.82551737129688, 27.592981873080134, 42.89478254178539, -0.03200000151991844, 0.19200000911951065, 1.0240000486373901, 0.0, 0.0, 0.0, 0.0, 0.0, 1.7632263162764423E9, 0.0, 2025-11-15 12:05:16.276
7.0, -158.45769117260352, -67.29575980268419, -82.83130421862006, -55.76003838935867, -0.03200000151991844, 0.19200000911951065, 1.0240000486373901, 0.0, 0.0, 0.0, 0.0, 0.0, 1.7632263162764423E9, 0.0, 2025-11-15 12:05:16.276
8.0, -215.44254679745063, -127.75124258641154, -145.74016137328, -115.01127338735387, -0.03200000151991844, 0.19200000911951065, 1.0240000486373901, 0.0, 0.0, 0.0, 0.0, 0.0, 1.76322631627723E9, 0.0, 2025-11-15 12:05:16.277
8.0, -6.0156290787272155, 58.62293180543929, 3.7324201557785273, 6.797268169466406, -0.03200000151991844, 0.19200000911951065, 1.0240000486373901, 0.0, 0.0, 0.0, 0.0, 0.0, 1.76322631627723E9, 0.0, 2025-11-15 12:05:16.277
9.0, -72.25673709390685, 28.90942665748298, -1.2266871854662895, 10.582046924624592, -0.03200000151991844, 0.19200000911951065, 1.0240000486373901, 0.0, 0.0, 0.0, 0.0, 0.0, 1.7632263162779036E9, 0.0, 2025-11-15 12:05:16.277
9.0, -238.02780262986198, -132.55701402947307, -159.6638089083135, -129.10321642039344, -0.03200000151991844, 0.19200000911951065, 1.0240000486373901, 0.0, 0.0, 0.0, 0.0, 0.0, 1.7632263162779036E9, 0.0, 2025-11-15 12:05:16.277
10.0, -102.98375512985513, -26.818822582252324, -75.35898410715163, -60.46857243357226, -0.03200000151991844, 0.19200000911951065, 1.0240000486373901, 0.0, 0.0, 0.0, 0.0, 0.0, 1.7632263162900949E9, 0.0, 2025-11-15 12:05:16.290
10.0, 10.406271626707166, 85.13508259132504, 37.32420155778527, 38.93048858875409, -0.03200000151991844, 0.19200000911951065, 1.0240000486373901, 0.0, 0.0, 0.0, 0.0, 0.0, 1.7632263162900949E9, 0.0, 2025-11-15 12:05:16.290
11.0, -220.08002274250612, -118.34913409780711, -132.04464773554355, -110.93478243565187, -0.03200000151991844, 0.19200000911951065, 1.0240000486373901, 0.0, 0.0, 0.0, 0.0, 0.0, 1.7632263163057432E9, 0.0, 2025-11-15 12:05:16.305
11.0, -187.8084260248579, -103.77100407052785, -139.6927431449294, -111.17039613286033, -0.03200000151991844, 0.19200000911951065, 1.0240000486373901, 0.0, 0.0, 0.0, 0.0, 0.0, 1.7632263163057432E9, 0.0, 2025-11-15 12:05:16.305
12.0, -427.18259263876826, 119.50850308407098, 53.89195836149156, 51.85558283561841, -0.03200000151991844, 0.19200000911951065, 1.0240000486373901, 0.0, 0.0, 0.0, 0.0, 0.0, 1.7632263163064444E9, 0.0, 2025-11-15 12:05:16.306
12.0, -669.1915187714621, -75.8900499008596, -100.71924570668489, -77.49259703187272, -0.03200000151991844, 0.19200000911951065, 1.0240000486373901, 0.0, 0.0, 0.0, 0.0, 0.0, 1.7632263163064444E9, 0.0, 2025-11-15 12:05:16.306
13.0, -717.4212686000392, -137.65075776912272, -167.4465407161042, -139.24208520026878, -0.03200000151991844, 0.19200000911951065, 1.0240000486373901, 0.0, 0.0, 0.0, 0.0, 0.0, 1.7632263163200333E9, 0.0, 2025-11-15 12:05:16.320
13.0, -501.06805616337806, 40.35726042184979, -25.880107693374157, -22.957375878002495, -0.03200000151991844, 0.19200000911951065, 1.0240000486373901, 0.0, 0.0, 0.0, 0.0, 0.0, 1.7632263163200333E9, 0.0, 2025-11-15 12:05:16.320
14.0, -574.9236004883423, -4.536498646251857, -38.34519424568862, -28.518607112113386, -0.03200000151991844, 0.19200000911951065, 1.0240000486373901, 0.0, 0.0, 0.0, 0.0, 0.0, 1.763226316335713E9, 0.0, 2025-11-15 12:05:16.335
14.0, -721.7221535490826, -149.30054613109678, -177.03564420249313, -148.36744109215215, -0.03200000151991844, 0.19200000911951065, 1.0240000486373901, 0.0, 0.0, 0.0, 0.0, 0.0, 1.763226316335713E9, 0.0, 2025-11-15 12:05:16.335
15.0, -599.3638466987759, -43.75682948157191, -96.77365125343204, -78.15081942407414, -0.03200000151991844, 0.19200000911951065, 1.0240000486373901, 0.0, 0.0, 0.0, 0.0, 0.0, 1.763226316336404E9, 0.0, 2025-11-15 12:05:16.336
15.0, -479.8478638147935, 72.01551354676485, 20.760184654034674, 21.771827592048794, -0.03200000151991844, 0.19200000911951065, 1.0240000486373901, 0.0, 0.0, 0.0, 0.0, 0.0, 1.763226316336404E9, 0.0, 2025-11-15 12:05:16.336
16.0, -259.0310807810165, -170.68155417777598, -183.75998432282358, -159.86015365598723, -0.03200000151991844, 0.19200000911951065, 1.0240000486373901, 0.0, 0.0, 0.0, 0.0, 0.0, 1.7632263163500457E9, 0.0, 2025-11-15 12:05:16.350
16.0, -202.91762184584513, -126.60683319997042, -163.50094626285136, -142.21904556499794, -0.03200000151991844, 0.19200000911951065, 1.0240000486373901, 0.0, 0.0, 0.0, 0.0, 0.0, 1.7632263163500457E9, 0.0, 2025-11-15 12:05:16.350
17.0, 34.68944203900173, 81.76169283129275, 15.920754111371934, 11.199130417313427, -0.03200000151991844, 0.19200000911951065, 1.0240000486373901, 0.0, 0.0, 0.0, 0.0, 0.0, 1.7632263163658085E9, 0.0, 2025-11-15 12:05:16.365
17.0, -180.60163881024346, -96.61283555533737, -117.51139650773257, -87.45195061387494, -0.03200000151991844, 0.19200000911951065, 1.0240000486373901, 0.0, 0.0, 0.0, 0.0, 0.0, 1.7632263163658085E9, 0.0, 2025-11-15 12:05:16.365
18.0, -253.29781414894387, -174.03250453807414, -203.70487078651786, -165.66821828717366, -0.03200000151991844, 0.19200000911951065, 1.0240000486373901, 0.0, 0.0, 0.0, 0.0, 0.0, 1.7632263163664904E9, 0.0, 2025-11-15 12:05:16.366
18.0, -18.813566727098078, 24.399107310920954, -44.463670573197305, -33.855444348882884, -0.03200000151991844, 0.19200000911951065, 1.0240000486373901, 0.0, 0.0, 0.0, 0.0, 0.0, 1.7632263163664904E9, 0.0, 2025-11-15 12:05:16.366
19.0, -97.98724878905341, -30.712058436125517, -59.66636389307678, -36.073205022607, -0.03200000151991844, 0.19200000911951065, 1.0240000486373901, 0.0, 0.0, 0.0, 0.0, 0.0, 1.763226316380072E9, 0.0, 2025-11-15 12:05:16.380
19.0, -268.4032700699754, -177.81354339327663, -196.15401277597994, -153.82021522754803, -0.03200000151991844, 0.19200000911951065, 1.0240000486373901, 0.0, 0.0, 0.0, 0.0, 0.0, 1.763226316380072E9, 0.0, 2025-11-15 12:05:16.380
20.0, -114.64102329174057, -53.97049626056105, -105.34924185182899, -79.47474400838837, -0.03200000151991844, 0.19200000911951065, 1.0240000486373901, 0.0, 0.0, 0.0, 0.0, 0.0, 1.7632263163957803E9, 0.0, 2025-11-15 12:05:16.395
20.0, -8.491442849393934, 51.84997298568487, 1.8250711783766747, 15.836606362368912, -0.03200000151991844, 0.19200000911951065, 1.0240000486373901, 0.0, 0.0, 0.0, 0.0, 0.0, 1.7632263163957803E9, 0.0, 2025-11-15 12:05:16.395
21.0, 234.65254291985184, -158.403462623246, -171.68384736590087, -134.0436242618598, -0.03200000151991844, 0.19200000911951065, 1.0240000486373901, 0.0, 0.0, 0.0, 0.0, 0.0, 1.7632263163964725E9, 0.0, 2025-11-15 12:05:16.396
21.0, 291.6897571440786, -124.69574432261288, -156.847664241679, -122.92116179363802, -0.03200000151991844, 0.19200000911951065, 1.0240000486373901, 0.0, 0.0, 0.0, 0.0, 0.0, 1.7632263163964725E9, 0.0, 2025-11-15 12:05:16.396
22.0, 515.6948048900813, 74.9962138114497, 7.846310107037425, 15.137245070654899, -0.03200000151991844, 0.19200000911951065, 1.0240000486373901, 0.0, 0.0, 0.0, 0.0, 0.0, 1.7632263164101343E9, 0.0, 2025-11-15 12:05:16.410
22.0, 289.7001303676516, -112.62708716560155, -135.26844149734825, -104.82004600809887, -0.03200000151991844, 0.19200000911951065, 1.0240000486373901, 0.0, 0.0, 0.0, 0.0, 0.0, 1.7632263164101343E9, 0.0, 2025-11-15 12:05:16.410
23.0, 229.6635163789615, -172.2298727594316, -199.04495544172823, -157.51897628372535, -0.03200000151991844, 0.19200000911951065, 1.0240000486373901, 0.0, 0.0, 0.0, 0.0, 0.0, 1.7632263164257624E9, 0.0, 2025-11-15 12:05:16.425
23.0, 470.72624782286584, 28.52795686200261, -36.52012306731194, -20.904170802328736, -0.03200000151991844, 0.19200000911951065, 1.0240000486373901, 0.0, 0.0, 0.0, 0.0, 0.0, 1.7632263164257624E9, 0.0, 2025-11-15 12:05:16.425
24.0, 391.13369696587324, -19.35398227069527, -53.383331967517734, -32.617537463549525, -0.03200000151991844, 0.19200000911951065, 1.0240000486373901, 0.0, 0.0, 0.0, 0.0, 0.0, 1.763226316426463E9, 0.0, 2025-11-15 12:05:16.426
24.0, 230.6321504674852, -167.19970731902868, -185.76831059902906, -140.7492648824118, -0.03200000151991844, 0.19200000911951065, 1.0240000486373901, 0.0, 0.0, 0.0, 0.0, 0.0, 1.763226316426463E9, 0.0, 2025-11-15 12:05:16.426
25.0, 362.8750129006803, -59.389611296355724, -106.80780283454806, -82.44048467325047, -0.03200000151991844, 0.19200000911951065, 1.0240000486373901, 0.0, 0.0, 0.0, 0.0, 0.0, 1.7632263164400415E9, 0.0, 2025-11-15 12:05:16.440
25.0, 486.98733283020556, 60.72849548049271, 13.826410136185586, 23.780153868254274, -0.03200000151991844, 0.19200000911951065, 1.0240000486373901, 0.0, 0.0, 0.0, 0.0, 0.0, 1.7632263164400415E9, 0.0, 2025-11-15 12:05:16.440
26.0, 720.2804221161641, -159.57779120933264, -175.00113862659782, -135.31519024679437, -0.03200000151991844, 0.19200000911951065, 1.0240000486373901, 0.0, 0.0, 0.0, 0.0, 0.0, 1.7632263164557738E9, 0.0, 2025-11-15 12:05:16.455
26.0, 774.8605220695026, -132.3625392317772, -165.91692163422704, -135.11323564918712, -0.03200000151991844, 0.19200000911951065, 1.0240000486373901, 0.0, 0.0, 0.0, 0.0, 0.0, 1.7632263164557738E9, 0.0, 2025-11-15 12:05:16.455
27.0, 1019.2667240737937, 85.5202922867611, 21.575482844375074, 27.000207730103284, -0.03200000151991844, 0.19200000911951065, 1.0240000486373901, 0.0, 0.0, 0.0, 0.0, 0.0, 1.7632263164564564E9, 0.0, 2025-11-15 12:05:16.456
27.0, 1253.7528414456174, -121.96561735495925, -142.85295860748738, -112.99172741128132, -0.03200000151991844, 0.19200000911951065, 1.0240000486373901, 0.0, 0.0, 0.0, 0.0, 0.0, 1.7632263164564564E9, 0.0, 2025-11-15 12:05:16.456
28.0, 1219.8656079471111, -166.5975834261626, -192.58614821825176, -156.6513194940053, -0.03200000151991844, 0.19200000911951065, 1.0240000486373901, 0.0, 0.0, 0.0, 0.0, 0.0, 1.7632263164700463E9, 0.0, 2025-11-15 12:05:16.470
28.0, 1441.0358115267009, 19.009911474771798, -44.40757207386196, -29.55829929979518, -0.03200000151991844, 0.19200000911951065, 1.0240000486373901, 0.0, 0.0, 0.0, 0.0, 0.0, 1.7632263164700463E9, 0.0, 2025-11-15 12:05:16.470
29.0, 1367.1765273017809, -26.9011003812775, -63.08837235253304, -44.58147742180154, -0.03200000151991844, 0.19200000911951065, 1.0240000486373901, 0.0, 0.0, 0.0, 0.0, 0.0, 1.7632263164857657E9, 0.0, 2025-11-15 12:05:16.485
29.0, 1202.3591362545267, -174.9674795269966, -203.82454758509994, -162.6501190229319, -0.03200000151991844, 0.19200000911951065, 1.0240000486373901, 0.0, 0.0, 0.0, 0.0, 0.0, 1.7632263164857657E9, 0.0, 2025-11-15 12:05:16.485
30.0, 1336.8870775606483, -67.9577220948413, -119.94233147893101, -96.3229933087714, -0.03200000151991844, 0.19200000911951065, 1.0240000486373901, 0.0, 0.0, 0.0, 0.0, 0.0, 1.7632263164864624E9, 0.0, 2025-11-15 12:05:16.486
30.0, 1453.7552112760022, 49.93514420837164, 0.45252789463847876, 15.46261636679992, -0.03200000151991844, 0.19200000911951065, 1.0240000486373901, 0.0, 0.0, 0.0, 0.0, 0.0, 1.7632263164864624E9, 0.0, 2025-11-15 12:05:16.486
31.0, 1698.4886545264162, -167.16604821942747, -185.9814848965034, -151.22846455825493, -0.03200000151991844, 0.19200000911951065, 1.0240000486373901, 0.0, 0.0, 0.0, 0.0, 0.0, 1.763226316500033E9, 0.0, 2025-11-15 12:05:16.500
31.0, 1754.5198356625624, -133.61166581697762, -171.94190046284348, -139.0887493020855, -0.03200000151991844, 0.19200000911951065, 1.0240000486373901, 0.0, 0.0, 0.0, 0.0, 0.0, 1.763226316500033E9, 0.0, 2025-11-15 12:05:16.500
32.0, 1991.58835395379, 81.27550583705306, 10.280984978191555, 15.234482469502836, -0.03200000151991844, 0.19200000911951065, 1.0240000486373901, 0.0, 0.0, 0.0, 0.0, 0.0, 1.7632263165157464E9, 0.0, 2025-11-15 12:05:16.515
32.0, 1761.580766778905, -109.74736419972032, -131.25926874484867, -106.2187685915269, -0.03200000151991844, 0.19200000911951065, 1.0240000486373901, 0.0, 0.0, 0.0, 0.0, 0.0, 1.7632263165157464E9, 0.0, 2025-11-15 12:05:16.515
33.0, 1713.5941104474477, -165.24373964220285, -187.79907627496868, -148.30012289294973, -0.03200000151991844, 0.19200000911951065, 1.0240000486373901, 0.0, 0.0, 0.0, 0.0, 0.0, 1.763226316516473E9, 0.0, 2025-11-15 12:05:16.516
33.0, 1932.2024825573899, 20.56944975629449, -43.89146587997675, -29.864971096161753, -0.03200000151991844, 0.19200000911951065, 1.0240000486373901, 0.0, 0.0, 0.0, 0.0, 0.0, 1.763226316516473E9, 0.0, 2025-11-15 12:05:16.516
34.0, 1845.8556723804213, -33.550642502494156, -70.75516726169735, -48.55699107469991, -0.03200000151991844, 0.19200000911951065, 1.0240000486373901, 0.0, 0.0, 0.0, 0.0, 0.0, 1.7632263165300295E9, 0.0, 2025-11-15 12:05:16.530
34.0, 1693.4547491860576, -173.6772140422836, -196.70751796942204, -160.37999974982813, -0.03200000151991844, 0.19200000911951065, 1.0240000486373901, 0.0, 0.0, 0.0, 0.0, 0.0, 1.7632263165300295E9, 0.0, 2025-11-15 12:05:16.530
35.0, 1839.0976731604896, -65.44824922457337, -121.5392687600106, -105.17159660393372, -0.03200000151991844, 0.19200000911951065, 1.0240000486373901, 0.0, 0.0, 0.0, 0.0, 0.0, 1.7632263165457509E9, 0.0, 2025-11-15 12:05:16.545
35.0, 1969.8819746109657, 63.772774044424295, 7.191827614791691, 8.536321648862213, -0.03200000151991844, 0.19200000911951065, 1.0240000486373901, 0.0, 0.0, 0.0, 0.0, 0.0, 1.7632263165457509E9, 0.0, 2025-11-15 12:05:16.545
36.0, 2176.330062014982, -172.68614055402577, -187.47744487877935, -152.74686394026503, -0.03200000151991844, 0.19200000911951065, 1.0240000486373901, 0.0, 0.0, 0.0, 0.0, 0.0, 1.7632263165464623E9, 0.0, 2025-11-15 12:05:16.546
36.0, 2238.6180957769975, -132.41489783115685, -168.80786429997534, -136.97944572707638, -0.03200000151991844, 0.19200000911951065, 1.0240000486373901, 0.0, 0.0, 0.0, 0.0, 0.0, 1.7632263165464623E9, 0.0, 2025-11-15 12:05:16.546
37.0, 2477.7061600442976, 80.5948440451175, 12.629642150364816, 19.258614821825176, -0.03200000151991844, 0.19200000911951065, 1.0240000486373901, 0.0, 0.0, 0.0, 0.0, 0.0, 1.7632263165600326E9, 0.0, 2025-11-15 12:05:16.560
37.0, 2253.4505390012637, -107.24911102931947, -128.60767967626452, -99.03442077664658, -0.03200000151991844, 0.19200000911951065, 1.0240000486373901, 0.0, 0.0, 0.0, 0.0, 0.0, 1.7632263165600326E9, 0.0, 2025-11-15 12:05:16.560
38.0, 2184.4531247187406, -171.08920327294618, -195.80246218014508, -157.75458998093382, -0.03200000151991844, 0.19200000911951065, 1.0240000486373901, 0.0, 0.0, 0.0, 0.0, 0.0, 1.7632263165757976E9, 0.0, 2025-11-15 12:05:16.575
38.0, 2412.8936938121915, 20.030904162675142, -46.939484343864024, -43.94195452937856, -0.03200000151991844, 0.19200000911951065, 1.0240000486373901, 0.0, 0.0, 0.0, 0.0, 0.0, 1.7632263165757976E9, 0.0, 2025-11-15 12:05:16.575
39.0, 2350.317687753588, -19.70179296657443, -55.788087639026344, -45.894182306248695, -0.03200000151991844, 0.19200000911951065, 1.0240000486373901, 0.0, 0.0, 0.0, 0.0, 0.0, 1.763226316576482E9, 0.0, 2025-11-15 12:05:16.576
39.0, 2191.9067453304306, -172.61882235482335, -197.04410896543413, -160.86618674406782, -0.03200000151991844, 0.19200000911951065, 1.0240000486373901, 0.0, 0.0, 0.0, 0.0, 0.0, 1.763226316576482E9, 0.0, 2025-11-15 12:05:16.576
40.0, 2327.605275322683, -61.49517497140914, -116.8344746157527, -93.95937653677538, -0.03200000151991844, 0.19200000911951065, 1.0240000486373901, 0.0, 0.0, 0.0, 0.0, 0.0, 1.7632263165900433E9, 0.0, 2025-11-15 12:05:16.590
40.0, 2449.578372477554, 60.75467478018254, 7.012312416918576, 11.756375510711223, -0.03200000151991844, 0.19200000911951065, 1.0240000486373901, 0.0, 0.0, 0.0, 0.0, 0.0, 1.7632263165900433E9, 0.0, 2025-11-15 12:05:16.590
41.0, 2675.8254902469926, -162.84272387064993, -183.59168882481754, -141.9011540687643, -0.03200000151991844, 0.19200000911951065, 1.0240000486373901, 0.0, 0.0, 0.0, 0.0, 0.0, 1.7632263166057568E9, 0.0, 2025-11-15 12:05:16.605
41.0, 2716.885851860512, -144.5882721869275, -177.84346259292215, -145.33438222808763, -0.03200000151991844, 0.19200000911951065, 1.0240000486373901, 0.0, 0.0, 0.0, 0.0, 0.0, 1.7632263166057568E9, 0.0, 2025-11-15 12:05:16.605
42.0, 2497.7669834066182, 86.54128497466445, 18.033797586336732, 19.45308961952105, -0.03200000151991844, 0.19200000911951065, 1.0240000486373901, 0.0, 0.0, 0.0, 0.0, 0.0, 1.763226316606454E9, 0.0, 2025-11-15 12:05:16.606
42.0, 2742.178795260843, -119.31028838641942, -142.05635991692543, -117.0009001637809, -0.03200000151991844, 0.19200000911951065, 1.0240000486373901, 0.0, 0.0, 0.0, 0.0, 0.0, 1.763226316606454E9, 0.0, 2025-11-15 12:05:16.606
43.0, 2662.264613007661, -182.14434754196554, -202.2762290034443, -163.48785661300644, -0.03200000151991844, 0.19200000911951065, 1.0240000486373901, 0.0, 0.0, 0.0, 0.0, 0.0, 1.7632263166201088E9, 0.0, 2025-11-15 12:05:16.620
43.0, 2421.110254014842, 25.233105001039803, -39.635459730401635, -26.446702536661178, -0.03200000151991844, 0.19200000911951065, 1.0240000486373901, 0.0, 0.0, 0.0, 0.0, 0.0, 1.7632263166201088E9, 0.0, 2025-11-15 12:05:16.620
44.0, 2351.54811483901, -23.071442826651037, -54.509041854180396, -40.88271636562422, -0.03200000151991844, 0.19200000911951065, 1.0240000486373901, 0.0, 0.0, 0.0, 0.0, 0.0, 1.7632263166358268E9, 0.0, 2025-11-15 12:05:16.635
44.0, 2182.433578742668, -177.53679079655558, -196.11287387646735, -161.64034603489563, -0.03200000151991844, 0.19200000911951065, 1.0240000486373901, 0.0, 0.0, 0.0, 0.0, 0.0, 1.7632263166358268E9, 0.0, 2025-11-15 12:05:16.635
45.0, 2323.581142970361, -56.71932272799313, -110.17371279466897, -87.19389751693234, -0.03200000151991844, 0.19200000911951065, 1.0240000486373901, 0.0, 0.0, 0.0, 0.0, 0.0, 1.7632263166364634E9, 0.0, 2025-11-15 12:05:16.636
45.0, 2464.1527626048774, 74.04627922270447, 15.883355111815035, 16.898737949784845, -0.03200000151991844, 0.19200000911951065, 1.0240000486373901, 0.0, 0.0, 0.0, 0.0, 0.0, 1.7632263166364634E9, 0.0, 2025-11-15 12:05:16.636
46.0, 2681.184766883496, -164.035751956515, -180.11358186602592, -147.00237760832533, -0.03200000151991844, 0.19200000911951065, 1.0240000486373901, 0.0, 0.0, 0.0, 0.0, 0.0, 1.763226316650077E9, 0.0, 2025-11-15 12:05:16.650
46.0, 2729.332238913048, -136.8803383782506, -173.3443629462272, -142.61921486025676, -0.03200000151991844, 0.19200000911951065, 1.0240000486373901, 0.0, 0.0, 0.0, 0.0, 0.0, 1.763226316650077E9, 0.0, 2025-11-15 12:05:16.650
47.0, 2488.4172335173935, 84.62645619735122, 19.518537868745625, 19.57276641810313, -0.03200000151991844, 0.19200000911951065, 1.0240000486373901, 0.0, 0.0, 0.0, 0.0, 0.0, 1.763226316665808E9, 0.0, 2025-11-15 12:05:16.665
47.0, 2257.0707621583715, -104.56386286113411, -119.51598288398236, -94.6549979285337, -0.03200000151991844, 0.19200000911951065, 1.0240000486373901, 0.0, 0.0, 0.0, 0.0, 0.0, 1.763226316665808E9, 0.0, 2025-11-15 12:05:16.665
48.0, 2202.090492909774, -167.34930331725627, -190.95929173752666, -156.2361905989237, -0.03200000151991844, 0.19200000911951065, 1.0240000486373901, 0.0, 0.0, 0.0, 0.0, 0.0, 1.7632263166664636E9, 0.0, 2025-11-15 12:05:16.666
48.0, 2433.859572963789, 34.94562518596649, -29.126340854912996, -20.967749101575464, -0.03200000151991844, 0.19200000911951065, 1.0240000486373901, 0.0, 0.0, 0.0, 0.0, 0.0, 1.7632263166664636E9, 0.0, 2025-11-15 12:05:16.666
49.0, 2357.157964772545, -12.184594055637717, -51.46476329024881, -33.53007305273786, -0.03200000151991844, 0.19200000911951065, 1.0240000486373901, 0.0, 0.0, 0.0, 0.0, 0.0, 1.763226316680096E9, 0.0, 2025-11-15 12:05:16.680
49.0, 2183.20399813354, -167.36052301712334, -189.1977988583967, -155.06560191279277, -0.03200000151991844, 0.19200000911951065, 1.0240000486373901, 0.0, 0.0, 0.0, 0.0, 0.0, 1.763226316680096E9, 0.0, 2025-11-15 12:05:16.680
50.0, 2351.185344543308, -46.879645944572985, -99.75809141807258, -75.80216225190088, -0.03200000151991844, 0.19200000911951065, 1.0240000486373901, 0.0, 0.0, 0.0, 0.0, 0.0, 1.76322631669576E9, 0.0, 2025-11-15 12:05:16.695
50.0, 2456.1792958993465, 73.85928422491997, 22.458099233917892, 24.019507465418428, -0.03200000151991844, 0.19200000911951065, 1.0240000486373901, 0.0, 0.0, 0.0, 0.0, 0.0, 1.76322631669576E9, 0.0, 2025-11-15 12:05:16.695
51.0, 2677.859995822888, -154.23721407260746, -170.71895317733288, -142.50701786158606, -0.03200000151991844, 0.19200000911951065, 1.0240000486373901, 0.0, 0.0, 0.0, 0.0, 0.0, 1.763226316696456E9, 0.0, 2025-11-15 12:05:16.696
51.0, 2739.4337086933665, -125.91495170816779, -162.19572117831558, -134.09972276119515, -0.03200000151991844, 0.19200000911951065, 1.0240000486373901, 0.0, 0.0, 0.0, 0.0, 0.0, 1.763226316696456E9, 0.0, 2025-11-15 12:05:16.696
52.0, 2981.06116503058, 91.59388981480151, 15.475706016644835, 12.474436302203685, -0.03200000151991844, 0.19200000911951065, 1.0240000486373901, 0.0, 0.0, 0.0, 0.0, 0.0, 1.7632263167101088E9, 0.0, 2025-11-15 12:05:16.710
52.0, 2759.7937240521424, -91.20494021940976, -112.98985746130347, -90.57476707687601, -0.03200000151991844, 0.19200000911951065, 1.0240000486373901, 0.0, 0.0, 0.0, 0.0, 0.0, 1.7632263167101088E9, 0.0, 2025-11-15 12:05:16.710
53.0, 2701.664459040854, -147.65125025063753, -176.40734100993723, -142.73889165883884, -0.03200000151991844, 0.19200000911951065, 1.0240000486373901, 0.0, 0.0, 0.0, 0.0, 0.0, 1.7632263167257574E9, 0.0, 2025-11-15 12:05:16.725
53.0, 2919.7417653570883, 27.72387837152928, -32.96347820945084, -22.863878379110247, -0.03200000151991844, 0.19200000911951065, 1.0240000486373901, 0.0, 0.0, 0.0, 0.0, 0.0, 1.7632263167257574E9, 0.0, 2025-11-15 12:05:16.725
54.0, 2862.8466673311777, 3.7959984550252557, -26.474751786328852, -8.412904950324446, -0.03200000151991844, 0.19200000911951065, 1.0240000486373901, 0.0, 0.0, 0.0, 0.0, 0.0, 1.7632263167264526E9, 0.0, 2025-11-15 12:05:16.726
54.0, 2675.4178411518224, -165.90944183431566, -187.2343513816595, -152.33547494513914, -0.03200000151991844, 0.19200000911951065, 1.0240000486373901, 0.0, 0.0, 0.0, 0.0, 0.0, 1.7632263167264526E9, 0.0, 2025-11-15 12:05:16.726
55.0, 2813.1097378204577, -56.124678635038435, -101.45974589791149, -88.63001909991726, -0.03200000151991844, 0.19200000911951065, 1.0240000486373901, 0.0, 0.0, 0.0, 0.0, 0.0, 1.7632263167401628E9, 0.0, 2025-11-15 12:05:16.740
55.0, 2968.1846894831397, 87.87268935889006, 37.09606766048819, 35.7403539265506, -0.03200000151991844, 0.19200000911951065, 1.0240000486373901, 0.0, 0.0, 0.0, 0.0, 0.0, 1.7632263167401628E9, 0.0, 2025-11-15 12:05:16.740
56.0, 3172.934862307273, -149.8091725250706, -165.39707554038614, -135.83129644067958, -0.03200000151991844, 0.19200000911951065, 1.0240000486373901, 0.0, 0.0, 0.0, 0.0, 0.0, 1.763226316787789E9, 0.0, 2025-11-15 12:05:16.787
56.0, 3221.3628268335015, -120.36120027396828, -157.34881083574146, -133.59109636722133, -0.03200000151991844, 0.19200000911951065, 1.0240000486373901, 0.0, 0.0, 0.0, 0.0, 0.0, 1.763226316787789E9, 0.0, 2025-11-15 12:05:16.787
57.0, 2998.077709828969, 109.58654850162566, 42.80315499287099, 32.89429006027058, -0.03200000151991844, 0.19200000911951065, 1.0240000486373901, 0.0, 0.0, 0.0, 0.0, 0.0, 1.76322631678849E9, 0.0, 2025-11-15 12:05:16.788
57.0, 2763.802896804642, -77.64780288003385, -97.75724494177848, -79.18677171180025, -0.03200000151991844, 0.19200000911951065, 1.0240000486373901, 0.0, 0.0, 0.0, 0.0, 0.0, 1.76322631678849E9, 0.0, 2025-11-15 12:05:16.788
58.0, 2688.3952939980663, -159.26737951301038, -183.22143872920424, -147.39880700362846, -0.03200000151991844, 0.19200000911951065, 1.0240000486373901, 0.0, 0.0, 0.0, 0.0, 0.0, 1.763226316789236E9, 0.0, 2025-11-15 12:05:16.789
58.0, 2927.816209361423, 41.14637931250036, -21.975652139633894, -21.842885691206902, -0.03200000151991844, 0.19200000911951065, 1.0240000486373901, 0.0, 0.0, 0.0, 0.0, 0.0, 1.763226316789236E9, 0.0, 2025-11-15 12:05:16.789
59.0, 2867.244789679069, 6.309211225248873, -25.083509002812207, -18.207702934276313, -0.03200000151991844, 0.19200000911951065, 1.0240000486373901, 0.0, 0.0, 0.0, 0.0, 0.0, 1.7632263167899911E9, 0.0, 2025-11-15 12:05:16.789
59.0, 2685.081742637325, -151.80627910140902, -178.43436678592116, -148.6853325883858, -0.03200000151991844, 0.19200000911951065, 1.0240000486373901, 0.0, 0.0, 0.0, 0.0, 0.0, 1.7632263167899911E9, 0.0, 2025-11-15 12:05:16.789
60.0, 2825.140995977912, -41.19125811196864, -96.67267395462841, -82.02535577816889, -0.03200000151991844, 0.19200000911951065, 1.0240000486373901, 0.0, 0.0, 0.0, 0.0, 0.0, 1.7632263168008113E9, 0.0, 2025-11-15 12:05:16.800
60.0, 2970.0097606615163, 100.81274320557714, 41.699884505942464, 36.974520911928266, -0.03200000151991844, 0.19200000911951065, 1.0240000486373901, 0.0, 0.0, 0.0, 0.0, 0.0, 1.7632263168008113E9, 0.0, 2025-11-15 12:05:16.800
61.0, 3183.5786175811663, 344.1399840726517, -165.0380451446399, -142.24148496473208, -0.03200000151991844, 0.19200000911951065, 1.0240000486373901, 0.0, 0.0, 0.0, 0.0, 0.0, 1.7632263168014898E9, 0.0, 2025-11-15 12:05:16.801
61.0, 3209.4250661749393, 359.0023464965634, -167.7419928126037, -141.54212367301807, -0.03200000151991844, 0.19200000911951065, 1.0240000486373901, 0.0, 0.0, 0.0, 0.0, 0.0, 1.7632263168014898E9, 0.0, 2025-11-15 12:05:16.801
62.0, 2993.111122687813, 590.8013457502238, 34.769849888049066, 28.473728312645108, -0.03200000151991844, 0.19200000911951065, 1.0240000486373901, 0.0, 0.0, 0.0, 0.0, 0.0, 1.7632263168158271E9, 0.0, 2025-11-15 12:05:16.815
62.0, 2755.7284528003074, 404.59920675633475, -103.63262777216733, -87.72122341068462, -0.03200000151991844, 0.19200000911951065, 1.0240000486373901, 0.0, 0.0, 0.0, 0.0, 0.0, 1.7632263168158271E9, 0.0, 2025-11-15 12:05:16.815
63.0, 2708.4149784608744, 350.7109882947989, -168.32541720569134, -134.02492476208135, -0.03200000151991844, 0.19200000911951065, 1.0240000486373901, 0.0, 0.0, 0.0, 0.0, 0.0, 1.7632263168164935E9, 0.0, 2025-11-15 12:05:16.816
63.0, 2924.169806904625, 533.7229926264845, -22.013051139190793, -20.548880306538194, -0.03200000151991844, 0.19200000911951065, 1.0240000486373901, 0.0, 0.0, 0.0, 0.0, 0.0, 1.7632263168164935E9, 0.0, 2025-11-15 12:05:16.816
64.0, 2855.643620016519, 504.27128047542647, -24.470165410079062, -20.193589810747653, -0.03200000151991844, 0.19200000911951065, 1.0240000486373901, 0.0, 0.0, 0.0, 0.0, 0.0, 1.7632263168300767E9, 0.0, 2025-11-15 12:05:16.830
64.0, 2698.081634883303, 341.0321272094734, -164.91088854614645, -137.17392052477226, -0.03200000151991844, 0.19200000911951065, 1.0240000486373901, 0.0, 0.0, 0.0, 0.0, 0.0, 1.7632263168300767E9, 0.0, 2025-11-15 12:05:16.830
65.0, 2810.5217270511203, 437.12885657092556, -102.14414758980274, -84.54604834830388, -0.03200000151991844, 0.19200000911951065, 1.0240000486373901, 0.0, 0.0, 0.0, 0.0, 0.0, 1.7632263168457637E9, 0.0, 2025-11-15 12:05:16.845
65.0, 2957.9485833044164, 570.4562899912708, 22.237445136532187, 17.661677540745586, -0.03200000151991844, 0.19200000911951065, 1.0240000486373901, 0.0, 0.0, 0.0, 0.0, 0.0, 1.7632263168457637E9, 0.0, 2025-11-15 12:05:16.845
66.0, 3177.635916551575, 344.8131660646759, -160.7109808959067, -133.6023160670884, -0.03200000151991844, 0.19200000911951065, 1.0240000486373901, 0.0, 0.0, 0.0, 0.0, 0.0, 1.7632263168464706E9, 0.0, 2025-11-15 12:05:16.846
66.0, 3219.9042658507824, 365.2292799227871, -159.66006900835782, -132.43172738095745, -0.03200000151991844, 0.19200000911951065, 1.0240000486373901, 0.0, 0.0, 0.0, 0.0, 0.0, 1.7632263168464706E9, 0.0, 2025-11-15 12:05:16.846
67.0, 2992.0938698998652, 592.3646239317022, 38.16941894777119, 30.885963784065098, -0.03200000151991844, 0.19200000911951065, 1.0240000486373901, 0.0, 0.0, 0.0, 0.0, 0.0, 1.7632263168601089E9, 0.0, 2025-11-15 12:05:16.860
67.0, 2753.417194627691, 403.6642317674123, -105.74193134717643, -90.42143117869273, -0.03200000151991844, 0.19200000911951065, 1.0240000486373901, 0.0, 0.0, 0.0, 0.0, 0.0, 1.7632263168601089E9, 0.0, 2025-11-15 12:05:16.860
68.0, 2693.212285140995, 335.82618647115305, -183.57672922499478, -155.52934950729832, -0.03200000151991844, 0.19200000911951065, 1.0240000486373901, 0.0, 0.0, 0.0, 0.0, 0.0, 1.763226316875754E9, 0.0, 2025-11-15 12:05:16.875
68.0, 2926.043496782426, 534.5420307167806, -20.760184654034674, -17.399884543847293, -0.03200000151991844, 0.19200000911951065, 1.0240000486373901, 0.0, 0.0, 0.0, 0.0, 0.0, 1.763226316875754E9, 0.0, 2025-11-15 12:05:16.875
69.0, 2866.751122884918, 495.22820238256827, -31.76671022363007, -25.261154250707477, -0.03200000151991844, 0.19200000911951065, 1.0240000486373901, 0.0, 0.0, 0.0, 0.0, 0.0, 1.7632263168764708E9, 0.0, 2025-11-15 12:05:16.876
69.0, 2676.8016041354276, 327.770441966597, -179.88544796872884, -149.21639838209376, -0.03200000151991844, 0.19200000911951065, 1.0240000486373901, 0.0, 0.0, 0.0, 0.0, 0.0, 1.7632263168764708E9, 0.0, 2025-11-15 12:05:16.876
70.0, 2811.621257638093, 428.06333907833323, -106.65072703640908, -92.66911105206236, -0.03200000151991844, 0.19200000911951065, 1.0240000486373901, 0.0, 0.0, 0.0, 0.0, 0.0, 1.763226316890123E9, 0.0, 2025-11-15 12:05:16.890
70.0, 2964.8599184225313, 577.9360899026506, 38.004863349720836, 27.61355132283643, -0.03200000151991844, 0.19200000911951065, 1.0240000486373901, 0.0, 0.0, 0.0, 0.0, 0.0, 1.763226316890123E9, 0.0, 2025-11-15 12:05:16.890
71.0, 3182.2621727967635, 343.9230698752217, -158.58671772107482, -130.7861714004539, -0.03200000151991844, 0.19200000911951065, 1.0240000486373901, 0.0, 0.0, 0.0, 0.0, 0.0, 1.7632263169057572E9, 0.0, 2025-11-15 12:05:16.905
71.0, 3213.396839927882, 354.9370752447285, -169.13323559612036, -143.52427064953372, -0.03200000151991844, 0.19200000911951065, 1.0240000486373901, 0.0, 0.0, 0.0, 0.0, 0.0, 1.7632263169057572E9, 0.0, 2025-11-15 12:05:16.905
72.0, 3000.4936852003448, 596.3438774845563, 38.894959539175034, 32.221108068246394, -0.03200000151991844, 0.19200000911951065, 1.0240000486373901, 0.0, 0.0, 0.0, 0.0, 0.0, 1.7632263169064837E9, 0.0, 2025-11-15 12:05:16.906
72.0, 2758.3314231694676, 402.81901437742636, -103.56156967300922, -81.62144658295438, -0.03200000151991844, 0.19200000911951065, 1.0240000486373901, 0.0, 0.0, 0.0, 0.0, 0.0, 1.7632263169064837E9, 0.0, 2025-11-15 12:05:16.906
73.0, 2684.4496995448135, 324.96925689978525, -192.51883001904935, -155.03942261310294, -0.03200000151991844, 0.19200000911951065, 1.0240000486373901, 0.0, 0.0, 0.0, 0.0, 0.0, 1.763226316920141E9, 0.0, 2025-11-15 12:05:16.920
73.0, 2925.41519358987, 528.5357513879426, -29.964078444987535, -19.699923016596586, -0.03200000151991844, 0.19200000911951065, 1.0240000486373901, 0.0, 0.0, 0.0, 0.0, 0.0, 1.763226316920141E9, 0.0, 2025-11-15 12:05:16.920
74.0, 2858.5532621820457, 491.058213931974, -33.54690260253847, -26.555159635376185, -0.03200000151991844, 0.19200000911951065, 1.0240000486373901, 0.0, 0.0, 0.0, 0.0, 0.0, 1.7632263169357522E9, 0.0, 2025-11-15 12:05:16.935
74.0, 2679.9505998981185, 327.5086489696987, -182.50711783766747, -155.4994303076528, -0.03200000151991844, 0.19200000911951065, 1.0240000486373901, 0.0, 0.0, 0.0, 0.0, 0.0, 1.7632263169357522E9, 0.0, 2025-11-15 12:05:16.935
75.0, 2799.9078909768723, 427.4163363859989, -112.87392056267709, -102.16097713960335, -0.03200000151991844, 0.19200000911951065, 1.0240000486373901, 0.0, 0.0, 0.0, 0.0, 0.0, 1.7632263169364617E9, 0.0, 2025-11-15 12:05:16.936
75.0, 2965.211469018366, 583.0410533421673, 35.4991303794086, 26.614998034667224, -0.03200000151991844, 0.19200000911951065, 1.0240000486373901, 0.0, 0.0, 0.0, 0.0, 0.0, 1.7632263169364617E9, 0.0, 2025-11-15 12:05:16.936
76.0, 3191.518425187096, 349.94804870383814, -152.42710249405354, -132.36814908171073, -0.03200000151991844, 0.19200000911951065, 1.0240000486373901, 0.0, 0.0, 0.0, 0.0, 0.0, 1.7632263169500794E9, 0.0, 2025-11-15 12:05:16.950
76.0, 3207.1923459013924, 356.58263122523203, -165.38585584051907, -141.88619446894154, -0.03200000151991844, 0.19200000911951065, 1.0240000486373901, 0.0, 0.0, 0.0, 0.0, 0.0, 1.7632263169500794E9, 0.0, 2025-11-15 12:05:16.950
77.0, 2988.7990180389024, 594.6197836049832, 30.60360133741051, 21.741908392403275, -0.03200000151991844, 0.19200000911951065, 1.0240000486373901, 0.0, 0.0, 0.0, 0.0, 0.0, 1.7632263169657617E9, 0.0, 2025-11-15 12:05:16.965
77.0, 2747.2613193006255, 400.5040163048543, -117.65351270604879, -93.0991995469667, -0.03200000151991844, 0.19200000911951065, 1.0240000486373901, 0.0, 0.0, 0.0, 0.0, 0.0, 1.7632263169657617E9, 0.0, 2025-11-15 12:05:16.965
78.0, 2687.348122010473, 333.5934661976062, -184.5640628132969, -158.11736027663574, -0.03200000151991844, 0.19200000911951065, 1.0240000486373901, 0.0, 0.0, 0.0, 0.0, 0.0, 1.7632263169664593E9, 0.0, 2025-11-15 12:05:16.966
78.0, 2908.084497195203, 519.4477944956161, -33.206571706570685, -31.360931078437716, -0.03200000151991844, 0.19200000911951065, 1.0240000486373901, 0.0, 0.0, 0.0, 0.0, 0.0, 1.7632263169664593E9, 0.0, 2025-11-15 12:05:16.966
79.0, 2867.0241355816834, 502.60328509518877, -20.704086154699326, -17.429803743492812, -0.03200000151991844, 0.19200000911951065, 1.0240000486373901, 0.0, 0.0, 0.0, 0.0, 0.0, 1.7632263169801166E9, 0.0, 2025-11-15 12:05:16.980
79.0, 2672.2426660894416, 328.84379325388, -180.31927636358887, -153.1320736357011, -0.03200000151991844, 0.19200000911951065, 1.0240000486373901, 0.0, 0.0, 0.0, 0.0, 0.0, 1.7632263169801166E9, 0.0, 2025-11-15 12:05:16.980
80.0, 2828.8135777343996, 435.65533598838374, -105.46891865041107, -92.03706795955077, -0.03200000151991844, 0.19200000911951065, 1.0240000486373901, 0.0, 0.0, 0.0, 0.0, 0.0, 1.7632263169957685E9, 0.0, 2025-11-15 12:05:16.995
80.0, 2962.092392455321, 578.052026801277, 32.039722920395434, 32.43802226567641, -0.03200000151991844, 0.19200000911951065, 1.0240000486373901, 0.0, 0.0, 0.0, 0.0, 0.0, 1.7632263169957685E9, 0.0, 2025-11-15 12:05:16.995
81.0, 3168.458202060312, 345.45268895709887, -159.1888416139409, -133.5649170675315, -0.03200000151991844, 0.19200000911951065, 1.0240000486373901, 0.0, 0.0, 0.0, 0.0, 0.0, 1.7632263169964707E9, 0.0, 2025-11-15 12:05:16.996
81.0, 3213.000410532579, 357.2632930171676, -170.40854148101062, -143.26247765263543, -0.03200000151991844, 0.19200000911951065, 1.0240000486373901, 0.0, 0.0, 0.0, 0.0, 0.0, 1.7632263169964707E9, 0.0, 2025-11-15 12:05:16.996
82.0, 2986.0015728720464, 589.0248932712711, 27.578022273257375, 23.069572876673192, -0.03200000151991844, 0.19200000911951065, 1.0240000486373901, 0.0, 0.0, 0.0, 0.0, 0.0, 1.7632263170100942E9, 0.0, 2025-11-15 12:05:17.010
82.0, 2753.5817502257414, 403.93724446417764, -111.66219297703356, -79.66547890612856, -0.03200000151991844, 0.19200000911951065, 1.0240000486373901, 0.0, 0.0, 0.0, 0.0, 0.0, 1.7632263170100942E9, 0.0, 2025-11-15 12:05:17.010
83.0, 2690.280203575734, 331.4056247235276, -187.07353568356484, -152.25319714611396, -0.03200000151991844, 0.19200000911951065, 1.0240000486373901, 0.0, 0.0, 0.0, 0.0, 0.0, 1.7632263170258324E9, 0.0, 2025-11-15 12:05:17.025
83.0, 2908.98955298448, 518.4043624079786, -38.64064634218812, -33.047625958453864, -0.03200000151991844, 0.19200000911951065, 1.0240000486373901, 0.0, 0.0, 0.0, 0.0, 0.0, 1.7632263170258324E9, 0.0, 2025-11-15 12:05:17.025
84.0, 2869.1670982562937, 503.9197298795916, -21.212712548673153, -10.67928432347253, -0.03200000151991844, 0.19200000911951065, 1.0240000486373901, 0.0, 0.0, 0.0, 0.0, 0.0, 1.763226317026468E9, 0.0, 2025-11-15 12:05:17.026
84.0, 2676.4051747401245, 330.6539048324339, -179.28332407586277, -146.78172351093963, -0.03200000151991844, 0.19200000911951065, 1.0240000486373901, 0.0, 0.0, 0.0, 0.0, 0.0, 1.763226317026468E9, 0.0, 2025-11-15 12:05:17.026
85.0, 2811.6137778381817, 433.7816461105831, -104.00661776773632, -85.45484403753653, -0.03200000151991844, 0.19200000911951065, 1.0240000486373901, 0.0, 0.0, 0.0, 0.0, 0.0, 1.7632263170401137E9, 0.0, 2025-11-15 12:05:17.040
85.0, 2964.1007187315263, 583.1981291403063, 31.086048431694508, 30.02204689430073, -0.03200000151991844, 0.19200000911951065, 1.0240000486373901, 0.0, 0.0, 0.0, 0.0, 0.0, 1.7632263170401137E9, 0.0, 2025-11-15 12:05:17.040
86.0, 3180.9120689127594, 344.4391760691069, -161.3355441885069, -140.50617138529196, -0.03200000151991844, 0.19200000911951065, 1.0240000486373901, 0.0, 0.0, 0.0, 0.0, 0.0, 1.7632263170557652E9, 0.0, 2025-11-15 12:05:17.055
86.0, 3218.8084751637653, 363.51266584312543, -165.79724483564496, -139.18224680097774, -0.03200000151991844, 0.19200000911951065, 1.0240000486373901, 0.0, 0.0, 0.0, 0.0, 0.0, 1.7632263170557652E9, 0.0, 2025-11-15 12:05:17.055
87.0, 2991.8283370030113, 595.0723114996217, 31.946225421503186, 30.227741391863674, -0.03200000151991844, 0.19200000911951065, 1.0240000486373901, 0.0, 0.0, 0.0, 0.0, 0.0, 1.7632263170564697E9, 0.0, 2025-11-15 12:05:17.056
87.0, 2760.7810576404445, 406.9890028280206, -107.18179283011705, -86.281361927744, -0.03200000151991844, 0.19200000911951065, 1.0240000486373901, 0.0, 0.0, 0.0, 0.0, 0.0, 1.7632263170564697E9, 0.0, 2025-11-15 12:05:17.056
88.0, 2693.1113078421913, 339.64462432591245, -185.10634830687195, -152.03628294868395, -0.03200000151991844, 0.19200000911951065, 1.0240000486373901, 0.0, 0.0, 0.0, 0.0, 0.0, 1.7632263170865085E9, 0.0, 2025-11-15 12:05:17.086
88.0, 2929.4692451418377, 529.7998375729658, -27.78371677082032, -26.188649439718574, -0.03200000151991844, 0.19200000911951065, 1.0240000486373901, 0.0, 0.0, 0.0, 0.0, 0.0, 1.7632263170865085E9, 0.0, 2025-11-15 12:05:17.086
89.0, 2860.0604418641888, 496.1781369713135, -33.206571706570685, -21.14726429944858, -0.03200000151991844, 0.19200000911951065, 1.0240000486373901, 0.0, 0.0, 0.0, 0.0, 0.0, 1.7632263170871856E9, 0.0, 2025-11-15 12:05:17.087
89.0, 2660.0169331342913, 318.6151668750681, -196.19515167549253, -167.97947645979002, -0.03200000151991844, 0.19200000911951065, 1.0240000486373901, 0.0, 0.0, 0.0, 0.0, 0.0, 1.7632263170871856E9, 0.0, 2025-11-15 12:05:17.087
90.0, 2801.310353460256, 430.1202840539627, -114.29508254583925, -91.5060021658428, -0.03200000151991844, 0.19200000911951065, 1.0400000493973494, 0.0, 0.0, 0.0, 0.0, 0.0, 1.7632263170879269E9, 0.0, 2025-11-15 12:05:17.087
90.0, 2967.025320496876, 586.9716881955974, 32.17809921875596, 34.76797993807122, -0.03200000151991844, 0.19200000911951065, 1.0400000493973494, 0.0, 0.0, 0.0, 0.0, 0.0, 1.7632263170879269E9, 0.0, 2025-11-15 12:05:17.087
91.0, 3193.257478666492, 354.7874792465009, -153.24988048430532, -116.63438996812329, -0.03200000151991844, 0.19200000911951065, 1.0400000493973494, 0.0, 0.0, 0.0, 0.0, 0.0, 1.7632263171000557E9, 0.0, 2025-11-15 12:05:17.100
91.0, 3220.584927642718, 365.7940048160963, -158.9607077166438, -123.65044228499755, -0.03200000151991844, 0.19200000911951065, 1.0400000493973494, 0.0, 0.0, 0.0, 0.0, 0.0, 1.7632263171000557E9, 0.0, 2025-11-15 12:05:17.100
92.0, 2982.377609814983, 590.0122268595733, 27.664039972238243, 28.062339317519218, -0.03200000151991844, 0.19200000911951065, 1.0400000493973494, 0.0, 0.0, 0.0, 0.0, 0.0, 1.7632263171157317E9, 0.0, 2025-11-15 12:05:17.115
92.0, 2772.198972205166, 420.63963766628876, -96.10046926140785, -72.70178518863395, -0.03200000151991844, 0.19200000911951065, 1.0400000493973494, 0.0, 0.0, 0.0, 0.0, 0.0, 1.7632263171157317E9, 0.0, 2025-11-15 12:05:17.115
93.0, 2690.6990723707713, 330.56788713345304, -185.4204999031499, -151.23220445821062, -0.03200000151991844, 0.19200000911951065, 1.0400000493973494, 0.0, 0.0, 0.0, 0.0, 0.0, 1.7632263171164348E9, 0.0, 2025-11-15 12:05:17.116
93.0, 2907.6282294006087, 511.16391609376296, -45.14433236513287, -37.59534430457279, -0.03200000151991844, 0.19200000911951065, 1.0400000493973494, 0.0, 0.0, 0.0, 0.0, 0.0, 1.7632263171164348E9, 0.0, 2025-11-15 12:05:17.116
94.0, 2865.775008996483, 506.13001075340435, -23.35193532332778, -14.737075775396079, -0.03200000151991844, 0.19200000911951065, 1.0400000493973494, 0.0, 0.0, 0.0, 0.0, 0.0, 1.7632263171300857E9, 0.0, 2025-11-15 12:05:17.130
94.0, 2682.8340627639554, 331.8506728182547, -185.69351259991527, -149.40713327983394, -0.03200000151991844, 0.19200000911951065, 1.0400000493973494, 0.0, 0.0, 0.0, 0.0, 0.0, 1.7632263171300857E9, 0.0, 2025-11-15 12:05:17.130
95.0, 2800.9700225642882, 418.23114209482446, -127.97563658375293, -100.75851465621963, -0.03200000151991844, 0.19200000911951065, 1.0400000493973494, 0.0, 0.0, 0.0, 0.0, 0.0, 1.763226317145732E9, 0.0, 2025-11-15 12:05:17.145
95.0, 2963.3863978399895, 572.6329117654823, 21.811096541583538, 24.434636360500008, -0.03200000151991844, 0.19200000911951065, 1.0400000493973494, 0.0, 0.0, 0.0, 0.0, 0.0, 1.763226317145732E9, 0.0, 2025-11-15 12:05:17.145
96.0, 3182.471607194282, 341.6192915025167, -166.77709862403572, -130.61039610253647, -0.03200000151991844, 0.19200000911951065, 1.0400000493973494, 0.0, 0.0, 0.0, 0.0, 0.0, 1.763226317146449E9, 0.0, 2025-11-15 12:05:17.146
96.0, 3212.3272285405546, 350.782046393957, -175.61822211928666, -140.78292398201302, -0.03200000151991844, 0.19200000911951065, 1.0400000493973494, 0.0, 0.0, 0.0, 0.0, 0.0, 1.763226317146449E9, 0.0, 2025-11-15 12:05:17.146
97.0, 2987.572330853436, 590.1880021574907, 27.604201572947204, 35.48230082960799, -0.03200000151991844, 0.19200000911951065, 1.0400000493973494, 0.0, 0.0, 0.0, 0.0, 0.0, 1.7632263171600893E9, 0.0, 2025-11-15 12:05:17.160
97.0, 2756.375455492642, 412.16128446673974, -106.25429764110595, -84.76670244568959, -0.03200000151991844, 0.19200000911951065, 1.0400000493973494, 0.0, 0.0, 0.0, 0.0, 0.0, 1.7632263171600893E9, 0.0, 2025-11-15 12:05:17.160
98.0, 2680.3507691933773, 321.6856247386895, -196.36718707345426, -163.32704091491178, -0.03200000151991844, 0.19200000911951065, 1.0400000493973494, 0.0, 0.0, 0.0, 0.0, 0.0, 1.763226317175835E9, 0.0, 2025-11-15 12:05:17.175
98.0, 2901.3227580753155, 509.2902262159623, -45.9110118560493, -37.23631390882656, -0.03200000151991844, 0.19200000911951065, 1.0400000493973494, 0.0, 0.0, 0.0, 0.0, 0.0, 1.763226317175835E9, 0.0, 2025-11-15 12:05:17.175
99.0, 2862.5212960350327, 499.63754443032667, -33.68901880085468, -21.304340097587556, -0.03200000151991844, 0.19200000911951065, 1.0400000493973494, 0.0, 0.0, 0.0, 0.0, 0.0, 1.7632263171764529E9, 0.0, 2025-11-15 12:05:17.176
99.0, 2666.763712654356, 319.62867976306006, -195.44343178439885, -157.07766808895394, -0.03200000151991844, 0.19200000911951065, 1.0400000493973494, 0.0, 0.0, 0.0, 0.0, 0.0, 1.7632263171764529E9, 0.0, 2025-11-15 12:05:17.176
100.0, 2796.5644204164855, 418.94546298636124, -120.02834917791188, -98.32757968502119, -0.03200000151991844, 0.19200000911951065, 1.0240000486373901, 0.0, 0.0, 0.0, 0.0, 0.0, 1.7632263171908092E9, 0.0, 2025-11-15 12:05:17.190
100.0, 2969.9387025623582, 580.5203607720323, 26.646787184290588, 35.64311652770266, -0.03200000151991844, 0.19200000911951065, 1.0240000486373901, 0.0, 0.0, 0.0, 0.0, 0.0, 1.7632263171908092E9, 0.0, 2025-11-15 12:05:17.190
0.0, -242.8335740729235, -137.00188512681052, -159.392666161526, -125.7821852597408, -0.03200000151991844, 0.19200000911951065, 1.0240000486373901, 0.0, 0.0, 0.0, 0.0, 0.0, 1.7632263171915045E9, 0.0, 2025-11-15 12:05:17.191
1.0, -221.92753332061693, -136.5643168319948, -170.05512093519792, -135.44608674524352, -0.03200000151991844, 0.19200000911951065, 1.0240000486373901, 0.0, 0.0, 0.0, 0.0, 0.0, 1.7632263172050903E9, 0.0, 2025-11-15 12:05:17.205
1.0, -458.9231235627085, 86.07940733013675, 19.49796841898933, 19.419430519919842, -0.03200000151991844, 0.19200000911951065, 1.0240000486373901, 0.0, 0.0, 0.0, 0.0, 0.0, 1.7632263172050903E9, 0.0, 2025-11-15 12:05:17.205
2.0, -669.1429000720382, -81.86080018011853, -106.96674858266488, -78.48367052013054, -0.03200000151991844, 0.19200000911951065, 1.0240000486373901, 0.0, 0.0, 0.0, 0.0, 0.0, 1.7632263172205465E9, 0.0, 2025-11-15 12:05:17.220
2.0, -726.662561390549, -156.7223775931634, -189.09121170965955, -148.4235395914875, -0.03200000151991844, 0.19200000911951065, 1.0240000486373901, 0.0, 0.0, 0.0, 0.0, 0.0, 1.7632263172205465E9, 0.0, 2025-11-15 12:05:17.220
3.0, -536.092219248414, 11.217829917091876, -52.7830780246295, -36.8137052138336, -0.03200000151991844, 0.19200000911951065, 1.0240000486373901, 0.0, 0.0, 0.0, 0.0, 0.0, 1.763226317235809E9, 0.0, 2025-11-15 12:05:17.235
3.0, -562.8773827310652, 6.931904567871243, -35.87873022491112, -16.087179659400135, -0.03200000151991844, 0.19200000911951065, 1.0240000486373901, 0.0, 0.0, 0.0, 0.0, 0.0, 1.763226317235809E9, 0.0, 2025-11-15 12:05:17.235
4.0, -756.2264705402777, -174.82723327865824, -197.09833751479164, -157.23100398713723, -0.03200000151991844, 0.19200000911951065, 1.0240000486373901, 0.0, 0.0, 0.0, 0.0, 0.0, 1.763226317236513E9, 0.0, 2025-11-15 12:05:17.236
4.0, -628.4752279538661, -72.4212926919572, -126.07389745628461, -93.4320506430231, -0.03200000151991844, 0.19200000911951065, 1.0240000486373901, 0.0, 0.0, 0.0, 0.0, 0.0, 1.763226317236513E9, 0.0, 2025-11-15 12:05:17.236
5.0, -467.06114586628973, 88.97782979579642, 28.253074215259403, 29.816352396737784, -0.03200000151991844, 0.19200000911951065, 1.0240000486373901, 0.0, 0.0, 0.0, 0.0, 0.0, 1.7632263172508476E9, 0.0, 2025-11-15 12:05:17.250
5.0, -254.90597112989053, -147.9822313967161, -166.3937588785775, -131.75480548897758, -0.03200000151991844, 0.19200000911951065, 1.0240000486373901, 0.0, 0.0, 0.0, 0.0, 0.0, 1.7632263172508476E9, 0.0, 2025-11-15 12:05:17.250
6.0, -206.7884182999842, -129.7053403132595, -163.9478643075563, -130.35982280550525, -0.03200000151991844, 0.19200000911951065, 1.0240000486373901, 0.0, 0.0, 0.0, 0.0, 0.0, 1.763226317251528E9, 0.0, 2025-11-15 12:05:17.251
6.0, -450.0259015681222, 96.18087711045519, 23.226648674812168, 30.33993839053437, -0.03200000151991844, 0.19200000911951065, 1.0240000486373901, 0.0, 0.0, 0.0, 0.0, 0.0, 1.763226317251528E9, 0.0, 2025-11-15 12:05:17.251
7.0, -675.7213840940967, -84.81158124515787, -107.85684477211908, -84.0561214541085, -0.03200000151991844, 0.19200000911951065, 1.0240000486373901, 0.0, 0.0, 0.0, 0.0, 0.0, 1.7632263172650654E9, 0.0, 2025-11-15 12:05:17.265
7.0, -754.0423689661548, -167.99817595956847, -196.888903117273, -165.71683698659763, -0.03200000151991844, 0.19200000911951065, 1.0240000486373901, 0.0, 0.0, 0.0, 0.0, 0.0, 1.7632263172650654E9, 0.0, 2025-11-15 12:05:17.265
8.0, -522.6734582073987, 23.615598270203918, -36.50703341746703, -23.1406309758313, -0.03200000151991844, 0.19200000911951065, 1.0240000486373901, 0.0, 0.0, 0.0, 0.0, 0.0, 1.763226317280789E9, 0.0, 2025-11-15 12:05:17.280
8.0, -562.8699029311538, 9.953743732068688, -30.246440891642123, -22.72550208074972, -0.03200000151991844, 0.19200000911951065, 1.0240000486373901, 0.0, 0.0, 0.0, 0.0, 0.0, 1.763226317280789E9, 0.0, 2025-11-15 12:05:17.280
9.0, -743.0657625962049, -156.3857865971513, -180.71383580891415, -148.33378199255094, -0.03200000151991844, 0.19200000911951065, 1.0240000486373901, 0.0, 0.0, 0.0, 0.0, 0.0, 1.7632263172815E9, 0.0, 2025-11-15 12:05:17.281
9.0, -627.8170055616647, -71.84534809878096, -124.03565198043361, -101.49901484744623, -0.03200000151991844, 0.19200000911951065, 1.0240000486373901, 0.0, 0.0, 0.0, 0.0, 0.0, 1.7632263172815E9, 0.0, 2025-11-15 12:05:17.281
10.0, -449.9548434689641, 96.59974590549245, 34.43138894205913, 39.424155382905155, -0.03200000151991844, 0.19200000911951065, 1.0240000486373901, 0.0, 0.0, 0.0, 0.0, 0.0, 1.7632263172951334E9, 0.0, 2025-11-15 12:05:17.295
10.0, -250.18247748585418, -140.41267388639972, -160.79138874495402, -132.42050768109038, -0.03200000151991844, 0.19200000911951065, 1.0240000486373901, 0.0, 0.0, 0.0, 0.0, 0.0, 1.7632263172951334E9, 0.0, 2025-11-15 12:05:17.295
11.0, -228.3489415445365, -141.0110578793101, -174.94691007724032, -138.2659713118337, -0.03200000151991844, 0.19200000911951065, 1.0240000486373901, 0.0, 0.0, 0.0, 0.0, 0.0, 1.7632263173107936E9, 0.0, 2025-11-15 12:05:17.310
11.0, -456.6642239894718, 83.57367435982451, 15.342939568217844, 18.936983425635844, -0.03200000151991844, 0.19200000911951065, 1.0240000486373901, 0.0, 0.0, 0.0, 0.0, 0.0, 1.7632263173107936E9, 0.0, 2025-11-15 12:05:17.310
12.0, -674.4049393096939, -89.77442848635837, -110.64307023910806, -84.79662164533511, -0.03200000151991844, 0.19200000911951065, 1.0240000486373901, 0.0, 0.0, 0.0, 0.0, 0.0, 1.7632263173114853E9, 0.0, 2025-11-15 12:05:17.311
12.0, -740.2196987299249, -161.86100013228133, -191.20799508458003, -153.87631372688338, -0.03200000151991844, 0.19200000911951065, 1.0240000486373901, 0.0, 0.0, 0.0, 0.0, 0.0, 1.7632263173114853E9, 0.0, 2025-11-15 12:05:17.311
13.0, -528.4590834388509, 9.08608694234863, -53.976106110494584, -41.705494355876, -0.03200000151991844, 0.19200000911951065, 1.0240000486373901, 0.0, 0.0, 0.0, 0.0, 0.0, 1.763226317325076E9, 0.0, 2025-11-15 12:05:17.325
13.0, -558.4493411835283, 6.370919574517757, -31.387110378127545, -16.423770655412227, -0.03200000151991844, 0.19200000911951065, 1.0240000486373901, 0.0, 0.0, 0.0, 0.0, 0.0, 1.763226317325076E9, 0.0, 2025-11-15 12:05:17.325
14.0, -752.2434770874679, -165.60837988788262, -185.35505165392533, -150.8320351629518, -0.03200000151991844, 0.19200000911951065, 1.0240000486373901, 0.0, 0.0, 0.0, 0.0, 0.0, 1.7632263173408124E9, 0.0, 2025-11-15 12:05:17.340
14.0, -642.0697642927989, -75.11028076009825, -130.22144650714472, -104.77516720863059, -0.03200000151991844, 0.19200000911951065, 1.0240000486373901, 0.0, 0.0, 0.0, 0.0, 0.0, 1.7632263173408124E9, 0.0, 2025-11-15 12:05:17.340
15.0, -455.4113575043157, 92.77756815077737, 30.224001491907984, 33.63853015145287, -0.03200000151991844, 0.19200000911951065, 1.0240000486373901, 0.0, 0.0, 0.0, 0.0, 0.0, 1.7632263173414903E9, 0.0, 2025-11-15 12:05:17.341
15.0, -242.19779108045623, -140.3453556871973, -161.40473233768716, -126.91537494631484, -0.03200000151991844, 0.19200000911951065, 1.0240000486373901, 0.0, 0.0, 0.0, 0.0, 0.0, 1.7632263173414903E9, 0.0, 2025-11-15 12:05:17.341
16.0, -219.88928784476593, -138.95411290368065, -179.09819902805611, -138.8643553047441, -0.03200000151991844, 0.19200000911951065, 1.0240000486373901, 0.0, 0.0, 0.0, 0.0, 0.0, 1.763226317355089E9, 0.0, 2025-11-15 12:05:17.355
16.0, -445.44826402235776, 96.01258161244914, 20.440423207823187, 20.68351670494303, -0.03200000151991844, 0.19200000911951065, 1.0240000486373901, 0.0, 0.0, 0.0, 0.0, 0.0, 1.763226317355089E9, 0.0, 2025-11-15 12:05:17.355
17.0, -664.8981136223301, -75.92183905048296, -107.90172357158735, -83.26700256345794, -0.03200000151991844, 0.19200000911951065, 1.0240000486373901, 0.0, 0.0, 0.0, 0.0, 0.0, 1.763226317370786E9, 0.0, 2025-11-15 12:05:17.370
17.0, -754.8127883570269, -164.34429370285943, -190.0673255980946, -151.20976505847648, -0.03200000151991844, 0.19200000911951065, 1.0240000486373901, 0.0, 0.0, 0.0, 0.0, 0.0, 1.763226317370786E9, 0.0, 2025-11-15 12:05:17.370
18.0, -538.2725809225813, 10.174397829454392, -54.58570980327204, -38.672435491811484, -0.03200000151991844, 0.19200000911951065, 1.0240000486373901, 0.0, 0.0, 0.0, 0.0, 0.0, 1.7632263173714852E9, 0.0, 2025-11-15 12:05:17.371
18.0, -552.0503723593429, 16.66686415253207, -26.02035394171253, -8.861692945007235, -0.03200000151991844, 0.19200000911951065, 1.0240000486373901, 0.0, 0.0, 0.0, 0.0, 0.0, 1.7632263173714852E9, 0.0, 2025-11-15 12:05:17.371
19.0, -759.3044082038105, -164.8417003969662, -190.61709089158103, -154.23160422267392, -0.03200000151991844, 0.19200000911951065, 1.0240000486373901, 0.0, 0.0, 0.0, 0.0, 0.0, 1.7632263173851316E9, 0.0, 2025-11-15 12:05:17.385
19.0, -627.22236146871, -69.63132732501253, -121.26812601322308, -91.96226996043697, -0.03200000151991844, 0.19200000911951065, 1.0240000486373901, 0.0, 0.0, 0.0, 0.0, 0.0, 1.7632263173851316E9, 0.0, 2025-11-15 12:05:17.385
20.0, -460.774374040775, 97.97976898914203, 33.94894184777513, 34.06487874640152, -0.03200000151991844, 0.19200000911951065, 1.0240000486373901, 0.0, 0.0, 0.0, 0.0, 0.0, 1.763226317400778E9, 0.0, 2025-11-15 12:05:17.400
20.0, -251.70835666777566, -141.27659077616408, -164.89779889630154, -132.24099248321727, -0.03200000151991844, 0.19200000911951065, 1.0240000486373901, 0.0, 0.0, 0.0, 0.0, 0.0, 1.763226317400778E9, 0.0, 2025-11-15 12:05:17.400
21.0, -218.48682536138222, -134.58216985547915, -173.71648299181834, -137.07668312592432, -0.03200000151991844, 0.19200000911951065, 1.0240000486373901, 0.0, 0.0, 0.0, 0.0, 0.0, 1.7632263174014685E9, 0.0, 2025-11-15 12:05:17.401
21.0, -457.63659797795117, 88.90303179668263, 12.025648307520896, 16.064740259665996, -0.03200000151991844, 0.19200000911951065, 1.0240000486373901, 0.0, 0.0, 0.0, 0.0, 0.0, 1.7632263174014685E9, 0.0, 2025-11-15 12:05:17.401
22.0, -669.591688066721, -77.95260472642258, -105.36981130158529, -79.36254700971767, -0.03200000151991844, 0.19200000911951065, 1.0240000486373901, 0.0, 0.0, 0.0, 0.0, 0.0, 1.7632263174151356E9, 0.0, 2025-11-15 12:05:17.415
22.0, -750.6203605066985, -164.3966523022391, -192.8834702647291, -160.66797204641625, -0.03200000151991844, 0.19200000911951065, 1.0240000486373901, 0.0, 0.0, 0.0, 0.0, 0.0, 1.7632263174151356E9, 0.0, 2025-11-15 12:05:17.415
23.0, -549.9672480840236, 4.8487802925519645, -56.17142738448456, -51.507772139739245, -0.03200000151991844, 0.19200000911951065, 1.0240000486373901, 0.0, 0.0, 0.0, 0.0, 0.0, 1.7632263174307704E9, 0.0, 2025-11-15 12:05:17.430
23.0, -552.5365593535826, 16.068480159621686, -29.749034197535366, -18.536814130377024, -0.03200000151991844, 0.19200000911951065, 1.0240000486373901, 0.0, 0.0, 0.0, 0.0, 0.0, 1.7632263174307704E9, 0.0, 2025-11-15 12:05:17.430
24.0, -759.0837541064247, -168.45070385420695, -187.17264303239062, -149.0181836844422, -0.03200000151991844, 0.19200000911951065, 1.0240000486373901, 0.0, 0.0, 0.0, 0.0, 0.0, 1.7632263174314816E9, 0.0, 2025-11-15 12:05:17.431
24.0, -636.063484963961, -76.65485944179818, -127.03505174489692, -103.82149271992967, -0.03200000151991844, 0.19200000911951065, 1.0240000486373901, 0.0, 0.0, 0.0, 0.0, 0.0, 1.7632263174314816E9, 0.0, 2025-11-15 12:05:17.431
25.0, -465.7409611819312, 95.27208142122254, 35.50848012929782, 36.622970316093415, -0.03200000151991844, 0.19200000911951065, 1.0240000486373901, 0.0, 0.0, 0.0, 0.0, 0.0, 1.7632263174451213E9, 0.0, 2025-11-15 12:05:17.445
25.0, -242.45210427744314, -137.11034222552553, -155.21893781097606, -131.2686184947379, -0.03200000151991844, 0.19200000911951065, 1.0240000486373901, 0.0, 0.0, 0.0, 0.0, 0.0, 1.7632263174451213E9, 0.0, 2025-11-15 12:05:17.445
26.0, -220.4540127380751, -132.54392437962815, -166.8014079737477, -135.01599825033918, -0.03200000151991844, 0.19200000911951065, 1.0240000486373901, 0.0, 0.0, 0.0, 0.0, 0.0, 1.7632263174608245E9, 0.0, 2025-11-15 12:05:17.460
26.0, -452.464316339232, 94.60263932915404, 21.57361289439723, 20.732135404367, -0.03200000151991844, 0.19200000911951065, 1.0240000486373901, 0.0, 0.0, 0.0, 0.0, 0.0, 1.7632263174608245E9, 0.0, 2025-11-15 12:05:17.460
27.0, -665.309502617456, -74.91580596240237, -99.95817606570199, -78.91375901503488, -0.03200000151991844, 0.19200000911951065, 1.0240000486373901, 0.0, 0.0, 0.0, 0.0, 0.0, 1.7632263174614897E9, 0.0, 2025-11-15 12:05:17.461
27.0, -755.7702027456835, -161.25513633945957, -193.1078642620705, -155.3124353098683, -0.03200000151991844, 0.19200000911951065, 1.0240000486373901, 0.0, 0.0, 0.0, 0.0, 0.0, 1.7632263174614897E9, 0.0, 2025-11-15 12:05:17.461
28.0, -539.0430003134534, 13.802100786473602, -54.365055705886334, -46.18589450279251, -0.03200000151991844, 0.19200000911951065, 1.0240000486373901, 0.0, 0.0, 0.0, 0.0, 0.0, 1.763226317475127E9, 0.0, 2025-11-15 12:05:17.475
28.0, -547.9327425081283, 26.37938433745876, -17.283947645220906, -9.609672936145216, -0.03200000151991844, 0.19200000911951065, 1.0240000486373901, 0.0, 0.0, 0.0, 0.0, 0.0, 1.763226317475127E9, 0.0, 2025-11-15 12:05:17.475
29.0, -754.1396063650027, -160.74650994548574, -181.82084619579837, -145.25584432901815, -0.03200000151991844, 0.19200000911951065, 1.0240000486373901, 0.0, 0.0, 0.0, 0.0, 0.0, 1.7632263174907734E9, 0.0, 2025-11-15 12:05:17.490
29.0, -641.5910570984706, -74.85970746306702, -116.50349346967414, -87.99423610744998, -0.03200000151991844, 0.19200000911951065, 1.0240000486373901, 0.0, 0.0, 0.0, 0.0, 0.0, 1.7632263174907734E9, 0.0, 2025-11-15 12:05:17.490
30.0, -448.8814921816811, 107.81570587260649, 51.907941434998065, 50.61019615037367, -0.03200000151991844, 0.19200000911951065, 1.0240000486373901, 0.0, 0.0, 0.0, 0.0, 0.0, 1.7632263174914784E9, 0.0, 2025-11-15 12:05:17.491
30.0, -224.00317779602483, -118.59783744486049, -138.32206981116906, -113.83320490131155, -0.03200000151991844, 0.19200000911951065, 1.0240000486373901, 0.0, 0.0, 0.0, 0.0, 0.0, 1.7632263174914784E9, 0.0, 2025-11-15 12:05:17.491
31.0, -216.8225698811002, -122.3377374005504, -157.52645608363673, -131.3733356934972, -0.03200000151991844, 0.19200000911951065, 1.0240000486373901, 0.0, 0.0, 0.0, 0.0, 0.0, 1.7632263175051715E9, 0.0, 2025-11-15 12:05:17.505
31.0, -451.0319346562028, 109.34158505452797, 42.07200455153361, 39.25211998494342, -0.03200000151991844, 0.19200000911951065, 1.0240000486373901, 0.0, 0.0, 0.0, 0.0, 0.0, 1.7632263175051715E9, 0.0, 2025-11-15 12:05:17.505
32.0, -656.722692319192, -54.88490179972723, -80.12174670072272, -63.621308096218854, -0.03200000151991844, 0.19200000911951065, 1.0240000486373901, 0.0, 0.0, 0.0, 0.0, 0.0, 1.763226317520771E9, 0.0, 2025-11-15 12:05:17.520
32.0, -732.9156741164625, -144.69485933566466, -176.5438473583199, -148.7563906875439, -0.03200000151991844, 0.19200000911951065, 1.0240000486373901, 0.0, 0.0, 0.0, 0.0, 0.0, 1.763226317520771E9, 0.0, 2025-11-15 12:05:17.520
33.0, -524.7042238833383, 33.32063865521923, -35.54961902881041, -26.259707538876683, -0.03200000151991844, 0.19200000911951065, 1.0240000486373901, 0.0, 0.0, 0.0, 0.0, 0.0, 1.7632263175214784E9, 0.0, 2025-11-15 12:05:17.521
33.0, -531.0096952086315, 45.535151910502464, 5.783755281474441, 11.819953809957951, -0.03200000151991844, 0.19200000911951065, 1.0240000486373901, 0.0, 0.0, 0.0, 0.0, 0.0, 1.7632263175214784E9, 0.0, 2025-11-15 12:05:17.521
34.0, -735.7542581828311, -147.89621369773522, -162.70995742222294, -130.79365120036528, -0.03200000151991844, 0.19200000911951065, 1.0240000486373901, 0.0, 0.0, 0.0, 0.0, 0.0, 1.7632263175351565E9, 0.0, 2025-11-15 12:05:17.535
34.0, -618.0521267773584, -50.50173905165866, -97.41504409583285, -82.20861087599769, -0.03200000151991844, 0.19200000911951065, 1.0240000486373901, 0.0, 0.0, 0.0, 0.0, 0.0, 1.7632263175351565E9, 0.0, 2025-11-15 12:05:17.535
35.0, -439.2886487953365, 112.7374142142944, 53.179507419932634, 53.508618616033345, -0.03200000151991844, 0.19200000911951065, 1.0240000486373901, 0.0, 0.0, 0.0, 0.0, 0.0, 1.7632263175507712E9, 0.0, 2025-11-15 12:05:17.550
35.0, -216.47475918522105, -119.64126953249797, -146.20577891776338, -119.53281243378296, -0.03200000151991844, 0.19200000911951065, 1.0240000486373901, 0.0, 0.0, 0.0, 0.0, 0.0, 1.7632263175507712E9, 0.0, 2025-11-15 12:05:17.550
36.0, -221.0075179315172, -127.0799305443652, -167.74760266253725, -147.21555190579966, -0.03200000151991844, 0.19200000911951065, 1.0240000486373901, 0.0, 0.0, 0.0, 0.0, 0.0, 1.763226317551476E9, 0.0, 2025-11-15 12:05:17.551
36.0, -443.5147357452661, 106.36836458975449, 28.989834506530315, 22.35525198513642, -0.03200000151991844, 0.19200000911951065, 1.0240000486373901, 0.0, 0.0, 0.0, 0.0, 0.0, 1.763226317551476E9, 0.0, 2025-11-15 12:05:17.551
37.0, -628.2545738564804, -48.1156828799285, -76.06769514875486, -59.178306948859245, -0.03200000151991844, 0.19200000911951065, 1.0240000486373901, 0.0, 0.0, 0.0, 0.0, 0.0, 1.7632263175651112E9, 0.0, 2025-11-15 12:05:17.565
37.0, -740.036443632096, -152.6122275418602, -176.05018056416884, -146.92009980930015, -0.03200000151991844, 0.19200000911951065, 1.0240000486373901, 0.0, 0.0, 0.0, 0.0, 0.0, 1.7632263175651112E9, 0.0, 2025-11-15 12:05:17.565
38.0, -513.5555821154267, 40.5573450694792, -33.09998455783352, -33.3318583550863, -0.03200000151991844, 0.19200000911951065, 1.0240000486373901, 0.0, 0.0, 0.0, 0.0, 0.0, 1.7632263175807896E9, 0.0, 2025-11-15 12:05:17.580
38.0, -534.3456859691069, 42.689088044222444, -2.814274716656655, -2.335567522328347, -0.03200000151991844, 0.19200000911951065, 1.0240000486373901, 0.0, 0.0, 0.0, 0.0, 0.0, 1.7632263175807896E9, 0.0, 2025-11-15 12:05:17.580
39.0, -754.7903489572927, -154.95340491412207, -186.480761540588, -159.5048631601967, -0.03200000151991844, 0.19200000911951065, 1.0240000486373901, 0.0, 0.0, 0.0, 0.0, 0.0, 1.763226317581512E9, 0.0, 2025-11-15 12:05:17.581
39.0, -625.9208762841299, -58.1947132605128, -113.78084630193189, -98.41733728395775, -0.03200000151991844, 0.19200000911951065, 1.0240000486373901, 0.0, 0.0, 0.0, 0.0, 0.0, 1.763226317581512E9, 0.0, 2025-11-15 12:05:17.581
40.0, -448.918891181238, 102.78554043220356, 36.34995761932805, 27.744447821285576, -0.03200000151991844, 0.19200000911951065, 1.0240000486373901, 0.0, 0.0, 0.0, 0.0, 0.0, 1.7632263175951023E9, 0.0, 2025-11-15 12:05:17.595
40.0, -243.03926857048646, -137.95555961551145, -157.76580968080088, -132.94783357484266, -0.03200000151991844, 0.19200000911951065, 1.0240000486373901, 0.0, 0.0, 0.0, 0.0, 0.0, 1.7632263175951023E9, 0.0, 2025-11-15 12:05:17.595
41.0, -223.06820280710235, -132.0465176855214, -164.31063460325822, -133.99126566248015, -0.03200000151991844, 0.19200000911951065, 1.0240000486373901, 0.0, 0.0, 0.0, 0.0, 0.0, 1.763226317610796E9, 0.0, 2025-11-15 12:05:17.610
41.0, -452.138945043087, 97.0298344003968, 26.858091531787068, 20.077652912121266, -0.03200000151991844, 0.19200000911951065, 1.0240000486373901, 0.0, 0.0, 0.0, 0.0, 0.0, 1.763226317610796E9, 0.0, 2025-11-15 12:05:17.610
42.0, -651.8196834772825, -66.35143506387249, -88.1326124058105, -68.98432463267818, -0.03200000151991844, 0.19200000911951065, 1.0240000486373901, 0.0, 0.0, 0.0, 0.0, 0.0, 1.7632263176114764E9, 0.0, 2025-11-15 12:05:17.611
42.0, -760.6395524879918, -176.52514785854146, -202.72314704814926, -174.0268946881406, -0.03200000151991844, 0.19200000911951065, 1.0240000486373901, 0.0, 0.0, 0.0, 0.0, 0.0, 1.7632263176114764E9, 0.0, 2025-11-15 12:05:17.611
43.0, -550.4197759786621, 3.3229011106304824, -66.70298565970734, -58.55000375630334, -0.03200000151991844, 0.19200000911951065, 1.0240000486373901, 0.0, 0.0, 0.0, 0.0, 0.0, 1.763226317625135E9, 0.0, 2025-11-15 12:05:17.625
43.0, -536.840199239552, 30.111804493237287, -16.29287415696308, -11.692797211464494, -0.03200000151991844, 0.19200000911951065, 1.0240000486373901, 0.0, 0.0, 0.0, 0.0, 0.0, 1.763226317625135E9, 0.0, 2025-11-15 12:05:17.625
44.0, -761.9372977726161, -168.56664075283334, -188.79575961316004, -154.16054612351581, -0.03200000151991844, 0.19200000911951065, 1.0240000486373901, 0.0, 0.0, 0.0, 0.0, 0.0, 1.7632263176408825E9, 0.0, 2025-11-15 12:05:17.640
44.0, -649.2877712072805, -83.00894946651533, -134.75794515339658, -113.1450633094646, -0.03200000151991844, 0.19200000911951065, 1.0240000486373901, 0.0, 0.0, 0.0, 0.0, 0.0, 1.7632263176408825E9, 0.0, 2025-11-15 12:05:17.640
45.0, -459.45418935641646, 92.39983825525269, 23.56697957077995, 28.615844510961324, -0.03200000151991844, 0.19200000911951065, 1.0240000486373901, 0.0, 0.0, 0.0, 0.0, 0.0, 1.7632263176414902E9, 0.0, 2025-11-15 12:05:17.641
45.0, -232.3506344971247, -136.22398593602702, -154.6093341181986, -121.88520950591192, -0.03200000151991844, 0.19200000911951065, 1.0240000486373901, 0.0, 0.0, 0.0, 0.0, 0.0, 1.7632263176414902E9, 0.0, 2025-11-15 12:05:17.641
46.0, -243.80968796135858, -147.06595590757206, -182.1050785924308, -152.6047477419488, -0.03200000151991844, 0.19200000911951065, 1.0240000486373901, 0.0, 0.0, 0.0, 0.0, 0.0, 1.7632263176550918E9, 0.0, 2025-11-15 12:05:17.655
46.0, -458.83710586372763, 84.1309194532223, 11.09067331859842, 7.261015763971955, -0.03200000151991844, 0.19200000911951065, 1.0240000486373901, 0.0, 0.0, 0.0, 0.0, 0.0, 1.7632263176550918E9, 0.0, 2025-11-15 12:05:17.655
47.0, -667.5871016904712, -76.58380134264007, -100.53412065887824, -75.42069245642051, -0.03200000151991844, 0.19200000911951065, 1.0240000486373901, 0.0, 0.0, 0.0, 0.0, 0.0, 1.763226317670832E9, 0.0, 2025-11-15 12:05:17.670
47.0, -765.1274324348196, -174.01193508831784, -200.50164647446945, -166.99214287148789, -0.03200000151991844, 0.19200000911951065, 1.0240000486373901, 0.0, 0.0, 0.0, 0.0, 0.0, 1.763226317670832E9, 0.0, 2025-11-15 12:05:17.670
48.0, -544.9258629437536, 1.6399461305700243, -64.48896488593891, -51.934120734687895, -0.03200000151991844, 0.19200000911951065, 1.0240000486373901, 0.0, 0.0, 0.0, 0.0, 0.0, 1.7632263176715038E9, 0.0, 2025-11-15 12:05:17.671
48.0, -534.1699106711894, 35.31400533160195, -14.71837627561763, -7.762162358034402, -0.03200000151991844, 0.19200000911951065, 1.0240000486373901, 0.0, 0.0, 0.0, 0.0, 0.0, 1.7632263176715038E9, 0.0, 2025-11-15 12:05:17.671
49.0, -769.3236001851037, -165.70561728673056, -193.11908396193758, -155.29747571004555, -0.03200000151991844, 0.19200000911951065, 1.0240000486373901, 0.0, 0.0, 0.0, 0.0, 0.0, 1.7632263176851077E9, 0.0, 2025-11-15 12:05:17.685
49.0, -641.1983676031232, -81.90193907963112, -132.61124257883057, -111.56308562820777, -0.03200000151991844, 0.19200000911951065, 1.0240000486373901, 0.0, 0.0, 0.0, 0.0, 0.0, 1.7632263176851077E9, 0.0, 2025-11-15 12:05:17.685
50.0, -468.43368915002793, 89.51263548946008, 30.32123889075592, 25.16391685185954, -0.03200000151991844, 0.19200000911951065, 1.0240000486373901, 0.0, 0.0, 0.0, 0.0, 0.0, 1.7632263177007709E9, 0.0, 2025-11-15 12:05:17.700
50.0, -253.98221584083512, -147.43620600318536, -162.17889162851498, -138.37068851059303, -0.03200000151991844, 0.19200000911951065, 1.0240000486373901, 0.0, 0.0, 0.0, 0.0, 0.0, 1.7632263177007709E9, 0.0, 2025-11-15 12:05:17.700
51.0, -237.19006503978744, -145.51389742596075, -177.1010924517177, -147.7204383998178, -0.03200000151991844, 0.19200000911951065, 1.0240000486373901, 0.0, 0.0, 0.0, 0.0, 0.0, 1.763226317701474E9, 0.0, 2025-11-15 12:05:17.701
51.0, -461.13340443652123, 83.30066166305915, 13.177537493873388, 14.011535183992237, -0.03200000151991844, 0.19200000911951065, 1.0240000486373901, 0.0, 0.0, 0.0, 0.0, 0.0, 1.763226317701474E9, 0.0, 2025-11-15 12:05:17.701
52.0, -653.1174287619069, -70.52890331437811, -94.73727572755888, -77.04380903718993, -0.03200000151991844, 0.19200000911951065, 1.0240000486373901, 0.0, 0.0, 0.0, 0.0, 0.0, 1.7632263177151327E9, 0.0, 2025-11-15 12:05:17.715
52.0, -743.9184597861022, -166.96970347175375, -193.37713705888018, -155.88837990304455, -0.03200000151991844, 0.19200000911951065, 1.0240000486373901, 0.0, 0.0, 0.0, 0.0, 0.0, 1.7632263177151327E9, 0.0, 2025-11-15 12:05:17.715
53.0, -550.6666093757376, 0.9817237383686006, -63.628787896130234, -53.987325810361654, -0.03200000151991844, 0.19200000911951065, 1.0240000486373901, 0.0, 0.0, 0.0, 0.0, 0.0, 1.7632263177307875E9, 0.0, 2025-11-15 12:05:17.730
53.0, -548.4638083018363, 20.25342821003869, -19.16137742297724, -5.361146586481482, -0.03200000151991844, 0.19200000911951065, 1.0240000486373901, 0.0, 0.0, 0.0, 0.0, 0.0, 1.7632263177307875E9, 0.0, 2025-11-15 12:05:17.730
54.0, -777.1699102921411, -179.3300728253089, -194.6300035440363, -157.7957288804464, -0.03200000151991844, 0.19200000911951065, 1.0240000486373901, 0.0, 0.0, 0.0, 0.0, 0.0, 1.763226317731479E9, 0.0, 2025-11-15 12:05:17.731
54.0, -649.2017535082996, -85.63809913536534, -137.83588281692937, -114.43158889422193, -0.03200000151991844, 0.19200000911951065, 1.0240000486373901, 0.0, 0.0, 0.0, 0.0, 0.0, 1.763226317731479E9, 0.0, 2025-11-15 12:05:17.731
55.0, -459.592565654777, 89.6547516877763, 24.124224664177746, 17.983308936934918, -0.03200000151991844, 0.19200000911951065, 1.0240000486373901, 0.0, 0.0, 0.0, 0.0, 0.0, 1.763226317745164E9, 0.0, 2025-11-15 12:05:17.745
55.0, -244.4342512539588, -139.09622910199687, -157.1337665882893, -126.03649845672771, -0.03200000151991844, 0.19200000911951065, 1.0240000486373901, 0.0, 0.0, 0.0, 0.0, 0.0, 1.763226317745164E9, 0.0, 2025-11-15 12:05:17.745
56.0, -234.2430238747038, -142.0170909673907, -173.35371269611642, -140.33039608737454, -0.03200000151991844, 0.19200000911951065, 1.0240000486373901, 0.0, 0.0, 0.0, 0.0, 0.0, 1.7632263177607589E9, 0.0, 2025-11-15 12:05:17.760
56.0, -457.2139892829582, 90.38777207909152, 16.483609054703265, 16.371412056032568, -0.03200000151991844, 0.19200000911951065, 1.0240000486373901, 0.0, 0.0, 0.0, 0.0, 0.0, 1.7632263177607589E9, 0.0, 2025-11-15 12:05:17.760
57.0, -656.6703337198123, -66.56460936134681, -93.36473244382069, -72.48113109124824, -0.03200000151991844, 0.19200000911951065, 1.0240000486373901, 0.0, 0.0, 0.0, 0.0, 0.0, 1.7632263177614741E9, 0.0, 2025-11-15 12:05:17.761
57.0, -753.3130884747952, -165.93001128407195, -188.42550951754674, -151.95026524970308, -0.03200000151991844, 0.19200000911951065, 1.0240000486373901, 0.0, 0.0, 0.0, 0.0, 0.0, 1.7632263177614741E9, 0.0, 2025-11-15 12:05:17.761
58.0, -541.9676020788029, 9.220723340753466, -52.723239625338465, -39.24838008498773, -0.03200000151991844, 0.19200000911951065, 1.0240000486373901, 0.0, 0.0, 0.0, 0.0, 0.0, 1.7632263177751164E9, 0.0, 2025-11-15 12:05:17.775
58.0, -529.8952050218359, 37.875836801249534, -2.3841862217523158, 1.7820623288862407, -0.03200000151991844, 0.19200000911951065, 1.0240000486373901, 0.0, 0.0, 0.0, 0.0, 0.0, 1.7632263177751164E9, 0.0, 2025-11-15 12:05:17.775
59.0, -750.4520650086924, -158.10240067681298, -179.41983042424545, -148.41605979157612, -0.03200000151991844, 0.19200000911951065, 1.0240000486373901, 0.0, 0.0, 0.0, 0.0, 0.0, 1.7632263177908015E9, 0.0, 2025-11-15 12:05:17.790
59.0, -655.8363360296935, -81.01184289017692, -126.72464004857466, -99.86093866685405, -0.03200000151991844, 0.19200000911951065, 1.0240000486373901, 0.0, 0.0, 0.0, 0.0, 0.0, 1.7632263177908015E9, 0.0, 2025-11-15 12:05:17.790
60.0, -451.52186155039817, 97.42252389574423, 33.17104265699163, 31.891996872145683, -0.03200000151991844, 0.19200000911951065, 1.0240000486373901, 0.0, 0.0, 0.0, 0.0, 0.0, 1.7632263177914767E9, 0.0, 2025-11-15 12:05:17.791
60.0, -246.7642089263536, -141.84879546938464, -157.44043838465586, -128.80402442393824, -0.03200000151991844, 0.19200000911951065, 1.0240000486373901, 0.0, 0.0, 0.0, 0.0, 0.0, 1.7632263177914767E9, 0.0, 2025-11-15 12:05:17.791
61.0, -226.47899156669155, -139.2346054003574, -169.9130047368817, -138.76711790589616, -0.03200000151991844, 0.19200000911951065, 1.0240000486373901, 0.0, 0.0, 0.0, 0.0, 0.0, 1.7632263178051052E9, 0.0, 2025-11-15 12:05:17.805
61.0, -463.1454706126824, 90.0250017833896, 22.441269684117287, 23.028433977160603, -0.03200000151991844, 0.19200000911951065, 1.0240000486373901, 0.0, 0.0, 0.0, 0.0, 0.0, 1.7632263178051052E9, 0.0, 2025-11-15 12:05:17.805
62.0, -662.7027923483402, -69.69490562425926, -88.17749120527878, -64.35432848753408, -0.03200000151991844, 0.19200000911951065, 1.0240000486373901, 0.0, 0.0, 0.0, 0.0, 0.0, 1.7632263178207653E9, 0.0, 2025-11-15 12:05:17.820
62.0, -756.2489099400118, -168.93689084844664, -188.64990351488814, -155.32365500973538, -0.03200000151991844, 0.19200000911951065, 1.0240000486373901, 0.0, 0.0, 0.0, 0.0, 0.0, 1.7632263178207653E9, 0.0, 2025-11-15 12:05:17.820
63.0, -548.8265785975382, 1.2996152346022427, -60.55833003250882, -50.86450934736058, -0.03200000151991844, 0.19200000911951065, 1.0240000486373901, 0.0, 0.0, 0.0, 0.0, 0.0, 1.7632263178214707E9, 0.0, 2025-11-15 12:05:17.821
63.0, -548.7181214988232, 26.596298534888774, -16.939876849297434, -6.8234474691562355, -0.03200000151991844, 0.19200000911951065, 1.0240000486373901, 0.0, 0.0, 0.0, 0.0, 0.0, 1.7632263178214707E9, 0.0, 2025-11-15 12:05:17.821
