%OpenBCI Raw EXG Data
%Number of channels = 4
%Sample Rate = 200 Hz
%Board = OpenBCI_GUI$BoardGanglionBLE
Sample Index, EXG Channel 0, EXG Channel 1, EXG Channel 2, EXG Channel 3, Accel Channel 0, Accel Channel 1, Accel Channel 2, Other, Other, Other, Other, Other, Timestamp, Marker Channel, Timestamp (Formatted)
86.0, 172.8993148515001, 150.3664176184684, 125.49234301317483, 135.1375449988991, 0.0, 0.0, 0.0, 0.0, 0.0, 0.0, 0.0, 0.0, 1.7632280102040913E9, 0.0, 2025-11-15 12:33:30.204
86.0, 66.66745661012828, 71.17777595669031, 73.86302412487566, 63.439922948367894, 0.0, 0.0, 0.0, 0.0, 0.0, 0.0, 0.0, 0.0, 1.7632280102040913E9, 0.0, 2025-11-15 12:33:30.204
0.0, -275.61005728458986, -180.42960341228172, -221.21695232903585, -188.15623672073707, 0.0, 0.0, 0.0, 0.0, 0.0, 0.0, 0.0, 0.0, 1.7632280102299132E9, 0.0, 2025-11-15 12:33:30.229
1.0, -294.35443586250767, -200.99157336866483, -245.94143093610182, -206.08531710831448, 0.0, 0.2240000106394291, 0.0, 0.0, 0.0, 0.0, 0.0, 0.0, 1.7632280102433872E9, 0.0, 2025-11-15 12:33:30.243
1.0, -519.3075482472777, 32.247287367936224, -48.87862247088924, 6.438237773720175, 0.0, 0.2240000106394291, 0.0, 0.0, 0.0, 0.0, 0.0, 0.0, 1.7632280102433872E9, 0.0, 2025-11-15 12:33:30.243
2.0, -685.4002451794222, -98.40237768413499, -144.642500736285, -100.30598676158115, -0.03200000151991844, 0.2240000106394291, 0.0, 0.0, 0.0, 0.0, 0.0, 0.0, 1.7632280102601924E9, 0.0, 2025-11-15 12:33:30.260
2.0, -827.3631075974554, -234.04480917705223, -273.79620580608025, -232.29827589774504, -0.03200000151991844, 0.2240000106394291, 0.0, 0.0, 0.0, 0.0, 0.0, 0.0, 1.7632280102601924E9, 0.0, 2025-11-15 12:33:30.260
3.0, -625.8647777847946, -75.88444005092606, -139.06257000239566, -80.2040244997479, -0.03200000151991844, 0.2240000106394291, 0.0, 0.0, 0.0, 0.0, 0.0, 0.0, 1.7632280102608373E9, 0.0, 2025-11-15 12:33:30.260
3.0, -592.6918651778251, -22.523547483142465, -78.30041542230174, -30.74010768579319, -0.03200000151991844, 0.2240000106394291, 0.0, 0.0, 0.0, 0.0, 0.0, 0.0, 1.7632280102608373E9, 0.0, 2025-11-15 12:33:30.260
4.0, -811.700406583026, -220.36425513913855, -260.08199266856536, -217.5668099722825, -0.03200000151991844, 0.2240000106394291, 0.0, 0.0, 0.0, 0.0, 0.0, 0.0, 1.763228010273197E9, 0.0, 2025-11-15 12:33:30.273
4.0, -719.2612993782386, -150.65251996507868, -206.92305469838902, -155.15161961177364, -0.03200000151991844, 0.2240000106394291, 0.0, 0.0, 0.0, 0.0, 0.0, 0.0, 1.763228010273197E9, 0.0, 2025-11-15 12:33:30.273
5.0, -537.3301261337474, 20.500261607114226, -52.55868402728811, -3.0386687139980495, -0.03200000151991844, 0.2240000106394291, 0.0, 0.0, 0.0, 0.0, 0.0, 0.0, 1.7632280102888796E9, 0.0, 2025-11-15 12:33:30.288
5.0, -775.7936271084473, -186.7762136370875, -217.7837241697125, -161.88343953201547, -0.03200000151991844, 0.2240000106394291, 0.0, 0.0, 0.0, 0.0, 0.0, 0.0, 1.7632280102888796E9, 0.0, 2025-11-15 12:33:30.288
6.0, -801.8345504999161, -222.7540512108244, -264.2183220195584, -219.62749484786764, -0.03200000151991844, 0.2240000106394291, 0.0, 0.0, 0.0, 0.0, 0.0, 0.0, 1.763228010289584E9, 0.0, 2025-11-15 12:33:30.289
6.0, -1039.2864085366018, -6.909465168137103, -90.54858777718619, -41.98598685255274, -0.03200000151991844, 0.2240000106394291, 0.0, 0.0, 0.0, 0.0, 0.0, 0.0, 1.763228010289584E9, 0.0, 2025-11-15 12:33:30.289
7.0, -1163.4772663651966, -105.30249310238287, -150.85821446264163, -107.92790287127718, -0.03200000151991844, 0.2240000106394291, 0.0, 0.0, 0.0, 0.0, 0.0, 0.0, 1.7632280103032458E9, 0.0, 2025-11-15 12:33:30.303
7.0, -1304.146123398561, -224.58286228915676, -261.8509653476067, -218.91691385628656, -0.03200000151991844, 0.2240000106394291, 0.0, 0.0, 0.0, 0.0, 0.0, 0.0, 1.7632280103032458E9, 0.0, 2025-11-15 12:33:30.303
8.0, -1115.5205292333849, -75.22995755868033, -143.13532105414197, -100.07785286428407, -0.03200000151991844, 0.2240000106394291, 0.0, 0.0, 0.0, 0.0, 0.0, 0.0, 1.7632280103188758E9, 0.0, 2025-11-15 12:33:30.318
8.0, -1083.7500791097991, -14.26958828093484, -81.21005758782849, -36.49207381764427, -0.03200000151991844, 0.2240000106394291, 0.0, 0.0, 0.0, 0.0, 0.0, 0.0, 1.7632280103188758E9, 0.0, 2025-11-15 12:33:30.318
9.0, -1314.0979971806519, -227.9749515489675, -266.997067686636, -236.02695615356788, -0.03200000151991844, 0.2240000106394291, 0.0, 0.0, 0.0, 0.0, 0.0, 0.0, 1.7632280103195992E9, 0.0, 2025-11-15 12:33:30.319
9.0, -1219.1269777058624, -155.60414750641212, -212.50298543227836, -177.12353185145184, -0.03200000151991844, 0.2240000106394291, 0.0, 0.0, 0.0, 0.0, 0.0, 0.0, 1.7632280103195992E9, 0.0, 2025-11-15 12:33:30.319
10.0, -1022.0903485403396, 24.33739896165207, -52.352989529725164, -6.0567679782398045, -0.03200000151991844, 0.2240000106394291, 1.0240000486373901, 0.0, 0.0, 0.0, 0.0, 0.0, 1.7632280103332539E9, 0.0, 2025-11-15 12:33:30.333
10.0, -1257.7638841480948, -180.94944950612262, -220.18100004130974, -180.47448221175, -0.03200000151991844, 0.2240000106394291, 1.0240000486373901, 0.0, 0.0, 0.0, 0.0, 0.0, 1.7632280103332539E9, 0.0, 2025-11-15 12:33:30.333
11.0, -1279.7283165878616, -205.43457451602444, -253.14447825076059, -214.96383960312232, -0.03200000151991844, 0.11200000531971455, 1.0240000486373901, 0.0, 0.0, 0.0, 0.0, 0.0, 1.7632280103488677E9, 0.0, 2025-11-15 12:33:30.348
11.0, -1042.7495558955707, 6.180184676777571, -67.52576364995912, -17.44102344335988, -0.03200000151991844, 0.11200000531971455, 1.0240000486373901, 0.0, 0.0, 0.0, 0.0, 0.0, 1.7632280103488677E9, 0.0, 2025-11-15 12:33:30.348
12.0, -1166.873095524963, -99.38223147252575, -153.02735643694177, -118.56791824521497, -0.01600000075995922, 0.11200000531971455, 1.0240000486373901, 0.0, 0.0, 0.0, 0.0, 0.0, 1.7632280103495767E9, 0.0, 2025-11-15 12:33:30.349
12.0, -1281.6094862655737, -214.7843244052492, -261.27128085447475, -233.38284688489512, -0.01600000075995922, 0.11200000531971455, 1.0240000486373901, 0.0, 0.0, 0.0, 0.0, 0.0, 1.7632280103495767E9, 0.0, 2025-11-15 12:33:30.349
13.0, -1165.9343806360848, -88.30838770372793, -151.91660615010187, -109.82029224885628, -0.01600000075995922, 0.11200000531971455, 1.0240000486373901, 0.0, 0.0, 0.0, 0.0, 0.0, 1.7632280103632407E9, 0.0, 2025-11-15 12:33:30.363
13.0, -1031.5971742277034, 35.09335123421624, -31.60776447551325, 24.172843363601714, -0.01600000075995922, 0.11200000531971455, 1.0240000486373901, 0.0, 0.0, 0.0, 0.0, 0.0, 1.7632280103632407E9, 0.0, 2025-11-15 12:33:30.363
14.0, -813.9518263563514, 272.22357787471265, -257.8754516947083, -219.9715656437911, -0.01600000075995922, 0.11200000531971455, 1.0240000486373901, 0.0, 0.0, 0.0, 0.0, 0.0, 1.7632280103788743E9, 0.0, 2025-11-15 12:33:30.378
14.0, -738.0056779561564, 328.3332969099283, -216.7178526823409, -177.71069614449516, -0.01600000075995922, 0.11200000531971455, 1.0240000486373901, 0.0, 0.0, 0.0, 0.0, 0.0, 1.7632280103788743E9, 0.0, 2025-11-15 12:33:30.378
15.0, -513.8510342119262, 544.0619460539892, -21.719468992669135, 13.85071948589757, -0.01600000075995922, 0.11200000531971455, 1.0240000486373901, 0.0, 0.0, 0.0, 0.0, 0.0, 1.763228010379578E9, 0.0, 2025-11-15 12:33:30.379
15.0, -270.46021504560485, 317.20335464179516, -210.76019205292687, -193.19762186100706, -0.01600000075995922, 0.11200000531971455, 1.0240000486373901, 0.0, 0.0, 0.0, 0.0, 0.0, 1.763228010379578E9, 0.0, 2025-11-15 12:33:30.379
16.0, -287.80961094005033, 300.2578679425642, -234.18692537536845, -199.8883028817363, -0.01600000075995922, 0.11200000531971455, 1.0240000486373901, 0.0, 0.0, 0.0, 0.0, 0.0, 1.7632280103932204E9, 0.0, 2025-11-15 12:33:30.393
16.0, -58.19097336055711, 513.1142739206553, -53.62829541461542, -9.684470935259014, -0.01600000075995922, 0.11200000531971455, 1.0240000486373901, 0.0, 0.0, 0.0, 0.0, 0.0, 1.7632280103932204E9, 0.0, 2025-11-15 12:33:30.393
17.0, -156.78969579236582, 433.1215537684038, -109.46126185311005, -72.97479788539931, -0.01600000075995922, 0.11200000531971455, 1.0240000486373901, 0.0, 0.0, 0.0, 0.0, 0.0, 1.763228010408919E9, 0.0, 2025-11-15 12:33:30.408
17.0, -284.9598071738146, 314.1141972783953, -222.4249400147237, -181.74230829672888, -0.01600000075995922, 0.11200000531971455, 1.0240000486373901, 0.0, 0.0, 0.0, 0.0, 0.0, 1.763228010408919E9, 0.0, 2025-11-15 12:33:30.408
18.0, -154.04460922488943, 426.4682717472315, -131.7435857891105, -91.00859547173604, -0.01600000075995922, 0.11200000531971455, 1.0240000486373901, 0.0, 0.0, 0.0, 0.0, 0.0, 1.7632280104095848E9, 0.0, 2025-11-15 12:33:30.409
18.0, -85.50720263691619, 491.4116344777867, -62.353482011239976, -25.638884146232158, -0.01600000075995922, 0.11200000531971455, 1.0240000486373901, 0.0, 0.0, 0.0, 0.0, 0.0, 1.7632280104095848E9, 0.0, 2025-11-15 12:33:30.409
19.0, -309.02980328863487, 292.0749668395147, -241.96217738324776, -214.04008431406692, -0.01600000075995922, 0.11200000531971455, 1.0240000486373901, 0.0, 0.0, 0.0, 0.0, 0.0, 1.7632280104232483E9, 0.0, 2025-11-15 12:33:30.423
19.0, -240.70183109818026, 350.275289949961, -200.68490157229826, -163.71225061034784, -0.01600000075995922, 0.11200000531971455, 1.0240000486373901, 0.0, 0.0, 0.0, 0.0, 0.0, 1.7632280104232483E9, 0.0, 2025-11-15 12:33:30.423
20.0, -483.2362131746486, 567.2680252790451, -1.2547364351339638, 39.824324678163975, -0.01600000075995922, 0.11200000531971455, 0.5120000243186951, 0.0, 0.0, 0.0, 0.0, 0.0, 1.76322801043893E9, 0.0, 2025-11-15 12:33:30.438
20.0, -252.04120776383206, 337.95231959596276, -200.31839137664065, -168.45444375416264, -0.01600000075995922, 0.11200000531971455, 0.5120000243186951, 0.0, 0.0, 0.0, 0.0, 0.0, 1.76322801043893E9, 0.0, 2025-11-15 12:33:30.438
21.0, -296.99854513118044, 290.22371636144817, -249.47937629418448, -212.01679843803868, -0.01600000075995922, 0.1600000075995922, 0.5120000243186951, 0.0, 0.0, 0.0, 0.0, 0.0, 1.7632280104396372E9, 0.0, 2025-11-15 12:33:30.439
21.0, -60.09458243800327, 508.82086877152324, -51.889241935219616, 2.889072715770453, -0.01600000075995922, 0.1600000075995922, 0.5120000243186951, 0.0, 0.0, 0.0, 0.0, 0.0, 1.7632280104396372E9, 0.0, 2025-11-15 12:33:30.439
22.0, -179.59560572216287, 408.94684045482427, -140.10974198998883, -99.16905717505142, -0.01600000075995922, 0.1600000075995922, 0.5120000243186951, 0.0, 0.0, 0.0, 0.0, 0.0, 1.7632280104532034E9, 0.0, 2025-11-15 12:33:30.453
22.0, -320.90024574799463, 266.17989954631776, -270.7070484426804, -229.6878257286735, -0.01600000075995922, 0.1600000075995922, 0.5120000243186951, 0.0, 0.0, 0.0, 0.0, 0.0, 1.7632280104532034E9, 0.0, 2025-11-15 12:33:30.453
23.0, -143.38963425112888, 418.3526888433844, -136.9308270276524, -87.88951890869066, -0.01600000075995922, 0.1600000075995922, 0.5120000243186951, 0.0, 0.0, 0.0, 0.0, 0.0, 1.76322801046894E9, 0.0, 2025-11-15 12:33:30.468
23.0, -75.73858395265415, 496.1613074215129, -58.60610225563869, -8.577460548374802, -0.01600000075995922, 0.1600000075995922, 0.5120000243186951, 0.0, 0.0, 0.0, 0.0, 0.0, 1.76322801046894E9, 0.0, 2025-11-15 12:33:30.468
24.0, -288.98393952613696, 279.9950899826363, -253.49228894663975, -223.89472069730982, -0.01600000075995922, 0.1600000075995922, 0.5120000243186951, 0.0, 0.0, 0.0, 0.0, 0.0, 1.7632280104696572E9, 0.0, 2025-11-15 12:33:30.469
24.0, -216.96468607941642, 349.28795636165887, -204.93716782191768, -158.3529739738442, -0.01600000075995922, 0.1600000075995922, 0.5120000243186951, 0.0, 0.0, 0.0, 0.0, 0.0, 1.7632280104696572E9, 0.0, 2025-11-15 12:33:30.469
25.0, -30.75506728561595, 542.5098875723779, -24.857245055492967, 18.196483234409243, -0.01600000075995922, 0.1600000075995922, 0.5120000243186951, 0.0, 0.0, 0.0, 0.0, 0.0, 1.763228010483222E9, 0.0, 2025-11-15 12:33:30.483
25.0, -274.27491300040856, 311.42520921025425, -220.65222743572667, -185.5906653511338, -0.01600000075995922, 0.1600000075995922, 0.5120000243186951, 0.0, 0.0, 0.0, 0.0, 0.0, 1.763228010483222E9, 0.0, 2025-11-15 12:33:30.483
26.0, -241.75274298572913, 328.5277717076242, -214.62724860711023, -172.45239680679515, -0.01600000075995922, 0.1600000075995922, 0.5120000243186951, 0.0, 0.0, 0.0, 0.0, 0.0, 1.763228010498921E9, 0.0, 2025-11-15 12:33:30.498
26.0, -46.49256629915908, 492.06611697003245, -74.6839321651496, -25.97921504219994, -0.01600000075995922, 0.1600000075995922, 0.5120000243186951, 0.0, 0.0, 0.0, 0.0, 0.0, 1.763228010498921E9, 0.0, 2025-11-15 12:33:30.498
27.0, -198.15672920225188, 391.99013405572623, -146.61342801293358, -105.5119274999015, -0.01600000075995922, 0.1600000075995922, 0.5120000243186951, 0.0, 0.0, 0.0, 0.0, 0.0, 1.7632280104996347E9, 0.0, 2025-11-15 12:33:30.499
27.0, -298.909634008538, 277.30236201453954, -254.31506693689153, -214.65716780675575, -0.01600000075995922, 0.1600000075995922, 0.5120000243186951, 0.0, 0.0, 0.0, 0.0, 0.0, 1.7632280104996347E9, 0.0, 2025-11-15 12:33:30.499
28.0, -153.28540953388438, 414.21635949239135, -146.13846071856096, -95.49273551860824, -0.01600000075995922, 0.1600000075995922, 0.5120000243186951, 0.0, 0.0, 0.0, 0.0, 0.0, 1.7632280105132449E9, 0.0, 2025-11-15 12:33:30.513
28.0, -70.30076941708103, 488.77500500902534, -64.87043468141928, -25.12277795234695, -0.01600000075995922, 0.1600000075995922, 0.5120000243186951, 0.0, 0.0, 0.0, 0.0, 0.0, 1.7632280105132449E9, 0.0, 2025-11-15 12:33:30.513
29.0, -312.63132694596425, 282.56440125219524, -250.42183108301833, -203.95357413357124, -0.01600000075995922, 0.1600000075995922, 0.5120000243186951, 0.0, 0.0, 0.0, 0.0, 0.0, 1.7632280105289233E9, 0.0, 2025-11-15 12:33:30.528
29.0, -223.1243013064377, 353.74965700879693, -195.34806433552876, -143.89452074514702, -0.01600000075995922, 0.1600000075995922, 0.5120000243186951, 0.0, 0.0, 0.0, 0.0, 0.0, 1.7632280105289233E9, 0.0, 2025-11-15 12:33:30.528
30.0, -31.20759518025443, 528.4329041391611, -40.72190066752955, 4.014782602433115, -0.01600000075995922, 0.1600000075995922, 0.7680000364780426, 0.0, 0.0, 0.0, 0.0, 0.0, 1.7632280105296378E9, 0.0, 2025-11-15 12:33:30.529
30.0, -272.4797610216774, 317.95507453288883, -220.10620204219595, -187.71492852596566, -0.01600000075995922, 0.1600000075995922, 0.7680000364780426, 0.0, 0.0, 0.0, 0.0, 0.0, 1.7632280105296378E9, 0.0, 2025-11-15 12:33:30.529
31.0, -277.57724466128275, 304.5512730916962, -238.97399731865153, -196.49621362192556, -0.01600000075995922, 0.19200000911951065, 0.7680000364780426, 0.0, 0.0, 0.0, 0.0, 0.0, 1.7632280105431983E9, 0.0, 2025-11-15 12:33:30.543
31.0, -39.031465887557715, 512.6841854257509, -53.108449320774525, -4.759022693615407, -0.01600000075995922, 0.19200000911951065, 0.7680000364780426, 0.0, 0.0, 0.0, 0.0, 0.0, 1.7632280105431983E9, 0.0, 2025-11-15 12:33:30.543
32.0, -173.15923789842054, 409.1861940519884, -134.7467254535295, -100.6986762569286, -0.03200000151991844, 0.19200000911951065, 0.7680000364780426, 0.0, 0.0, 0.0, 0.0, 0.0, 1.763228010558986E9, 0.0, 2025-11-15 12:33:30.558
32.0, -313.5476024351083, 281.44243126548827, -251.18103077402338, -215.85019589262083, -0.03200000151991844, 0.19200000911951065, 0.7680000364780426, 0.0, 0.0, 0.0, 0.0, 0.0, 1.763228010558986E9, 0.0, 2025-11-15 12:33:30.558
33.0, -157.3918196852319, 415.2298723803833, -139.27948419982567, -82.75463626952842, -0.03200000151991844, 0.19200000911951065, 0.7680000364780426, 0.0, 0.0, 0.0, 0.0, 0.0, 1.7632280105596352E9, 0.0, 2025-11-15 12:33:30.559
33.0, -61.05199682665989, 505.0173905165866, -48.706587072927505, -6.0979068777523935, -0.03200000151991844, 0.19200000911951065, 0.7680000364780426, 0.0, 0.0, 0.0, 0.0, 0.0, 1.7632280105596352E9, 0.0, 2025-11-15 12:33:30.559
34.0, 181.11213515419513, 289.97314306441694, -240.55223509995267, -217.162900777068, -0.03200000151991844, 0.19200000911951065, 0.7680000364780426, 0.0, 0.0, 0.0, 0.0, 0.0, 1.7632280105732057E9, 0.0, 2025-11-15 12:33:30.573
34.0, 254.55629048403352, 343.8688413258642, -203.3402305408381, -156.19505169941112, -0.03200000151991844, 0.19200000911951065, 0.7680000364780426, 0.0, 0.0, 0.0, 0.0, 0.0, 1.7632280105732057E9, 0.0, 2025-11-15 12:33:30.573
35.0, 481.9010688904673, 549.3987832907587, -19.243655222002417, 27.419076525140554, -0.03200000151991844, 0.19200000911951065, 0.7680000364780426, 0.0, 0.0, 0.0, 0.0, 0.0, 1.7632280105889256E9, 0.0, 2025-11-15 12:33:30.588
35.0, 714.7640696815215, 334.18250044062734, -202.038745356258, -166.74904937436804, -0.03200000151991844, 0.19200000911951065, 0.7680000364780426, 0.0, 0.0, 0.0, 0.0, 0.0, 1.7632280105889256E9, 0.0, 2025-11-15 12:33:30.588
36.0, 739.8812377839349, 323.3854092685506, -221.89387422101572, -191.89987657638267, -0.03200000151991844, 0.19200000911951065, 0.7680000364780426, 0.0, 0.0, 0.0, 0.0, 0.0, 1.7632280105896409E9, 0.0, 2025-11-15 12:33:30.589
36.0, 925.6832074825652, 502.59767524525523, -58.85667555266991, -15.021308172028512, -0.03200000151991844, 0.19200000911951065, 0.7680000364780426, 0.0, 0.0, 0.0, 0.0, 0.0, 1.7632280105896409E9, 0.0, 2025-11-15 12:33:30.589
37.0, 787.2807298223488, 407.03201167751104, -130.87966889934614, -97.89001139020547, -0.03200000151991844, 0.19200000911951065, 0.7680000364780426, 0.0, 0.0, 0.0, 0.0, 0.0, 1.763228010619594E9, 0.0, 2025-11-15 12:33:30.619
37.0, 649.4167977557518, 269.384993808344, -257.01527470489964, -218.77853755792603, -0.03200000151991844, 0.19200000911951065, 0.7680000364780426, 0.0, 0.0, 0.0, 0.0, 0.0, 1.763228010619594E9, 0.0, 2025-11-15 12:33:30.619
38.0, 840.2900717942975, 424.21311207395047, -134.81778355268762, -95.93404371337965, -0.03200000151991844, 0.19200000911951065, 0.7680000364780426, 0.0, 0.0, 0.0, 0.0, 0.0, 1.7632280106202981E9, 0.0, 2025-11-15 12:33:30.620
38.0, 919.6357892542146, 505.6456937091425, -54.2678183070384, -20.35814540879801, -0.03200000151991844, 0.19200000911951065, 0.7680000364780426, 0.0, 0.0, 0.0, 0.0, 0.0, 1.7632280106202981E9, 0.0, 2025-11-15 12:33:30.620
39.0, 1145.826808524318, 281.07218116987497, -248.0582143110223, -216.14564798912033, -0.03200000151991844, 0.19200000911951065, 0.7680000364780426, 0.0, 0.0, 0.0, 0.0, 0.0, 1.7632280106210842E9, 0.0, 2025-11-15 12:33:30.621
39.0, 1219.0540496567264, 331.44115377310663, -214.31683691078797, -177.71069614449516, -0.03200000151991844, 0.19200000911951065, 0.7680000364780426, 0.0, 0.0, 0.0, 0.0, 0.0, 1.7632280106210842E9, 0.0, 2025-11-15 12:33:30.621
40.0, 1456.6461539417505, 555.6967748161405, -16.827679850626737, 23.58193917060271, -0.03200000151991844, 0.19200000911951065, 0.8960000425577164, 0.0, 0.0, 0.0, 0.0, 0.0, 1.7632280106332636E9, 0.0, 2025-11-15 12:33:30.633
40.0, 1691.820412905421, 326.72887982893735, -206.02547870902345, -165.3615464908071, -0.03200000151991844, 0.19200000911951065, 0.8960000425577164, 0.0, 0.0, 0.0, 0.0, 0.0, 1.7632280106332636E9, 0.0, 2025-11-15 12:33:30.633
41.0, 1693.8436987814493, 308.4407690456137, -225.58889537723735, -186.76873383717611, -0.03200000151991844, 0.20800000987946987, 0.8960000425577164, 0.0, 0.0, 0.0, 0.0, 0.0, 1.7632280106489353E9, 0.0, 2025-11-15 12:33:30.648
41.0, 1906.2662763646804, 499.29534358438104, -67.47340505057946, -32.43054246576503, -0.03200000151991844, 0.20800000987946987, 0.8960000425577164, 0.0, 0.0, 0.0, 0.0, 0.0, 1.7632280106489353E9, 0.0, 2025-11-15 12:33:30.648
42.0, 1759.7070769011043, 396.9679408967495, -142.51449766149744, -106.94430918293074, -0.03200000151991844, 0.20800000987946987, 0.8960000425577164, 0.0, 0.0, 0.0, 0.0, 0.0, 1.7632280106496267E9, 0.0, 2025-11-15 12:33:30.649
42.0, 1648.452533019241, 282.5344820525497, -242.15665218094364, -200.32587117655203, -0.03200000151991844, 0.20800000987946987, 0.8960000425577164, 0.0, 0.0, 0.0, 0.0, 0.0, 1.7632280106496267E9, 0.0, 2025-11-15 12:33:30.649
43.0, 1808.2771576256491, 417.2381986565888, -139.91526719229296, -103.6232780222781, -0.03200000151991844, 0.20800000987946987, 0.8960000425577164, 0.0, 0.0, 0.0, 0.0, 0.0, 1.7632280106633584E9, 0.0, 2025-11-15 12:33:30.663
43.0, 1902.2346642124467, 507.22019159048796, -55.80117728887126, -27.13858402846381, -0.03200000151991844, 0.20800000987946987, 0.8960000425577164, 0.0, 0.0, 0.0, 0.0, 0.0, 1.7632280106633584E9, 0.0, 2025-11-15 12:33:30.663
44.0, 1666.6808054032736, 294.15809111483395, -229.93091922579333, -193.5229931571521, -0.03200000151991844, 0.20800000987946987, 0.8960000425577164, 0.0, 0.0, 0.0, 0.0, 0.0, 1.7632280106789107E9, 0.0, 2025-11-15 12:33:30.678
44.0, 1728.2545182737522, 336.0113115189597, -208.05250448500738, -167.59052686439827, -0.03200000151991844, 0.20800000987946987, 0.8960000425577164, 0.0, 0.0, 0.0, 0.0, 0.0, 1.7632280106789107E9, 0.0, 2025-11-15 12:33:30.678
45.0, 1952.498919616919, 540.3407455980778, -33.99008074728772, -0.8508272399194539, -0.03200000151991844, 0.20800000987946987, 0.8960000425577164, 0.0, 0.0, 0.0, 0.0, 0.0, 1.7632280106796188E9, 0.0, 2025-11-15 12:33:30.679
45.0, 2163.2516318699345, 322.5626312782988, -206.23491310654208, -175.12642527511343, -0.03200000151991844, 0.20800000987946987, 0.8960000425577164, 0.0, 0.0, 0.0, 0.0, 0.0, 1.7632280106796188E9, 0.0, 2025-11-15 12:33:30.679
46.0, 2160.7945175990462, 296.2112961905077, -238.93659831909463, -205.36725631682202, -0.03200000151991844, 0.20800000987946987, 0.8960000425577164, 0.0, 0.0, 0.0, 0.0, 0.0, 1.763228010693287E9, 0.0, 2025-11-15 12:33:30.693
46.0, 2383.797272156924, 495.1178753338754, -72.8663407866843, -35.70669482694939, -0.03200000151991844, 0.20800000987946987, 0.8960000425577164, 0.0, 0.0, 0.0, 0.0, 0.0, 1.763228010693287E9, 0.0, 2025-11-15 12:33:30.693
47.0, 2279.222189595923, 412.6418616110459, -125.73356656031683, -88.46172360191122, -0.03200000151991844, 0.20800000987946987, 0.8960000425577164, 0.0, 0.0, 0.0, 0.0, 0.0, 1.7632280107088995E9, 0.0, 2025-11-15 12:33:30.708
47.0, 2124.1173187335953, 275.00606344174594, -258.05122699262574, -223.06820280710235, -0.03200000151991844, 0.20800000987946987, 0.8960000425577164, 0.0, 0.0, 0.0, 0.0, 0.0, 1.7632280107088995E9, 0.0, 2025-11-15 12:33:30.708
48.0, 2310.0314854308963, 428.6561132213101, -126.39552885247394, -94.05661393562332, -0.03200000151991844, 0.20800000987946987, 0.8960000425577164, 0.0, 0.0, 0.0, 0.0, 0.0, 1.7632280107096112E9, 0.0, 2025-11-15 12:33:30.709
48.0, 2400.9746326534078, 505.26422391366214, -49.80985755985603, -9.291781439911574, -0.03200000151991844, 0.20800000987946987, 0.8960000425577164, 0.0, 0.0, 0.0, 0.0, 0.0, 1.7632280107096112E9, 0.0, 2025-11-15 12:33:30.709
49.0, 2614.262997076381, 281.8762596603483, -247.92731781257316, -219.04407045478, -0.03200000151991844, 0.20800000987946987, 0.8960000425577164, 0.0, 0.0, 0.0, 0.0, 0.0, 1.763228010723281E9, 0.0, 2025-11-15 12:33:30.723
49.0, 2702.3451208327897, 342.2045858455822, -196.5934510207735, -144.2311117411591, -0.03200000151991844, 0.20800000987946987, 0.8960000425577164, 0.0, 0.0, 0.0, 0.0, 0.0, 1.763228010723281E9, 0.0, 2025-11-15 12:33:30.723
50.0, 2913.1071828356944, 532.8908648863435, -32.247287367936224, 12.762408598791808, -0.03200000151991844, 0.20800000987946987, 0.9920000471174717, 0.0, 0.0, 0.0, 0.0, 0.0, 1.763228010738917E9, 0.0, 2025-11-15 12:33:30.738
50.0, 2692.1464136536233, 332.69402025826275, -199.2936587887816, -173.70900319190696, -0.03200000151991844, 0.20800000987946987, 0.9920000471174717, 0.0, 0.0, 0.0, 0.0, 0.0, 1.763228010738917E9, 0.0, 2025-11-15 12:33:30.738
51.0, 2663.999926587101, 301.2826005304232, -241.59940708754584, -217.13298157742247, -0.03200000151991844, 0.2240000106394291, 0.9920000471174717, 0.0, 0.0, 0.0, 0.0, 0.0, 1.7632280107396247E9, 0.0, 2025-11-15 12:33:30.739
51.0, 2874.279541495722, 499.41128048300743, -68.9394458332099, -22.67314348137006, -0.03200000151991844, 0.2240000106394291, 0.9920000471174717, 0.0, 0.0, 0.0, 0.0, 0.0, 1.7632280107396247E9, 0.0, 2025-11-15 12:33:30.739
52.0, 2770.7927698218264, 421.25859110895544, -118.65393594419584, -87.06674091843888, -0.03200000151991844, 0.2240000106394291, 0.9920000471174717, 0.0, 0.0, 0.0, 0.0, 0.0, 1.7632280107532234E9, 0.0, 2025-11-15 12:33:30.753
52.0, 2625.0750478482805, 277.85586720798165, -257.553820298519, -226.95021896110848, -0.03200000151991844, 0.2240000106394291, 0.9920000471174717, 0.0, 0.0, 0.0, 0.0, 0.0, 1.7632280107532234E9, 0.0, 2025-11-15 12:33:30.753
53.0, 2791.9194646715187, 411.0898031294346, -142.33498246362433, -109.02369355829433, -0.03200000151991844, 0.2240000106394291, 0.9920000471174717, 0.0, 0.0, 0.0, 0.0, 0.0, 1.7632280107693067E9, 0.0, 2025-11-15 12:33:30.769
53.0, 2924.884127796162, 517.411418969743, -44.693674420472234, -12.014428607653826, -0.03200000151991844, 0.2240000106394291, 0.9920000471174717, 0.0, 0.0, 0.0, 0.0, 0.0, 1.7632280107693067E9, 0.0, 2025-11-15 12:33:30.769
54.0, 3110.108282951638, 284.00426273513585, -242.15665218094364, -219.3058634516783, -0.03200000151991844, 0.2240000106394291, 0.9920000471174717, 0.0, 0.0, 0.0, 0.0, 0.0, 1.7632280107839024E9, 0.0, 2025-11-15 12:33:30.783
54.0, 3187.4868130348623, 339.44453967828304, -203.28413204150274, -171.49872231809422, -0.03200000151991844, 0.2240000106394291, 0.9920000471174717, 0.0, 0.0, 0.0, 0.0, 0.0, 1.7632280107839024E9, 0.0, 2025-11-15 12:33:30.783
55.0, 3389.4376707421616, 530.7965209111571, -33.50389375304803, 2.380446321796626, -0.03200000151991844, 0.2240000106394291, 0.9920000471174717, 0.0, 0.0, 0.0, 0.0, 0.0, 1.763228010784638E9, 0.0, 2025-11-15 12:33:30.784
55.0, 3152.1073594540358, 321.3322041928768, -205.58791041420773, -175.96416286518797, -0.03200000151991844, 0.2240000106394291, 0.9920000471174717, 0.0, 0.0, 0.0, 0.0, 0.0, 1.763228010784638E9, 0.0, 2025-11-15 12:33:30.784
56.0, 3141.6206799782813, 302.61400491464883, -229.37367413239554, -187.63265072694048, -0.03200000151991844, 0.2240000106394291, 0.9920000471174717, 0.0, 0.0, 0.0, 0.0, 0.0, 1.7632280107989376E9, 0.0, 2025-11-15 12:33:30.798
56.0, 3374.945558413863, 505.2492643138394, -58.707079554442316, -17.43728354340419, -0.03200000151991844, 0.2240000106394291, 0.9920000471174717, 0.0, 0.0, 0.0, 0.0, 0.0, 1.7632280107989376E9, 0.0, 2025-11-15 12:33:30.798
57.0, 3257.467821005732, 402.83210402727127, -135.4872256447561, -121.039992115926, -0.03200000151991844, 0.2240000106394291, 0.9920000471174717, 0.0, 0.0, 0.0, 0.0, 0.0, 1.7632280107996137E9, 0.0, 2025-11-15 12:33:30.799
57.0, 3144.563981243409, 293.1819772263989, -239.5723813115619, -218.59528246009722, -0.03200000151991844, 0.2240000106394291, 0.9920000471174717, 0.0, 0.0, 0.0, 0.0, 0.0, 1.7632280107996137E9, 0.0, 2025-11-15 12:33:30.799
58.0, 3282.2895370116457, 422.40674039535224, -131.05544419726357, -89.23588289273903, -0.03200000151991844, 0.2240000106394291, 0.9920000471174717, 0.0, 0.0, 0.0, 0.0, 0.0, 1.7632280108132472E9, 0.0, 2025-11-15 12:33:30.813
58.0, 3347.042164844461, 484.3432235615328, -70.07637541973963, -48.83000377146527, -0.03200000151991844, 0.2240000106394291, 0.9920000471174717, 0.0, 0.0, 0.0, 0.0, 0.0, 1.7632280108132472E9, 0.0, 2025-11-15 12:33:30.813
59.0, 3126.212292160839, 287.1046397984028, -235.42109236074612, -213.25096542341635, -0.03200000151991844, 0.2240000106394291, 0.9920000471174717, 0.0, 0.0, 0.0, 0.0, 0.0, 1.7632280108289354E9, 0.0, 2025-11-15 12:33:30.828
59.0, 3179.9359550243244, 326.62416263017803, -212.21875303564593, -176.76076155574992, -0.03200000151991844, 0.2240000106394291, 0.9920000471174717, 0.0, 0.0, 0.0, 0.0, 0.0, 1.7632280108289354E9, 0.0, 2025-11-15 12:33:30.828
60.0, 2935.423165871296, 556.4821538068354, -4.8899191920645535, 24.049426665063947, -0.03200000151991844, 0.2240000106394291, 1.008000047877431, 0.0, 0.0, 0.0, 0.0, 0.0, 1.7632280108296204E9, 0.0, 2025-11-15 12:33:30.829
60.0, 3165.9449892900884, 349.5086104590446, -177.22450915025547, -146.5348901138641, -0.03200000151991844, 0.2240000106394291, 1.008000047877431, 0.0, 0.0, 0.0, 0.0, 0.0, 1.7632280108296204E9, 0.0, 2025-11-15 12:33:30.829
61.0, 3137.151499531232, 297.2846474777907, -235.0171831655316, -189.23332790797576, -0.03200000151991844, 0.2240000106394291, 1.008000047877431, 0.0, 0.0, 0.0, 0.0, 0.0, 1.7632280108433003E9, 0.0, 2025-11-15 12:33:30.843
61.0, 2930.875447525177, 513.8622539117932, -56.52297798031941, -28.32039241446182, -0.03200000151991844, 0.2240000106394291, 1.008000047877431, 0.0, 0.0, 0.0, 0.0, 0.0, 1.7632280108433003E9, 0.0, 2025-11-15 12:33:30.843
62.0, 2757.4899456794374, 408.1951205637306, -119.67492863209918, -94.23612913349643, -0.03200000151991844, 0.2240000106394291, 1.008000047877431, 0.0, 0.0, 0.0, 0.0, 0.0, 1.7632280108588865E9, 0.0, 2025-11-15 12:33:30.858
62.0, 2603.7650979007594, 270.74631739221513, -258.5074947872199, -230.86215431476012, -0.03200000151991844, 0.2240000106394291, 1.008000047877431, 0.0, 0.0, 0.0, 0.0, 0.0, 1.7632280108588865E9, 0.0, 2025-11-15 12:33:30.858
63.0, 2765.5943088834174, 400.7788989515975, -153.4574449318461, -128.3028778298758, -0.03200000151991844, 0.2240000106394291, 1.008000047877431, 0.0, 0.0, 0.0, 0.0, 0.0, 1.763228010859598E9, 0.0, 2025-11-15 12:33:30.859
63.0, 2869.0623810575344, 498.95501268841326, -49.43586756428704, -10.466110025998205, -0.03200000151991844, 0.2240000106394291, 1.008000047877431, 0.0, 0.0, 0.0, 0.0, 0.0, 1.763228010859598E9, 0.0, 2025-11-15 12:33:30.859
64.0, 2624.4467446557246, 275.96347783040255, -247.85999961337075, -220.65222743572667, -0.03200000151991844, 0.2240000106394291, 1.008000047877431, 0.0, 0.0, 0.0, 0.0, 0.0, 1.7632280108732548E9, 0.0, 2025-11-15 12:33:30.873
64.0, 2686.6712001184933, 317.663362336345, -222.28282381640747, -193.1078642620705, -0.03200000151991844, 0.2240000106394291, 1.008000047877431, 0.0, 0.0, 0.0, 0.0, 0.0, 1.7632280108732548E9, 0.0, 2025-11-15 12:33:30.873
65.0, 2916.8209034916945, 539.1477175122127, -20.66107730520889, 13.659984588157386, -0.03200000151991844, 0.2240000106394291, 1.008000047877431, 0.0, 0.0, 0.0, 0.0, 0.0, 1.763228010888893E9, 0.0, 2025-11-15 12:33:30.888
65.0, 2671.85371649405, 318.94614802114666, -209.9299342627637, -185.5869254511781, -0.03200000151991844, 0.2240000106394291, 1.008000047877431, 0.0, 0.0, 0.0, 0.0, 0.0, 1.763228010888893E9, 0.0, 2025-11-15 12:33:30.888
66.0, 2656.235894279089, 295.7625081958249, -233.96253137802705, -205.14660221943632, -0.03200000151991844, 0.2240000106394291, 1.008000047877431, 0.0, 0.0, 0.0, 0.0, 0.0, 1.7632280108896008E9, 0.0, 2025-11-15 12:33:30.889
66.0, 2862.8130082315765, 487.9447472188622, -69.11896103108302, -23.20794917503372, -0.03200000151991844, 0.2240000106394291, 1.008000047877431, 0.0, 0.0, 0.0, 0.0, 0.0, 1.7632280108896008E9, 0.0, 2025-11-15 12:33:30.889
67.0, 2758.5969560663216, 409.9341740431264, -120.45282782288268, -90.15589828183874, -0.03200000151991844, 0.2240000106394291, 1.008000047877431, 0.0, 0.0, 0.0, 0.0, 0.0, 1.763228010903231E9, 0.0, 2025-11-15 12:33:30.903
67.0, 2633.403805049602, 280.5710345758125, -250.33955328399315, -220.77190423430875, -0.03200000151991844, 0.2240000106394291, 1.008000047877431, 0.0, 0.0, 0.0, 0.0, 0.0, 1.763228010903231E9, 0.0, 2025-11-15 12:33:30.903
68.0, 2775.209591669496, 407.43218097276986, -145.72333182347938, -119.24484013719484, -0.03200000151991844, 0.2240000106394291, 1.008000047877431, 0.0, 0.0, 0.0, 0.0, 0.0, 1.763228010918894E9, 0.0, 2025-11-15 12:33:30.918
68.0, 2873.374485706445, 500.5033312700689, -53.62081561470404, -34.79041933780536, -0.03200000151991844, 0.2240000106394291, 1.008000047877431, 0.0, 0.0, 0.0, 0.0, 0.0, 1.763228010918894E9, 0.0, 2025-11-15 12:33:30.918
69.0, 2637.6074525997974, 291.0651938514784, -237.85202733194456, -214.3093571108766, -0.03200000151991844, 0.2240000106394291, 1.008000047877431, 0.0, 0.0, 0.0, 0.0, 0.0, 1.763228010919597E9, 0.0, 2025-11-15 12:33:30.919
69.0, 2664.497333281208, 309.97412802744657, -228.74911083979532, -188.20859532011673, -0.03200000151991844, 0.2240000106394291, 1.008000047877431, 0.0, 0.0, 0.0, 0.0, 0.0, 1.763228010919597E9, 0.0, 2025-11-15 12:33:30.919
70.0, 2481.502158499323, 71.40777980396524, -8.487702949438244, 19.47926891921088, -0.03200000151991844, 0.2240000106394291, 1.008000047877431, 0.0, 0.0, 0.0, 0.0, 0.0, 1.7632280109332404E9, 0.0, 2025-11-15 12:33:30.933
70.0, 2655.581411786843, -169.1313656461425, -196.99362031603232, -172.40377810737118, -0.03200000151991844, 0.2240000106394291, 1.008000047877431, 0.0, 0.0, 0.0, 0.0, 0.0, 1.7632280109332404E9, 0.0, 2025-11-15 12:33:30.933
71.0, 2640.360018967185, -197.27037291275337, -228.4237395436503, -195.19098853738979, -0.03200000151991844, 0.2240000106394291, 1.008000047877431, 0.0, 0.0, 0.0, 0.0, 0.0, 1.7632280109489536E9, 0.0, 2025-11-15 12:33:30.948
71.0, 2395.712593415752, 3.0723278135992587, -65.80166977038607, -27.867864519823343, -0.03200000151991844, 0.2240000106394291, 1.008000047877431, 0.0, 0.0, 0.0, 0.0, 0.0, 1.7632280109489536E9, 0.0, 2025-11-15 12:33:30.948
72.0, 2272.2884150780737, -84.12343965331092, -128.81150422384962, -104.18426301563159, -0.03200000151991844, 0.2240000106394291, 1.008000047877431, 0.0, 0.0, 0.0, 0.0, 0.0, 1.7632280109496129E9, 0.0, 2025-11-15 12:33:30.949
72.0, 2149.3317242348567, -211.29499774659052, -246.34160023136064, -218.01933786692098, -0.03200000151991844, 0.2240000106394291, 1.008000047877431, 0.0, 0.0, 0.0, 0.0, 0.0, 1.7632280109496129E9, 0.0, 2025-11-15 12:33:30.949
73.0, 2269.8649599067867, -92.65789135219529, -149.81852227495983, -125.34087706496939, -0.03200000151991844, 0.2240000106394291, 1.008000047877431, 0.0, 0.0, 0.0, 0.0, 0.0, 1.763228010963234E9, 0.0, 2025-11-15 12:33:30.963
73.0, 2387.6755484109744, 21.614751793909818, -36.51077331742272, -9.557314336765558, -0.03200000151991844, 0.2240000106394291, 1.008000047877431, 0.0, 0.0, 0.0, 0.0, 0.0, 1.763228010963234E9, 0.0, 2025-11-15 12:33:30.963
74.0, 2632.6857442581095, -208.13104238407686, -242.39974567806348, -216.47475918522105, -0.03200000151991844, 0.2240000106394291, 1.008000047877431, 0.0, 0.0, 0.0, 0.0, 0.0, 1.7632280109789927E9, 0.0, 2025-11-15 12:33:30.978
74.0, 2687.3331624106504, -164.30315480334684, -206.94175419816747, -171.34538641991094, -0.03200000151991844, 0.2240000106394291, 1.008000047877431, 0.0, 0.0, 0.0, 0.0, 0.0, 1.7632280109789927E9, 0.0, 2025-11-15 12:33:30.978
75.0, 2929.3907072427683, 59.77295104181394, -3.8838861039839685, 31.98175447108224, -0.03200000151991844, 0.2240000106394291, 1.008000047877431, 0.0, 0.0, 0.0, 0.0, 0.0, 1.7632280109796765E9, 0.0, 2025-11-15 12:33:30.979
75.0, 3170.361811137758, -157.22726408718154, -182.07889929274097, -155.31991510977969, -0.03200000151991844, 0.2240000106394291, 1.008000047877431, 0.0, 0.0, 0.0, 0.0, 0.0, 1.7632280109796765E9, 0.0, 2025-11-15 12:33:30.979
76.0, 3131.672546096146, -201.10377036733553, -246.1695648333989, -209.69806046551093, -0.03200000151991844, 0.2240000106394291, 1.008000047877431, 0.0, 0.0, 0.0, 0.0, 0.0, 1.7632280109932365E9, 0.0, 2025-11-15 12:33:30.993
76.0, 3355.445720044896, -4.104540201369673, -68.52431693812832, -37.09045781055465, -0.03200000151991844, 0.2240000106394291, 1.008000047877431, 0.0, 0.0, 0.0, 0.0, 0.0, 1.7632280109932365E9, 0.0, 2025-11-15 12:33:30.993
77.0, 3284.2716839881614, -60.84256242914125, -104.1805231156759, -69.42563282744959, -0.03200000151991844, 0.2240000106394291, 1.008000047877431, 0.0, 0.0, 0.0, 0.0, 0.0, 1.763228011009025E9, 0.0, 2025-11-15 12:33:31.009
77.0, 3114.7457588966936, -207.24842599453405, -245.95639053592458, -220.99255833169445, -0.03200000151991844, 0.2240000106394291, 1.008000047877431, 0.0, 0.0, 0.0, 0.0, 0.0, 1.763228011009025E9, 0.0, 2025-11-15 12:33:31.009
78.0, 3274.4320072047412, -73.00471708504483, -130.77869160054252, -90.72436307510361, -0.03200000151991844, 0.2240000106394291, 1.008000047877431, 0.0, 0.0, 0.0, 0.0, 0.0, 1.7632280110096643E9, 0.0, 2025-11-15 12:33:31.009
78.0, 3425.8119377112016, 43.36974983615801, -32.38566366629675, -13.947956884745508, -0.03200000151991844, 0.2240000106394291, 1.008000047877431, 0.0, 0.0, 0.0, 0.0, 0.0, 1.7632280110096643E9, 0.0, 2025-11-15 12:33:31.009
79.0, 3585.0400482746772, 277.19016501586884, -240.82150789676234, -209.86635596351698, -0.03200000151991844, 0.2240000106394291, 1.008000047877431, 0.0, 0.0, 0.0, 0.0, 0.0, 1.763228011023224E9, 0.0, 2025-11-15 12:33:31.023
79.0, 3667.3365467996337, 338.32630959153175, -192.53565956884995, -154.67291241744533, -0.03200000151991844, 0.2240000106394291, 1.008000047877431, 0.0, 0.0, 0.0, 0.0, 0.0, 1.763228011023224E9, 0.0, 2025-11-15 12:33:31.023
80.0, 3428.145635283552, 554.7730195270851, -2.889072715770453, 37.32607150776312, -0.03200000151991844, 0.2240000106394291, 1.008000047877431, 0.0, 0.0, 0.0, 0.0, 0.0, 1.76322801103897E9, 0.0, 2025-11-15 12:33:31.038
80.0, 3185.3625498600304, 340.5739894649014, -186.8098727366887, -155.73130410490558, -0.03200000151991844, 0.2240000106394291, 1.008000047877431, 0.0, 0.0, 0.0, 0.0, 0.0, 1.76322801103897E9, 0.0, 2025-11-15 12:33:31.038
81.0, 3134.170799266547, 287.1008998984471, -237.32470143819228, -206.59020360233262, -0.03200000151991844, 0.20800000987946987, 1.008000047877431, 0.0, 0.0, 0.0, 0.0, 0.0, 1.7632280110396702E9, 0.0, 2025-11-15 12:33:31.039
81.0, 3372.1555930469185, 509.99519735760987, -51.485332740005106, -22.553466682787985, -0.03200000151991844, 0.20800000987946987, 1.008000047877431, 0.0, 0.0, 0.0, 0.0, 0.0, 1.7632280110396702E9, 0.0, 2025-11-15 12:33:31.039
82.0, 3271.193253843114, 428.319522225298, -106.9218697831966, -92.28016145667061, -0.03200000151991844, 0.20800000987946987, 1.008000047877431, 0.0, 0.0, 0.0, 0.0, 0.0, 1.763228011053218E9, 0.0, 2025-11-15 12:33:31.053
82.0, 3131.7024652957916, 286.9101650007069, -240.01368950633332, -213.2285260236822, -0.03200000151991844, 0.20800000987946987, 1.008000047877431, 0.0, 0.0, 0.0, 0.0, 0.0, 1.763228011053218E9, 0.0, 2025-11-15 12:33:31.053
83.0, 3272.700433525257, 418.8239162378013, -134.6420082547702, -99.38223147252575, -0.03200000151991844, 0.20800000987946987, 1.008000047877431, 0.0, 0.0, 0.0, 0.0, 0.0, 1.7632280110689535E9, 0.0, 2025-11-15 12:33:31.068
83.0, 3377.0249427892268, 513.1741123199463, -41.21182756172493, -17.45598304318264, -0.03200000151991844, 0.20800000987946987, 1.008000047877431, 0.0, 0.0, 0.0, 0.0, 0.0, 1.7632280110689535E9, 0.0, 2025-11-15 12:33:31.068
84.0, 3147.3689062101766, 288.3612461835146, -226.015243972186, -206.34711010521278, -0.03200000151991844, 0.20800000987946987, 1.008000047877431, 0.0, 0.0, 0.0, 0.0, 0.0, 1.763228011069657E9, 0.0, 2025-11-15 12:33:31.069
84.0, 3171.704435221851, 336.7480718102306, -191.60442447988316, -145.81308942241594, -0.03200000151991844, 0.20800000987946987, 1.008000047877431, 0.0, 0.0, 0.0, 0.0, 0.0, 1.763228011069657E9, 0.0, 2025-11-15 12:33:31.069
85.0, 2943.1124001801945, 554.3541507320479, -3.8352674045599997, 27.680869522038847, -0.03200000151991844, 0.20800000987946987, 1.008000047877431, 0.0, 0.0, 0.0, 0.0, 0.0, 1.7632280110832655E9, 0.0, 2025-11-15 12:33:31.083
85.0, 3184.147082374431, 338.92095368448645, -186.0693725454621, -149.72502477606758, -0.03200000151991844, 0.20800000987946987, 1.008000047877431, 0.0, 0.0, 0.0, 0.0, 0.0, 1.7632280110832655E9, 0.0, 2025-11-15 12:33:31.083
86.0, 3164.8342390032485, 304.6971291899681, -222.91860680887476, -190.17578269680962, -0.03200000151991844, 0.20800000987946987, 1.008000047877431, 0.0, 0.0, 0.0, 0.0, 0.0, 1.7632280110989904E9, 0.0, 2025-11-15 12:33:31.098
86.0, 3374.14147992339, 508.85826777108014, -54.48099260451272, -20.092612511944026, -0.03200000151991844, 0.20800000987946987, 1.008000047877431, 0.0, 0.0, 0.0, 0.0, 0.0, 1.7632280110989904E9, 0.0, 2025-11-15 12:33:31.098
87.0, 3275.3931614933535, 436.40892582945526, -94.63629842875525, -70.94403220945969, -0.03200000151991844, 0.20800000987946987, 1.008000047877431, 0.0, 0.0, 0.0, 0.0, 0.0, 1.7632280110996575E9, 0.0, 2025-11-15 12:33:31.099
87.0, 3180.5268592173234, 318.43004182726145, -216.46727938530967, -195.7033548313193, -0.03200000151991844, 0.20800000987946987, 1.008000047877431, 0.0, 0.0, 0.0, 0.0, 0.0, 1.7632280110996575E9, 0.0, 2025-11-15 12:33:31.099
88.0, 3237.7735078390688, 410.0463710417971, -134.92250075144693, -110.98340113507584, -0.03200000151991844, 0.20800000987946987, 1.008000047877431, 0.0, 0.0, 0.0, 0.0, 0.0, 1.7632280111132407E9, 0.0, 2025-11-15 12:33:31.113
88.0, 3372.039656148292, 505.4250396117568, -44.80213151918724, -13.783401286695153, -0.03200000151991844, 0.20800000987946987, 1.008000047877431, 0.0, 0.0, 0.0, 0.0, 0.0, 1.7632280111132407E9, 0.0, 2025-11-15 12:33:31.113
89.0, 3143.988036650233, 295.26510150171816, -231.15760641125962, -209.87383576342836, -0.03200000151991844, 0.20800000987946987, 1.008000047877431, 0.0, 0.0, 0.0, 0.0, 0.0, 1.763228011128996E9, 0.0, 2025-11-15 12:33:31.128
89.0, 3208.9388791806996, 337.6456477995962, -203.54592503840104, -171.95873001264408, -0.03200000151991844, 0.20800000987946987, 1.008000047877431, 0.0, 0.0, 0.0, 0.0, 0.0, 1.763228011128996E9, 0.0, 2025-11-15 12:33:31.128
90.0, 3418.219940801151, 553.7707263389602, -0.3384609459899366, 29.63683719886467, -0.03200000151991844, 0.20800000987946987, 1.0240000486373901, 0.0, 0.0, 0.0, 0.0, 0.0, 1.7632280111296632E9, 0.0, 2025-11-15 12:33:31.129
90.0, 3200.5353239802644, 356.2516500791535, -170.56000742921606, -149.76616367558017, -0.03200000151991844, 0.20800000987946987, 1.0240000486373901, 0.0, 0.0, 0.0, 0.0, 0.0, 1.7632280111296632E9, 0.0, 2025-11-15 12:33:31.129
91.0, 3127.3529616473243, 294.9920888049528, -231.04540941258892, -199.77236598310992, -0.03200000151991844, 0.20800000987946987, 1.0240000486373901, 0.0, 0.0, 0.0, 0.0, 0.0, 1.7632280111432223E9, 0.0, 2025-11-15 12:33:31.143
91.0, 2882.769114395138, 504.7518576197326, -51.20858014328405, -14.048934183549136, -0.03200000151991844, 0.20800000987946987, 1.0240000486373901, 0.0, 0.0, 0.0, 0.0, 0.0, 1.7632280111432223E9, 0.0, 2025-11-15 12:33:31.143
92.0, 2791.3659594780765, 433.41326596494764, -100.64631765754893, -72.58210839005187, -0.03200000151991844, 0.20800000987946987, 1.0240000486373901, 0.0, 0.0, 0.0, 0.0, 0.0, 1.7632280111589527E9, 0.0, 2025-11-15 12:33:31.158
92.0, 2650.745721144136, 300.20550934318453, -226.7146052639, -197.6630624081008, -0.03200000151991844, 0.20800000987946987, 1.0240000486373901, 0.0, 0.0, 0.0, 0.0, 0.0, 1.7632280111589527E9, 0.0, 2025-11-15 12:33:31.158
93.0, 2768.552569748368, 398.6695953765884, -154.10444762418047, -127.07619064440951, -0.03200000151991844, 0.20800000987946987, 1.0240000486373901, 0.0, 0.0, 0.0, 0.0, 0.0, 1.763228011159656E9, 0.0, 2025-11-15 12:33:31.159
93.0, 2889.1755630192347, 513.4882639162242, -37.96559440018609, -11.285148116294295, -0.03200000151991844, 0.20800000987946987, 1.0240000486373901, 0.0, 0.0, 0.0, 0.0, 0.0, 1.763228011159656E9, 0.0, 2025-11-15 12:33:31.159
94.0, 3127.558656144887, 293.6644243206829, -229.5756287300028, -204.16300853108987, -0.03200000151991844, 0.20800000987946987, 1.0240000486373901, 0.0, 0.0, 0.0, 0.0, 0.0, 1.763228011173233E9, 0.0, 2025-11-15 12:33:31.173
94.0, 3168.1216110643, 321.1190298954025, -216.0147514906712, -186.05815284559503, -0.03200000151991844, 0.20800000987946987, 1.0240000486373901, 0.0, 0.0, 0.0, 0.0, 0.0, 1.763228011173233E9, 0.0, 2025-11-15 12:33:31.173
95.0, 2935.0342162759043, 551.9755743602291, -8.794374745804816, 27.770627120975405, -0.03200000151991844, 0.20800000987946987, 1.0240000486373901, 0.0, 0.0, 0.0, 0.0, 0.0, 1.7632280111889422E9, 0.0, 2025-11-15 12:33:31.188
95.0, 3179.419848830439, 332.8697955561802, -194.4804075458087, -173.79876079084352, -0.03200000151991844, 0.20800000987946987, 1.0240000486373901, 0.0, 0.0, 0.0, 0.0, 0.0, 1.7632280111889422E9, 0.0, 2025-11-15 12:33:31.188
96.0, 3136.5867746379226, 289.6477717682719, -240.0548284058459, -205.64774881349877, -0.03200000151991844, 0.20800000987946987, 1.0240000486373901, 0.0, 0.0, 0.0, 0.0, 0.0, 1.7632280111896555E9, 0.0, 2025-11-15 12:33:31.189
96.0, 3374.8819801146165, 495.5030850293115, -63.221138800960034, -25.758560944814235, -0.03200000151991844, 0.20800000987946987, 1.0240000486373901, 0.0, 0.0, 0.0, 0.0, 0.0, 1.7632280111896555E9, 0.0, 2025-11-15 12:33:31.189
97.0, 3278.8937078518793, 428.2821232257411, -111.31625223113224, -92.53447465365753, -0.03200000151991844, 0.20800000987946987, 1.0240000486373901, 0.0, 0.0, 0.0, 0.0, 0.0, 1.7632280112033465E9, 0.0, 2025-11-15 12:33:31.203
97.0, 3150.487982773222, 296.690003384836, -233.3155286856927, -214.60854910733178, -0.03200000151991844, 0.20800000987946987, 1.0240000486373901, 0.0, 0.0, 0.0, 0.0, 0.0, 1.7632280112033465E9, 0.0, 2025-11-15 12:33:31.203
98.0, 3229.7065436346456, 383.9680486507714, -154.36998052103445, -111.78747962554917, -0.03200000151991844, 0.20800000987946987, 1.0240000486373901, 0.0, 0.0, 0.0, 0.0, 0.0, 1.7632280112189407E9, 0.0, 2025-11-15 12:33:31.218
98.0, 3366.4522456144914, 504.7518576197326, -43.889595929998904, -14.381785279605538, -0.03200000151991844, 0.20800000987946987, 1.0240000486373901, 0.0, 0.0, 0.0, 0.0, 0.0, 1.7632280112189407E9, 0.0, 2025-11-15 12:33:31.218
99.0, 3125.8532617650926, 284.6924043269828, -234.8339280677028, -210.5582374553196, -0.03200000151991844, 0.20800000987946987, 1.0240000486373901, 0.0, 0.0, 0.0, 0.0, 0.0, 1.7632280112196674E9, 0.0, 2025-11-15 12:33:31.219
99.0, 3170.8741774316877, 322.2335200821981, -204.34626362891868, -166.99588277144358, -0.03200000151991844, 0.20800000987946987, 1.0240000486373901, 0.0, 0.0, 0.0, 0.0, 0.0, 1.7632280112196674E9, 0.0, 2025-11-15 12:33:31.219
100.0, 2938.2131312382407, 556.7963054031134, 0.7049711416475475, 33.68340895092115, -0.03200000151991844, 0.20800000987946987, 1.008000047877431, 0.0, 0.0, 0.0, 0.0, 0.0, 1.7632280112343576E9, 0.0, 2025-11-15 12:33:31.234
100.0, 2710.6065598349087, 358.5068097524345, -158.41655227309093, -134.13712176075205, -0.03200000151991844, 0.20800000987946987, 1.008000047877431, 0.0, 0.0, 0.0, 0.0, 0.0, 1.7632280112343576E9, 0.0, 2025-11-15 12:33:31.234
0.0, -312.7005150951445, -213.57259681960568, -247.40560176875442, -222.12387806829065, -0.03200000151991844, 0.20800000987946987, 1.008000047877431, 0.0, 0.0, 0.0, 0.0, 0.0, 1.7632280112489383E9, 0.0, 2025-11-15 12:33:31.248
1.0, -72.41942274197936, -4.665525194723159, -69.05725268181413, -40.64523271843791, -0.03200000151991844, 0.20800000987946987, 1.008000047877431, 0.0, 0.0, 0.0, 0.0, 0.0, 1.7632280112496445E9, 0.0, 2025-11-15 12:33:31.249
1.0, -135.76210829149932, -46.93387449393049, -94.35393598210067, -70.2951595671475, -0.03200000151991844, 0.20800000987946987, 1.008000047877431, 0.0, 0.0, 0.0, 0.0, 0.0, 1.7632280112496445E9, 0.0, 2025-11-15 12:33:31.249
2.0, -308.8184989411384, -205.6739281131886, -241.6311962371692, -214.98440905287862, -0.03200000151991844, 0.20800000987946987, 1.008000047877431, 0.0, 0.0, 0.0, 0.0, 0.0, 1.763228011263932E9, 0.0, 2025-11-15 12:33:31.263
2.0, -158.41842222306877, -80.8697266918607, -140.72121563274413, -106.4599921386689, -0.03200000151991844, 0.20800000987946987, 1.008000047877431, 0.0, 0.0, 0.0, 0.0, 0.0, 1.763228011263932E9, 0.0, 2025-11-15 12:33:31.263
3.0, -36.12369367200881, 40.284332372713834, -21.104255449958146, 9.106656392104924, -0.03200000151991844, 0.20800000987946987, 1.008000047877431, 0.0, 0.0, 0.0, 0.0, 0.0, 1.7632280112646468E9, 0.0, 2025-11-15 12:33:31.264
3.0, 195.72579423105344, -196.02498622750863, -231.88127705268562, -205.64213896356523, -0.03200000151991844, 0.20800000987946987, 1.008000047877431, 0.0, 0.0, 0.0, 0.0, 0.0, 1.7632280112646468E9, 0.0, 2025-11-15 12:33:31.264
4.0, 220.95889923209324, -160.75398974539712, -203.3944590901956, -167.18474771920592, -0.03200000151991844, 0.20800000987946987, 1.008000047877431, 0.0, 0.0, 0.0, 0.0, 0.0, 1.7632280112782912E9, 0.0, 2025-11-15 12:33:31.278
4.0, -18.05623698607087, 58.306910259183496, -14.45845322869718, 2.647849168628454, -0.03200000151991844, 0.20800000987946987, 1.008000047877431, 0.0, 0.0, 0.0, 0.0, 0.0, 1.7632280112782912E9, 0.0, 2025-11-15 12:33:31.278
5.0, -234.57774492073804, -134.48119255667552, -164.192827754654, -139.86851844284683, -0.03200000151991844, 0.20800000987946987, 1.008000047877431, 0.0, 0.0, 0.0, 0.0, 0.0, 1.763228011293949E9, 0.0, 2025-11-15 12:33:31.293
5.0, -296.5030083870515, -194.93293544044718, -223.7769138487056, -189.30251605715603, -0.03200000151991844, 0.20800000987946987, 1.008000047877431, 0.0, 0.0, 0.0, 0.0, 0.0, 1.763228011293949E9, 0.0, 2025-11-15 12:33:31.293
6.0, -77.98813377600163, -0.11032704869285226, -65.93443621881306, -31.01873023249209, -0.03200000151991844, 0.20800000987946987, 1.008000047877431, 0.0, 0.0, 0.0, 0.0, 0.0, 1.7632280112946472E9, 0.0, 2025-11-15 12:33:31.294
6.0, -145.6653633741662, -58.02641776250675, -102.11796829011291, -78.02927267551422, -0.03200000151991844, 0.20800000987946987, 1.008000047877431, 0.0, 0.0, 0.0, 0.0, 0.0, 1.7632280112946472E9, 0.0, 2025-11-15 12:33:31.294
7.0, -303.72475520148873, -206.64630210166797, -248.90530165098608, -220.5456402869895, -0.03200000151991844, 0.20800000987946987, 1.008000047877431, 0.0, 0.0, 0.0, 0.0, 0.0, 1.763228011308279E9, 0.0, 2025-11-15 12:33:31.308
7.0, -166.8182375235483, -86.76754892198369, -142.4340898124501, -108.39352041576058, -0.03200000151991844, 0.20800000987946987, 1.008000047877431, 0.0, 0.0, 0.0, 0.0, 0.0, 1.763228011308279E9, 0.0, 2025-11-15 12:33:31.308
8.0, -51.59191988874227, 31.114097681362182, -24.698299307376146, 1.5894574811682105, -0.03200000151991844, 0.20800000987946987, 1.008000047877431, 0.0, 0.0, 0.0, 0.0, 0.0, 1.7632280113243403E9, 0.0, 2025-11-15 12:33:31.324
8.0, 192.9283490641974, -190.4450554936193, -217.39290462434292, -186.70702548790723, -0.03200000151991844, 0.20800000987946987, 1.008000047877431, 0.0, 0.0, 0.0, 0.0, 0.0, 1.7632280113243403E9, 0.0, 2025-11-15 12:33:31.324
9.0, 233.38284688489512, -164.5051094009541, -210.8779989015311, -181.7179989470169, -0.03200000151991844, 0.20800000987946987, 1.008000047877431, 0.0, 0.0, 0.0, 0.0, 0.0, 1.7632280113389688E9, 0.0, 2025-11-15 12:33:31.338
9.0, -6.754259319975972, 59.8253096411936, -12.251912254840136, 18.994951874949038, -0.03200000151991844, 0.20800000987946987, 1.008000047877431, 0.0, 0.0, 0.0, 0.0, 0.0, 1.7632280113389688E9, 0.0, 2025-11-15 12:33:31.338
10.0, -242.95512082148343, -157.56759498314932, -189.5717888539657, -171.9344206629321, -0.03200000151991844, 0.20800000987946987, 1.0240000486373901, 0.0, 0.0, 0.0, 0.0, 0.0, 1.7632280113396711E9, 0.0, 2025-11-15 12:33:31.339
10.0, -316.0327659556642, -206.86695619905367, -238.62431667279452, -209.20252372138202, -0.03200000151991844, 0.20800000987946987, 1.0240000486373901, 0.0, 0.0, 0.0, 0.0, 0.0, 1.7632280113396711E9, 0.0, 2025-11-15 12:33:31.339
11.0, -80.48638694640249, -8.521362049039453, -78.16764897387475, -38.30779524613172, -0.03200000151991844, 0.20800000987946987, 1.0240000486373901, 0.0, 0.0, 0.0, 0.0, 0.0, 1.7632280113539464E9, 0.0, 2025-11-15 12:33:31.353
11.0, -148.30947264283895, -59.36904184659943, -111.59861467778683, -92.21471320744604, -0.03200000151991844, 0.20800000987946987, 1.0240000486373901, 0.0, 0.0, 0.0, 0.0, 0.0, 1.7632280113539464E9, 0.0, 2025-11-15 12:33:31.353
12.0, -281.61446666345, -190.17204279685393, -235.3369446117431, -202.545501800254, -0.03200000151991844, 0.20800000987946987, 1.0240000486373901, 0.0, 0.0, 0.0, 0.0, 0.0, 1.7632280113546505E9, 0.0, 2025-11-15 12:33:31.354
12.0, -143.15589050389826, -78.98855701414868, -144.09834529273212, -107.27903022896498, -0.03200000151991844, 0.20800000987946987, 1.0240000486373901, 0.0, 0.0, 0.0, 0.0, 0.0, 1.7632280113546505E9, 0.0, 2025-11-15 12:33:31.354
13.0, -75.54971900489181, 18.925763725768775, -41.04914191365242, -3.100377063266933, -0.03200000151991844, 0.20800000987946987, 1.0240000486373901, 0.0, 0.0, 0.0, 0.0, 0.0, 1.7632280113846667E9, 0.0, 2025-11-15 12:33:31.384
13.0, -312.20684830099344, -209.32407046994194, -242.51007272675633, -223.89659064728767, -0.03200000151991844, 0.20800000987946987, 1.0240000486373901, 0.0, 0.0, 0.0, 0.0, 0.0, 1.7632280113846667E9, 0.0, 2025-11-15 12:33:31.384
14.0, -263.6517271762714, -165.8776526846923, -215.71368954423815, -179.6460943715647, -0.03200000151991844, 0.20800000987946987, 1.0240000486373901, 0.0, 0.0, 0.0, 0.0, 0.0, 1.763228011385367E9, 0.0, 2025-11-15 12:33:31.385
14.0, -29.451712151058018, 52.689580525737256, -20.640507855452597, 4.663655244745314, -0.03200000151991844, 0.20800000987946987, 1.0240000486373901, 0.0, 0.0, 0.0, 0.0, 0.0, 1.763228011385367E9, 0.0, 2025-11-15 12:33:31.385
15.0, -252.8995148036629, -144.77713713468984, -185.94782579690218, -163.04841836821288, -0.03200000151991844, 0.20800000987946987, 1.0240000486373901, 0.0, 0.0, 0.0, 0.0, 0.0, 1.76322801138611E9, 0.0, 2025-11-15 12:33:31.386
15.0, -295.9270637938753, -191.6642628791742, -232.42356254626065, -202.28744870331138, -0.03200000151991844, 0.20800000987946987, 1.0240000486373901, 0.0, 0.0, 0.0, 0.0, 0.0, 1.76322801138611E9, 0.0, 2025-11-15 12:33:31.386
16.0, -68.45886868890375, 4.261615999508649, -67.1798229040578, -29.7546440474689, -0.03200000151991844, 0.20800000987946987, 1.0240000486373901, 0.0, 0.0, 0.0, 0.0, 0.0, 1.7632280113983233E9, 0.0, 2025-11-15 12:33:31.398
16.0, -155.28812596015632, -62.24502491252497, -103.52791057340801, -71.1067178575322, -0.03200000151991844, 0.20800000987946987, 1.0240000486373901, 0.0, 0.0, 0.0, 0.0, 0.0, 1.7632280113983233E9, 0.0, 2025-11-15 12:33:31.398
17.0, -320.90585559792817, -214.1186222131364, -243.7105806125328, -212.3963982835412, -0.03200000151991844, 0.20800000987946987, 1.0240000486373901, 0.0, 0.0, 0.0, 0.0, 0.0, 1.763228011413923E9, 0.0, 2025-11-15 12:33:31.413
17.0, -156.61579044442624, -85.96721033146605, -148.5525661399588, -114.0183299491182, -0.03200000151991844, 0.20800000987946987, 1.0240000486373901, 0.0, 0.0, 0.0, 0.0, 0.0, 1.763228011413923E9, 0.0, 2025-11-15 12:33:31.413
18.0, -52.60917267668992, 38.03291259938851, -23.68104651942849, 5.501392834819853, -0.03200000151991844, 0.20800000987946987, 1.0240000486373901, 0.0, 0.0, 0.0, 0.0, 0.0, 1.7632280114146297E9, 0.0, 2025-11-15 12:33:31.414
18.0, 180.82603280758485, -198.90844909334555, -232.59933784417808, -203.97040368337184, -0.03200000151991844, 0.20800000987946987, 1.0240000486373901, 0.0, 0.0, 0.0, 0.0, 0.0, 1.7632280114146297E9, 0.0, 2025-11-15 12:33:31.414
19.0, 232.9078795905225, -156.92433219077066, -199.78919553291053, -170.13552878424525, -0.03200000151991844, 0.20800000987946987, 1.0240000486373901, 0.0, 0.0, 0.0, 0.0, 0.0, 1.7632280114282672E9, 0.0, 2025-11-15 12:33:31.428
19.0, 467.2462709140964, 57.25599837163463, -11.735806060954928, 10.303424377925694, -0.03200000151991844, 0.20800000987946987, 1.0240000486373901, 0.0, 0.0, 0.0, 0.0, 0.0, 1.7632280114282672E9, 0.0, 2025-11-15 12:33:31.428
20.0, 241.8051015851088, -146.14968041842803, -183.17655992973596, -159.57779120933264, -0.03200000151991844, 0.20800000987946987, 1.0240000486373901, 0.0, 0.0, 0.0, 0.0, 0.0, 1.7632280114439187E9, 0.0, 2025-11-15 12:33:31.443
20.0, 199.7013078839518, -192.91338946437463, -232.1842089490965, -200.28660222701728, -0.03200000151991844, 0.20800000987946987, 1.0240000486373901, 0.0, 0.0, 0.0, 0.0, 0.0, 1.7632280114439187E9, 0.0, 2025-11-15 12:33:31.443
21.0, 409.38253879966214, -11.44970371434465, -72.72609453834593, -38.70796454139054, -0.03200000151991844, 0.20800000987946987, 1.0240000486373901, 0.0, 0.0, 0.0, 0.0, 0.0, 1.7632280114446352E9, 0.0, 2025-11-15 12:33:31.444
21.0, 348.05191942630336, -45.479053411167115, -90.95436692237854, -62.37031156104058, -0.03200000151991844, 0.20800000987946987, 1.0240000486373901, 0.0, 0.0, 0.0, 0.0, 0.0, 1.7632280114446352E9, 0.0, 2025-11-15 12:33:31.444
22.0, 193.7399073545821, -191.3688107826747, -225.82263912446797, -194.06714860070497, -0.03200000151991844, 0.20800000987946987, 1.0240000486373901, 0.0, 0.0, 0.0, 0.0, 0.0, 1.7632280114582295E9, 0.0, 2025-11-15 12:33:31.458
22.0, 332.3929583118297, -84.06360125401989, -138.4772756593302, -102.95944578014314, -0.03200000151991844, 0.20800000987946987, 1.0240000486373901, 0.0, 0.0, 0.0, 0.0, 0.0, 1.7632280114582295E9, 0.0, 2025-11-15 12:33:31.458
23.0, 422.4086103453301, 12.395898403134197, -49.64343201182783, -20.09448246192187, -0.03200000151991844, 0.20800000987946987, 1.0240000486373901, 0.0, 0.0, 0.0, 0.0, 0.0, 1.7632280114739804E9, 0.0, 2025-11-15 12:33:31.473
23.0, 189.39788350602612, -193.3733971589245, -225.26539403107017, -199.7630162332207, -0.03200000151991844, 0.20800000987946987, 1.0240000486373901, 0.0, 0.0, 0.0, 0.0, 0.0, 1.7632280114739804E9, 0.0, 2025-11-15 12:33:31.473
24.0, 233.25943018635735, -155.8322814037092, -202.55298160016537, -172.18125406000763, -0.03200000151991844, 0.20800000987946987, 1.0240000486373901, 0.0, 0.0, 0.0, 0.0, 0.0, 1.7632280114746854E9, 0.0, 2025-11-15 12:33:31.474
24.0, 466.4272328238003, 47.509819087106735, -23.512751021422446, 1.567018081434071, -0.03200000151991844, 0.20800000987946987, 1.0240000486373901, 0.0, 0.0, 0.0, 0.0, 0.0, 1.7632280114746854E9, 0.0, 2025-11-15 12:33:31.474
25.0, 260.5494801630266, -138.9765523034148, -174.0474641378969, -154.1811155732721, -0.03200000151991844, 0.20800000987946987, 1.0240000486373901, 0.0, 0.0, 0.0, 0.0, 0.0, 1.7632280114882572E9, 0.0, 2025-11-15 12:33:31.488
25.0, 187.0006076344289, -196.24938022485003, -233.57171183265746, -201.0944206174463, -0.03200000151991844, 0.20800000987946987, 1.0240000486373901, 0.0, 0.0, 0.0, 0.0, 0.0, 1.7632280114882572E9, 0.0, 2025-11-15 12:33:31.488
26.0, 425.8418385046534, 4.2466563996858895, -60.186209986917675, -25.521077297627926, -0.03200000151991844, 0.20800000987946987, 1.0240000486373901, 0.0, 0.0, 0.0, 0.0, 0.0, 1.7632280115039823E9, 0.0, 2025-11-15 12:33:31.503
26.0, 337.56523995054886, -57.07648317376152, -98.3070102352649, -68.17463629227132, -0.03200000151991844, 0.20800000987946987, 1.0240000486373901, 0.0, 0.0, 0.0, 0.0, 0.0, 1.7632280115039823E9, 0.0, 2025-11-15 12:33:31.503
27.0, 185.01846065791324, -198.89722939347848, -226.53322011604905, -190.9106730381027, -0.03200000151991844, 0.20800000987946987, 1.0240000486373901, 0.0, 0.0, 0.0, 0.0, 0.0, 1.7632280115046842E9, 0.0, 2025-11-15 12:33:31.504
27.0, 328.34264665981755, -85.29402833944187, -137.42636377178133, -107.36878782790154, -0.03200000151991844, 0.20800000987946987, 1.0240000486373901, 0.0, 0.0, 0.0, 0.0, 0.0, 1.7632280115046842E9, 0.0, 2025-11-15 12:33:31.504
28.0, 466.93211931781843, 42.93592144129798, -21.104255449958146, 0.6806617919355631, -0.03200000151991844, 0.20800000987946987, 1.0240000486373901, 0.0, 0.0, 0.0, 0.0, 0.0, 1.7632280115182323E9, 0.0, 2025-11-15 12:33:31.518
28.0, 684.3792524915189, -196.78418591851369, -222.86063835956156, -207.84494003746659, -0.03200000151991844, 0.20800000987946987, 1.0240000486373901, 0.0, 0.0, 0.0, 0.0, 0.0, 1.7632280115182323E9, 0.0, 2025-11-15 12:33:31.518
29.0, 699.5108877122402, -176.988895453047, -219.28155410196632, -186.62474768888205, -0.03200000151991844, 0.20800000987946987, 1.0240000486373901, 0.0, 0.0, 0.0, 0.0, 0.0, 1.7632280115339613E9, 0.0, 2025-11-15 12:33:31.533
29.0, 465.3950204360299, 51.492812539916486, -15.875875311903656, 22.06540973857045, -0.03200000151991844, 0.20800000987946987, 1.0240000486373901, 0.0, 0.0, 0.0, 0.0, 0.0, 1.7632280115339613E9, 0.0, 2025-11-15 12:33:31.533
30.0, 249.90572488913313, -134.83274315251037, -170.12430908437818, -139.86477854289114, -0.03200000151991844, 0.20800000987946987, 1.0240000486373901, 0.0, 0.0, 0.0, 0.0, 0.0, 1.7632280115346773E9, 0.0, 2025-11-15 12:33:31.534
30.0, 201.36182346427813, -193.19388196105137, -225.34767183009535, -199.82285463251173, -0.03200000151991844, 0.20800000987946987, 1.0240000486373901, 0.0, 0.0, 0.0, 0.0, 0.0, 1.7632280115346773E9, 0.0, 2025-11-15 12:33:31.534
31.0, 420.1796299717389, 5.884732580278069, -64.2140822391957, -23.883001117035747, -0.03200000151991844, 0.20800000987946987, 1.0240000486373901, 0.0, 0.0, 0.0, 0.0, 0.0, 1.7632280115483072E9, 0.0, 2025-11-15 12:33:31.548
31.0, 345.8079794528894, -59.511158044915646, -107.0882953312248, -79.51401295792311, -0.03200000151991844, 0.20800000987946987, 1.0240000486373901, 0.0, 0.0, 0.0, 0.0, 0.0, 1.7632280115483072E9, 0.0, 2025-11-15 12:33:31.548
32.0, 185.0708192572929, -207.58501699054614, -241.99396653287113, -222.37819126527756, -0.03200000151991844, 0.20800000987946987, 1.0240000486373901, 0.0, 0.0, 0.0, 0.0, 0.0, 1.7632280115639644E9, 0.0, 2025-11-15 12:33:31.563
32.0, 328.93729075277224, -79.70661780564114, -133.81736031454057, -103.02302407938987, -0.03200000151991844, 0.20800000987946987, 1.0240000486373901, 0.0, 0.0, 0.0, 0.0, 0.0, 1.7632280115639644E9, 0.0, 2025-11-15 12:33:31.563
33.0, 444.6722347815521, 37.58786450466141, -24.10739511437714, 5.486433234997094, -0.03200000151991844, 0.20800000987946987, 1.0240000486373901, 0.0, 0.0, 0.0, 0.0, 0.0, 1.7632280115647075E9, 0.0, 2025-11-15 12:33:31.564
33.0, 676.8919727802277, -198.8486106940545, -235.15742941386998, -210.96027670055628, -0.03200000151991844, 0.20800000987946987, 1.0240000486373901, 0.0, 0.0, 0.0, 0.0, 0.0, 1.7632280115647075E9, 0.0, 2025-11-15 12:33:31.564
34.0, 715.3082251250744, -161.4234318374656, -205.4663636656478, -172.17003436014056, -0.03200000151991844, 0.20800000987946987, 1.0240000486373901, 0.0, 0.0, 0.0, 0.0, 0.0, 1.7632280115782728E9, 0.0, 2025-11-15 12:33:31.578
34.0, 472.73644404904917, 52.02387833362445, -21.115475149825215, 4.558938045985997, -0.03200000151991844, 0.20800000987946987, 1.0240000486373901, 0.0, 0.0, 0.0, 0.0, 0.0, 1.7632280115782728E9, 0.0, 2025-11-15 12:33:31.578
35.0, 246.78290842613205, -140.84650228125975, -179.8966676685959, -159.16640221420676, -0.03200000151991844, 0.20800000987946987, 1.0240000486373901, 0.0, 0.0, 0.0, 0.0, 0.0, 1.7632280115939772E9, 0.0, 2025-11-15 12:33:31.593
35.0, 194.73098084283993, -193.777306354139, -232.2964059477672, -199.59098083525896, -0.03200000151991844, 0.20800000987946987, 1.0240000486373901, 0.0, 0.0, 0.0, 0.0, 0.0, 1.7632280115939772E9, 0.0, 2025-11-15 12:33:31.593
36.0, 405.7024772432633, 1.1350596365518868, -67.0302269058302, -27.245171177200973, -0.03200000151991844, 0.20800000987946987, 1.0240000486373901, 0.0, 0.0, 0.0, 0.0, 0.0, 1.7632280115946925E9, 0.0, 2025-11-15 12:33:31.594
36.0, 375.4504265016876, -32.39688336616382, -81.24184673745185, -51.5059021897614, -0.03200000151991844, 0.20800000987946987, 1.0240000486373901, 0.0, 0.0, 0.0, 0.0, 0.0, 1.7632280115946925E9, 0.0, 2025-11-15 12:33:31.594
37.0, 176.11749876337126, -206.40320860454813, -235.50898000970483, -201.41605201363564, -0.03200000151991844, 0.20800000987946987, 1.0240000486373901, 0.0, 0.0, 0.0, 0.0, 0.0, 1.7632280116082668E9, 0.0, 2025-11-15 12:33:31.608
37.0, 304.3960672435351, -101.11006525205448, -158.78493241872638, -131.90253153722733, -0.03200000151991844, 0.20800000987946987, 1.0240000486373901, 0.0, 0.0, 0.0, 0.0, 0.0, 1.7632280116082668E9, 0.0, 2025-11-15 12:33:31.608
38.0, 440.72664032829925, 29.12073100497946, -36.51264326740056, -13.66933433804661, -0.03200000151991844, 0.20800000987946987, 1.0240000486373901, 0.0, 0.0, 0.0, 0.0, 0.0, 1.7632280116239638E9, 0.0, 2025-11-15 12:33:31.623
38.0, 680.0634079426527, -191.99337407527491, -227.16152330860496, -200.03228903003037, -0.03200000151991844, 0.20800000987946987, 1.0240000486373901, 0.0, 0.0, 0.0, 0.0, 0.0, 1.7632280116239638E9, 0.0, 2025-11-15 12:33:31.623
39.0, 725.0618842095137, -154.7963291159831, -199.71065763384104, -169.2267330950126, -0.03200000151991844, 0.20800000987946987, 1.0240000486373901, 0.0, 0.0, 0.0, 0.0, 0.0, 1.7632280116246705E9, 0.0, 2025-11-15 12:33:31.624
39.0, 965.2270396640524, 46.61598299769685, -27.054436279460788, 5.1722816387191415, -0.03200000151991844, 0.20800000987946987, 1.0240000486373901, 0.0, 0.0, 0.0, 0.0, 0.0, 1.7632280116246705E9, 0.0, 2025-11-15 12:33:31.624
40.0, 738.2674709530547, -139.2009463007562, -176.03709091432393, -146.63773736264557, -0.03200000151991844, 0.20800000987946987, 1.0240000486373901, 0.0, 0.0, 0.0, 0.0, 0.0, 1.7632280116382723E9, 0.0, 2025-11-15 12:33:31.638
40.0, 681.6453856239095, -196.49621362192556, -232.01591345109046, -202.4669639011845, -0.03200000151991844, 0.20800000987946987, 1.0240000486373901, 0.0, 0.0, 0.0, 0.0, 0.0, 1.7632280116382723E9, 0.0, 2025-11-15 12:33:31.638
41.0, 887.9943656791002, -7.904278556350619, -69.86133117228746, -32.33891491685063, -0.03200000151991844, 0.20800000987946987, 1.0240000486373901, 0.0, 0.0, 0.0, 0.0, 0.0, 1.7632280116539676E9, 0.0, 2025-11-15 12:33:31.653
41.0, 829.7790829688311, -51.130042244214565, -101.6018620962277, -74.98125421162695, -0.03200000151991844, 0.20800000987946987, 1.0240000486373901, 0.0, 0.0, 0.0, 0.0, 0.0, 1.7632280116539676E9, 0.0, 2025-11-15 12:33:31.653
42.0, 666.1883791070431, -211.80736404052004, -248.65472835395485, -218.94870300590992, -0.03200000151991844, 0.20800000987946987, 1.0240000486373901, 0.0, 0.0, 0.0, 0.0, 0.0, 1.7632280116546695E9, 0.0, 2025-11-15 12:33:31.654
42.0, 803.536204979755, -92.81122725037858, -157.14311633817852, -123.0240090424195, -0.03200000151991844, 0.20800000987946987, 1.0240000486373901, 0.0, 0.0, 0.0, 0.0, 0.0, 1.7632280116546695E9, 0.0, 2025-11-15 12:33:31.654
43.0, 938.9953813748434, 34.39025004254654, -30.326848740689456, -5.744486331939697, -0.03200000151991844, 0.20800000987946987, 1.0240000486373901, 0.0, 0.0, 0.0, 0.0, 0.0, 1.7632280116682608E9, 0.0, 2025-11-15 12:33:31.668
43.0, 1170.792510678526, -194.5926045444794, -227.86836440023035, -207.3550131432712, -0.03200000151991844, 0.20800000987946987, 1.0240000486373901, 0.0, 0.0, 0.0, 0.0, 0.0, 1.7632280116682608E9, 0.0, 2025-11-15 12:33:31.668
44.0, 1221.5392131772824, -164.3929124022834, -214.2177295619622, -187.4587453790009, -0.03200000151991844, 0.20800000987946987, 1.0240000486373901, 0.0, 0.0, 0.0, 0.0, 0.0, 1.763228011684029E9, 0.0, 2025-11-15 12:33:31.684
44.0, 1460.7095552436076, 61.167933725286275, -15.075536721386015, 13.66185453813523, -0.03200000151991844, 0.20800000987946987, 1.0240000486373901, 0.0, 0.0, 0.0, 0.0, 0.0, 1.763228011684029E9, 0.0, 2025-11-15 12:33:31.684
45.0, 1242.7668853257783, -135.6742206425406, -171.1901805717498, -137.37026527244598, -0.03200000151991844, 0.20800000987946987, 1.0240000486373901, 0.0, 0.0, 0.0, 0.0, 0.0, 1.7632280116846817E9, 0.0, 2025-11-15 12:33:31.684
45.0, 1161.094950093422, -194.00918015139177, -232.31884534750134, -202.32858760282397, -0.03200000151991844, 0.20800000987946987, 1.0240000486373901, 0.0, 0.0, 0.0, 0.0, 0.0, 1.7632280116846817E9, 0.0, 2025-11-15 12:33:31.684
46.0, 1372.4666157891043, -15.937583661172539, -77.40096948295832, -30.715798336081207, -0.03200000151991844, 0.20800000987946987, 1.0240000486373901, 0.0, 0.0, 0.0, 0.0, 0.0, 1.7632280116982877E9, 0.0, 2025-11-15 12:33:31.698
46.0, 1337.2554577062838, -43.13413613894954, -99.68703331891447, -71.02070015855134, -0.03200000151991844, 0.20800000987946987, 1.0240000486373901, 0.0, 0.0, 0.0, 0.0, 0.0, 1.7632280116982877E9, 0.0, 2025-11-15 12:33:31.698
47.0, 1163.9484937596135, -203.16071534296498, -246.09289688430727, -212.33281998429447, -0.03200000151991844, 0.20800000987946987, 1.0240000486373901, 0.0, 0.0, 0.0, 0.0, 0.0, 1.7632280117139707E9, 0.0, 2025-11-15 12:33:31.713
47.0, 1312.1719487034716, -75.52540965517983, -138.67175045702606, -101.38868779875338, -0.03200000151991844, 0.20800000987946987, 1.0240000486373901, 0.0, 0.0, 0.0, 0.0, 0.0, 1.7632280117139707E9, 0.0, 2025-11-15 12:33:31.713
48.0, 1448.2930873907171, 37.16899570962414, -36.55004226695746, -5.7744055315852165, -0.03200000151991844, 0.20800000987946987, 1.0240000486373901, 0.0, 0.0, 0.0, 0.0, 0.0, 1.7632280117146666E9, 0.0, 2025-11-15 12:33:31.714
48.0, 1681.1897472813725, -187.33719863044098, -224.92880303505808, -188.3825006680563, -0.03200000151991844, 0.20800000987946987, 1.0240000486373901, 0.0, 0.0, 0.0, 0.0, 0.0, 1.7632280117146666E9, 0.0, 2025-11-15 12:33:31.714
49.0, 1667.868223639205, -177.79671384347603, -223.94520934671164, -183.7525045229122, -0.03200000151991844, 0.20800000987946987, 1.0240000486373901, 0.0, 0.0, 0.0, 0.0, 0.0, 1.763228011728335E9, 0.0, 2025-11-15 12:33:31.728
49.0, 1435.0800208472647, 50.47929965192452, -26.807602882385254, 10.05659098085016, -0.03200000151991844, 0.20800000987946987, 1.0240000486373901, 0.0, 0.0, 0.0, 0.0, 0.0, 1.763228011728335E9, 0.0, 2025-11-15 12:33:31.728
50.0, 1241.2559657436796, -125.79714485956356, -162.42011517565697, -128.2785684801638, -0.03200000151991844, 0.20800000987946987, 1.0240000486373901, 0.0, 0.0, 0.0, 0.0, 0.0, 1.7632280117440107E9, 0.0, 2025-11-15 12:33:31.744
50.0, 1192.405392522458, -188.4778681169264, -233.6315502319485, -203.2785221915692, -0.03200000151991844, 0.20800000987946987, 1.0240000486373901, 0.0, 0.0, 0.0, 0.0, 0.0, 1.7632280117440107E9, 0.0, 2025-11-15 12:33:31.744
51.0, 1387.8937031063251, -0.9031858392991126, -75.34776440728456, -41.89061940368265, -0.03200000151991844, 0.20800000987946987, 1.0240000486373901, 0.0, 0.0, 0.0, 0.0, 0.0, 1.7632280117446864E9, 0.0, 2025-11-15 12:33:31.744
51.0, 1335.4004673282616, -40.647102668415755, -89.89971513487399, -48.00909573119134, -0.03200000151991844, 0.20800000987946987, 1.0240000486373901, 0.0, 0.0, 0.0, 0.0, 0.0, 1.7632280117446864E9, 0.0, 2025-11-15 12:33:31.744
52.0, 1160.2572125033475, -203.34771034074947, -242.10990343149751, -207.3587530432269, -0.03200000151991844, 0.20800000987946987, 1.0240000486373901, 0.0, 0.0, 0.0, 0.0, 0.0, 1.7632280117583127E9, 0.0, 2025-11-15 12:33:31.758
52.0, 1289.3697786736302, -93.83595983823761, -153.06662538647652, -125.06973431818187, -0.03200000151991844, 0.20800000987946987, 1.0240000486373901, 0.0, 0.0, 0.0, 0.0, 0.0, 1.7632280117583127E9, 0.0, 2025-11-15 12:33:31.758
53.0, 1444.5419677351601, 54.07708340929821, -11.518891863524914, 19.425040369853377, -0.03200000151991844, 0.20800000987946987, 1.0240000486373901, 0.0, 0.0, 0.0, 0.0, 0.0, 1.7632280117739525E9, 0.0, 2025-11-15 12:33:31.773
53.0, 1676.2231601402164, -173.6903036921285, -207.33631364349276, -171.6389685664326, -0.03200000151991844, 0.20800000987946987, 1.0240000486373901, 0.0, 0.0, 0.0, 0.0, 0.0, 1.7632280117739525E9, 0.0, 2025-11-15 12:33:31.773
54.0, 1700.614787651226, -158.8316811681725, -206.28914165589958, -170.14300858415663, -0.03200000151991844, 0.20800000987946987, 1.0240000486373901, 0.0, 0.0, 0.0, 0.0, 0.0, 1.7632280117746668E9, 0.0, 2025-11-15 12:33:31.774
54.0, 1943.0575421787798, 49.60042316233739, -26.18303958978504, 5.112443239428103, -0.03200000151991844, 0.20800000987946987, 1.0240000486373901, 0.0, 0.0, 0.0, 0.0, 0.0, 1.7632280117746668E9, 0.0, 2025-11-15 12:33:31.774
55.0, 1740.583098477684, -121.03251231601462, -162.2293802779168, -136.89529797807336, -0.03200000151991844, 0.20800000987946987, 1.0240000486373901, 0.0, 0.0, 0.0, 0.0, 0.0, 1.763228011788295E9, 0.0, 2025-11-15 12:33:31.788
55.0, 1651.9998281272128, -197.36013051168993, -239.66026896052063, -202.2837088033557, -0.03200000151991844, 0.20800000987946987, 1.0240000486373901, 0.0, 0.0, 0.0, 0.0, 0.0, 1.763228011788295E9, 0.0, 2025-11-15 12:33:31.788
56.0, 1868.7457300592214, -11.819953809957951, -84.40206220000982, -49.333020315505564, -0.03200000151991844, 0.20800000987946987, 1.0240000486373901, 0.0, 0.0, 0.0, 0.0, 0.0, 1.7632280118039532E9, 0.0, 2025-11-15 12:33:31.803
56.0, 1834.5069459648803, -27.669649822171777, -81.46624073479325, -58.35739890858531, -0.03200000151991844, 0.20800000987946987, 1.0240000486373901, 0.0, 0.0, 0.0, 0.0, 0.0, 1.7632280118039532E9, 0.0, 2025-11-15 12:33:31.803
57.0, 1651.2219289364293, -206.58272380242124, -246.9680334739387, -212.6619311803952, -0.03200000151991844, 0.20800000987946987, 1.0240000486373901, 0.0, 0.0, 0.0, 0.0, 0.0, 1.7632280118046627E9, 0.0, 2025-11-15 12:33:31.804
57.0, 1786.9129791287705, -87.24251621635631, -150.16446302086115, -116.48666391987354, -0.03200000151991844, 0.20800000987946987, 1.0240000486373901, 0.0, 0.0, 0.0, 0.0, 0.0, 1.7632280118046627E9, 0.0, 2025-11-15 12:33:31.804
58.0, 1925.120981991291, 41.16694876225665, -26.58694878499955, 11.24587916675955, -0.03200000151991844, 0.20800000987946987, 1.0240000486373901, 0.0, 0.0, 0.0, 0.0, 0.0, 1.7632280118183365E9, 0.0, 2025-11-15 12:33:31.818
58.0, 2153.0473148408346, -183.1746899797581, -225.0335202338174, -192.49265071935952, -0.03200000151991844, 0.20800000987946987, 1.0240000486373901, 0.0, 0.0, 0.0, 0.0, 0.0, 1.7632280118183365E9, 0.0, 2025-11-15 12:33:31.818
59.0, 2186.2277072477154, -167.871019361075, -217.68087692093104, -184.5640628132969, -0.03200000151991844, 0.20800000987946987, 1.0240000486373901, 0.0, 0.0, 0.0, 0.0, 0.0, 1.7632280118339572E9, 0.0, 2025-11-15 12:33:31.833
59.0, 1981.9899007175118, 68.10544814309105, -12.659561350010335, 21.26507114805281, -0.03200000151991844, 0.20800000987946987, 1.0240000486373901, 0.0, 0.0, 0.0, 0.0, 0.0, 1.7632280118339572E9, 0.0, 2025-11-15 12:33:31.833
60.0, 1737.0526329195127, -123.29141188925132, -160.58382429741323, -142.57994591072202, -0.03200000151991844, 0.20800000987946987, 1.0240000486373901, 0.0, 0.0, 0.0, 0.0, 0.0, 1.7632280118346665E9, 0.0, 2025-11-15 12:33:31.834
60.0, 1641.2737950542942, -199.60407048510388, -236.44021509867162, -201.41231211367995, -0.03200000151991844, 0.20800000987946987, 1.0240000486373901, 0.0, 0.0, 0.0, 0.0, 0.0, 1.7632280118346665E9, 0.0, 2025-11-15 12:33:31.834
61.0, 1870.3090082406998, -6.606533271726221, -77.28503258433193, -49.03008841909468, -0.03200000151991844, 0.20800000987946987, 1.0240000486373901, 0.0, 0.0, 0.0, 0.0, 0.0, 1.7632280118483107E9, 0.0, 2025-11-15 12:33:31.848
61.0, 1825.5349259711802, -31.764840273652226, -84.7835319954902, -53.20755666960031, -0.03200000151991844, 0.20800000987946987, 1.0240000486373901, 0.0, 0.0, 0.0, 0.0, 0.0, 1.7632280118483107E9, 0.0, 2025-11-15 12:33:31.848
62.0, 1648.319766570814, -204.02837213268504, -241.82567103486508, -217.08997272793204, -0.03200000151991844, 0.20800000987946987, 1.0240000486373901, 0.0, 0.0, 0.0, 0.0, 0.0, 1.7632280118639507E9, 0.0, 2025-11-15 12:33:31.863
62.0, 1765.730185779743, -103.52230072347447, -163.99835295695812, -127.59042688831687, -0.03200000151991844, 0.20800000987946987, 1.0240000486373901, 0.0, 0.0, 0.0, 0.0, 0.0, 1.7632280118639507E9, 0.0, 2025-11-15 12:33:31.863
63.0, 1921.575556833297, 41.58581755729392, -23.052743326872587, 9.200153890997171, -0.03200000151991844, 0.20800000987946987, 1.0240000486373901, 0.0, 0.0, 0.0, 0.0, 0.0, 1.7632280118646588E9, 0.0, 2025-11-15 12:33:31.864
63.0, 2165.6657372913323, -187.07914553349838, -219.22171570267528, -188.2366445697844, -0.03200000151991844, 0.20800000987946987, 1.0240000486373901, 0.0, 0.0, 0.0, 0.0, 0.0, 1.7632280118646588E9, 0.0, 2025-11-15 12:33:31.864
64.0, 2176.586245161947, -168.56290085287765, -207.66168493963778, -170.73765267711133, -0.03200000151991844, 0.20800000987946987, 1.0240000486373901, 0.0, 0.0, 0.0, 0.0, 0.0, 1.763228011878301E9, 0.0, 2025-11-15 12:33:31.878
64.0, 1947.9717707205564, 63.42309339856729, -5.849203530699015, 27.159153478220105, -0.03200000151991844, 0.20800000987946987, 1.0240000486373901, 0.0, 0.0, 0.0, 0.0, 0.0, 1.763228011878301E9, 0.0, 2025-11-15 12:33:31.878
65.0, 1729.5578734083101, -127.14350884361193, -165.3708962406963, -141.9927816176787, -0.03200000151991844, 0.20800000987946987, 1.0240000486373901, 0.0, 0.0, 0.0, 0.0, 0.0, 1.7632280118939493E9, 0.0, 2025-11-15 12:33:31.893
65.0, 1664.4536949796602, -192.21028827270493, -237.25551328901201, -201.77508240938187, -0.03200000151991844, 0.20800000987946987, 1.0240000486373901, 0.0, 0.0, 0.0, 0.0, 0.0, 1.7632280118939493E9, 0.0, 2025-11-15 12:33:31.893
66.0, 1875.1484387833625, -11.771335110533983, -82.36007682420313, -48.065194230526686, -0.03200000151991844, 0.20800000987946987, 1.0240000486373901, 0.0, 0.0, 0.0, 0.0, 0.0, 1.763228011894664E9, 0.0, 2025-11-15 12:33:31.894
66.0, 1820.6468767290935, -48.92724117031321, -100.77908410597593, -73.5900114281103, -0.03200000151991844, 0.20800000987946987, 1.0240000486373901, 0.0, 0.0, 0.0, 0.0, 0.0, 1.763228011894664E9, 0.0, 2025-11-15 12:33:31.894
67.0, 1639.093433380127, -209.24179267091677, -252.3460096102208, -218.29796041361988, -0.03200000151991844, 0.20800000987946987, 1.0240000486373901, 0.0, 0.0, 0.0, 0.0, 0.0, 1.7632280119084013E9, 0.0, 2025-11-15 12:33:31.908
67.0, 1773.1838063914329, -97.92367048980668, -164.3760828524828, -121.77862235717475, -0.03200000151991844, 0.20800000987946987, 1.0240000486373901, 0.0, 0.0, 0.0, 0.0, 0.0, 1.7632280119084013E9, 0.0, 2025-11-15 12:33:31.908
68.0, 1917.8431366775185, 36.72394761489704, -36.65101956576109, -5.995059628970921, -0.03200000151991844, 0.20800000987946987, 1.0240000486373901, 0.0, 0.0, 0.0, 0.0, 0.0, 1.7632280119246893E9, 0.0, 2025-11-15 12:33:31.924
68.0, 2159.0909931692295, -189.20714860828593, -230.23572107218206, -190.9106730381027, -0.03200000151991844, 0.20800000987946987, 1.0240000486373901, 0.0, 0.0, 0.0, 0.0, 0.0, 1.7632280119246893E9, 0.0, 2025-11-15 12:33:31.924
69.0, 2202.455133155454, -166.38627907866612, -219.82757949549705, -186.5349900899455, -0.03200000151991844, 0.20800000987946987, 1.0240000486373901, 0.0, 0.0, 0.0, 0.0, 0.0, 1.7632280119253745E9, 0.0, 2025-11-15 12:33:31.925
69.0, 2415.7154483287595, 57.00168517464772, -20.06082336232066, 8.02208540495485, -0.03200000151991844, 0.20800000987946987, 1.0240000486373901, 0.0, 0.0, 0.0, 0.0, 0.0, 1.7632280119253745E9, 0.0, 2025-11-15 12:33:31.925
70.0, 2216.1506467931904, -126.97521334560588, -172.81703705247492, -142.34433221351355, -0.03200000151991844, 0.20800000987946987, 1.0240000486373901, 0.0, 0.0, 0.0, 0.0, 0.0, 1.7632280119382763E9, 0.0, 2025-11-15 12:33:31.938
70.0, 2141.139473381918, -201.77321245940402, -242.60731012560427, -211.74939559120685, -0.03200000151991844, 0.20800000987946987, 1.0240000486373901, 0.0, 0.0, 0.0, 0.0, 0.0, 1.7632280119382763E9, 0.0, 2025-11-15 12:33:31.938
71.0, 2362.182520363014, -13.630065388511866, -87.95122725795954, -55.784347739070654, -0.03200000151991844, 0.20800000987946987, 1.0240000486373901, 0.0, 0.0, 0.0, 0.0, 0.0, 1.7632280119547431E9, 0.0, 2025-11-15 12:33:31.954
71.0, 2326.8778647813015, -36.46963441791013, -91.98657931014895, -60.519061082974076, -0.03200000151991844, 0.20800000987946987, 1.0240000486373901, 0.0, 0.0, 0.0, 0.0, 0.0, 1.7632280119547431E9, 0.0, 2025-11-15 12:33:31.954
72.0, 2146.408992419485, -201.7395533598028, -239.4844936626032, -210.04400121141225, -0.03200000151991844, 0.20800000987946987, 1.0240000486373901, 0.0, 0.0, 0.0, 0.0, 0.0, 1.763228011955367E9, 0.0, 2025-11-15 12:33:31.955
72.0, 2254.2003889423795, -105.02574050566182, -162.80158497113734, -128.77223527431488, -0.03200000151991844, 0.20800000987946987, 1.0240000486373901, 0.0, 0.0, 0.0, 0.0, 0.0, 1.763228011955367E9, 0.0, 2025-11-15 12:33:31.955
73.0, 2427.926221684087, 45.00034621683881, -23.81194301787764, 10.531558275222778, -0.03200000151991844, 0.20800000987946987, 1.0240000486373901, 0.0, 0.0, 0.0, 0.0, 0.0, 1.7632280119683013E9, 0.0, 2025-11-15 12:33:31.968
73.0, 2191.2354332883842, -175.78464766731486, -211.53622129373252, -184.8258558101952, -0.03200000151991844, 0.20800000987946987, 1.0240000486373901, 0.0, 0.0, 0.0, 0.0, 0.0, 1.7632280119683013E9, 0.0, 2025-11-15 12:33:31.968
74.0, 2161.5032286406495, -165.89261228451505, -208.92203122470528, -170.85358957573771, -0.03200000151991844, 0.20800000987946987, 1.0240000486373901, 0.0, 0.0, 0.0, 0.0, 0.0, 1.7632280119839613E9, 0.0, 2025-11-15 12:33:31.983
74.0, 1961.7271227575839, 69.29473632900044, -12.85029624775052, 14.671627526171505, -0.03200000151991844, 0.20800000987946987, 1.0240000486373901, 0.0, 0.0, 0.0, 0.0, 0.0, 1.7632280119839613E9, 0.0, 2025-11-15 12:33:31.983
75.0, 2204.7551716282032, -139.866648492869, -177.0094649028033, -149.12477083317935, -0.03200000151991844, 0.20800000987946987, 1.0240000486373901, 0.0, 0.0, 0.0, 0.0, 0.0, 1.7632280119846692E9, 0.0, 2025-11-15 12:33:31.984
75.0, 2168.5604198570363, -187.30727943079546, -230.2544205719605, -195.54440908320248, -0.03200000151991844, 0.20800000987946987, 1.0240000486373901, 0.0, 0.0, 0.0, 0.0, 0.0, 1.7632280119846692E9, 0.0, 2025-11-15 12:33:31.984
76.0, 2347.9484611316584, -23.252827974501997, -92.51390520390123, -47.676244635134935, -0.03200000151991844, 0.20800000987946987, 1.0240000486373901, 0.0, 0.0, 0.0, 0.0, 0.0, 1.763228011998358E9, 0.0, 2025-11-15 12:33:31.998
76.0, 2327.9138170690276, -33.64974985131994, -87.8577297590673, -62.71812225691974, -0.03200000151991844, 0.20800000987946987, 1.0240000486373901, 0.0, 0.0, 0.0, 0.0, 0.0, 1.763228011998358E9, 0.0, 2025-11-15 12:33:31.998
77.0, 2153.088453740347, -202.53241215040907, -249.54108464345336, -221.67135017365217, -0.03200000151991844, 0.20800000987946987, 1.0240000486373901, 0.0, 0.0, 0.0, 0.0, 0.0, 1.7632280120139432E9, 0.0, 2025-11-15 12:33:32.013
77.0, 2247.9697156162, -104.48719491204247, -166.90051532257348, -136.29317408520728, -0.03200000151991844, 0.20800000987946987, 1.0240000486373901, 0.0, 0.0, 0.0, 0.0, 0.0, 1.7632280120139432E9, 0.0, 2025-11-15 12:33:32.013
78.0, 2418.9841208900325, 47.96234698174521, -20.281477459706366, 15.647741414606571, -0.03200000151991844, 0.20800000987946987, 1.0240000486373901, 0.0, 0.0, 0.0, 0.0, 0.0, 1.763228012014654E9, 0.0, 2025-11-15 12:33:32.014
78.0, 2650.743851194158, -188.9939743108116, -222.16501696780324, -188.65551336482167, -0.03200000151991844, 0.20800000987946987, 1.0240000486373901, 0.0, 0.0, 0.0, 0.0, 0.0, 1.763228012014654E9, 0.0, 2025-11-15 12:33:32.014
79.0, 2693.6143243862316, -160.95594434300438, -213.1780373742804, -180.07244296651334, -0.03200000151991844, 0.20800000987946987, 1.0240000486373901, 0.0, 0.0, 0.0, 0.0, 0.0, 1.7632280120282967E9, 0.0, 2025-11-15 12:33:32.028
79.0, 2929.706728789024, 57.21485947212204, -22.18134663719684, 15.3036706186831, -0.03200000151991844, 0.20800000987946987, 1.0240000486373901, 0.0, 0.0, 0.0, 0.0, 0.0, 1.7632280120282967E9, 0.0, 2025-11-15 12:33:32.028
80.0, 2711.41250827536, -133.91272776341066, -174.8590224282816, -152.74873389024287, -0.03200000151991844, 0.20800000987946987, 1.0240000486373901, 0.0, 0.0, 0.0, 0.0, 0.0, 1.7632280120439522E9, 0.0, 2025-11-15 12:33:32.043
80.0, 2649.5433433083817, -190.83026518905535, -240.66256214864552, -217.18347022682428, -0.03200000151991844, 0.20800000987946987, 1.0240000486373901, 0.0, 0.0, 0.0, 0.0, 0.0, 1.7632280120439522E9, 0.0, 2025-11-15 12:33:32.043
81.0, 2880.377448373474, -3.4463178091682494, -72.52413994073868, -38.14697954803705, -0.03200000151991844, 0.20800000987946987, 1.0240000486373901, 0.0, 0.0, 0.0, 0.0, 0.0, 1.7632280120446568E9, 0.0, 2025-11-15 12:33:32.044
81.0, 2785.02869900316, -38.208687897305936, -88.02976515702903, -65.38467092532665, -0.03200000151991844, 0.20800000987946987, 1.0240000486373901, 0.0, 0.0, 0.0, 0.0, 0.0, 1.7632280120446568E9, 0.0, 2025-11-15 12:33:32.044
82.0, 2637.478426051326, -202.65956874890253, -241.97526703309268, -213.3650323720649, -0.03200000151991844, 0.20800000987946987, 1.0240000486373901, 0.0, 0.0, 0.0, 0.0, 0.0, 1.7632280120582783E9, 0.0, 2025-11-15 12:33:32.058
82.0, 2759.3318464076146, -99.95069626579061, -154.08013827446848, -108.93206600937992, -0.03200000151991844, 0.20800000987946987, 1.0240000486373901, 0.0, 0.0, 0.0, 0.0, 0.0, 1.7632280120582783E9, 0.0, 2025-11-15 12:33:32.058
83.0, 2929.3177791936323, 54.765225001145154, -18.54990378022194, 18.16843398474157, -0.03200000151991844, 0.20800000987946987, 1.0240000486373901, 0.0, 0.0, 0.0, 0.0, 0.0, 1.7632280120739794E9, 0.0, 2025-11-15 12:33:32.073
83.0, 3127.332392197568, -188.50030751666054, -221.52923397533596, -194.88992659095675, -0.03200000151991844, 0.20800000987946987, 1.0240000486373901, 0.0, 0.0, 0.0, 0.0, 0.0, 1.7632280120739794E9, 0.0, 2025-11-15 12:33:32.073
84.0, 3174.3242351408117, -166.89116557268426, -215.56035364605486, -177.0094649028033, -0.03200000151991844, 0.20800000987946987, 1.0240000486373901, 0.0, 0.0, 0.0, 0.0, 0.0, 1.7632280120746744E9, 0.0, 2025-11-15 12:33:32.074
84.0, 3407.2302447813563, 50.254905654583126, -23.176160025410354, 17.484032292850316, -0.03200000151991844, 0.20800000987946987, 1.0240000486373901, 0.0, 0.0, 0.0, 0.0, 0.0, 1.7632280120746744E9, 0.0, 2025-11-15 12:33:32.074
85.0, 3209.827105420176, -121.26438611326739, -160.63992279674858, -136.42781048361212, -0.03200000151991844, 0.20800000987946987, 1.0240000486373901, 0.0, 0.0, 0.0, 0.0, 0.0, 1.7632280120882716E9, 0.0, 2025-11-15 12:33:32.088
85.0, 3139.8685368490405, -184.6968292617239, -223.63105775043368, -193.18453221116215, -0.03200000151991844, 0.20800000987946987, 1.0240000486373901, 0.0, 0.0, 0.0, 0.0, 0.0, 1.7632280120882716E9, 0.0, 2025-11-15 12:33:32.088
86.0, 3336.931345314253, -15.844086162280291, -87.53609836287796, -56.60712572932243, -0.03200000151991844, 0.20800000987946987, 1.0240000486373901, 0.0, 0.0, 0.0, 0.0, 0.0, 1.7632280121039386E9, 0.0, 2025-11-15 12:33:32.103
86.0, 3309.289744741749, -32.980307759251446, -83.08187751565129, -56.34907263237983, -0.03200000151991844, 0.20800000987946987, 1.0240000486373901, 0.0, 0.0, 0.0, 0.0, 0.0, 1.7632280121039386E9, 0.0, 2025-11-15 12:33:32.103
87.0, 3135.99026059499, -193.70998815493658, -233.336098135449, -201.04206201806664, -0.03200000151991844, 0.20800000987946987, 1.0240000486373901, 0.0, 0.0, 0.0, 0.0, 0.0, 1.7632280121046505E9, 0.0, 2025-11-15 12:33:32.104
87.0, 3228.3545698006637, -111.22649463219568, -163.38126946426928, -126.06454770639539, -0.03200000151991844, 0.20800000987946987, 1.0240000486373901, 0.0, 0.0, 0.0, 0.0, 0.0, 1.7632280121046505E9, 0.0, 2025-11-15 12:33:32.104
88.0, 3401.0743694542907, 45.430434711743146, -22.99664482753724, 9.394628688693047, -0.03200000151991844, 0.20800000987946987, 1.0240000486373901, 0.0, 0.0, 0.0, 0.0, 0.0, 1.7632280121182833E9, 0.0, 2025-11-15 12:33:32.118
88.0, 3158.085589533206, -165.36528639076278, -195.6079873824492, -160.91667539346963, -0.03200000151991844, 0.20800000987946987, 1.0240000486373901, 0.0, 0.0, 0.0, 0.0, 0.0, 1.7632280121182833E9, 0.0, 2025-11-15 12:33:32.118
89.0, 3185.5439350078814, -158.67834526998922, -201.55442831199616, -181.50482464954257, -0.03200000151991844, 0.20800000987946987, 1.0240000486373901, 0.0, 0.0, 0.0, 0.0, 0.0, 1.7632280121339364E9, 0.0, 2025-11-15 12:33:32.133
89.0, 3379.2221340131946, 28.073559017386287, -36.73703726474196, 4.936667941510677, -0.03200000151991844, 0.20800000987946987, 1.0240000486373901, 0.0, 0.0, 0.0, 0.0, 0.0, 1.7632280121339364E9, 0.0, 2025-11-15 12:33:32.133
90.0, 3248.4864512621425, -102.91643693065271, -151.8848170004785, -140.05177354067564, -0.03200000151991844, 0.20800000987946987, 1.0240000486373901, 0.0, 0.0, 0.0, 0.0, 0.0, 1.7632280121346493E9, 0.0, 2025-11-15 12:33:32.134
90.0, 3126.9771017017774, -191.5932047800161, -228.16007659677416, -199.18707164004445, -0.03200000151991844, 0.20800000987946987, 1.0240000486373901, 0.0, 0.0, 0.0, 0.0, 0.0, 1.7632280121346493E9, 0.0, 2025-11-15 12:33:32.134
91.0, 3306.4399409755133, -42.03086565202102, -106.80780283454806, -63.821392743848264, -0.03200000151991844, 0.20800000987946987, 1.0240000486373901, 0.0, 0.0, 0.0, 0.0, 0.0, 1.7632280121482935E9, 0.0, 2025-11-15 12:33:32.148
91.0, 3317.67086054245, -33.60861095180735, -93.9724661866203, -65.19767592754215, -0.03200000151991844, 0.20800000987946987, 1.0240000486373901, 0.0, 0.0, 0.0, 0.0, 0.0, 1.7632280121482935E9, 0.0, 2025-11-15 12:33:32.148
92.0, 3138.7727461620234, -185.53830675175413, -227.7711270013824, -194.4673178959638, -0.03200000151991844, 0.20800000987946987, 1.0240000486373901, 0.0, 0.0, 0.0, 0.0, 0.0, 1.7632280121639428E9, 0.0, 2025-11-15 12:33:32.163
92.0, 3247.188705977518, -100.57151965843514, -153.64256997965276, -116.13511332403868, -0.03200000151991844, 0.20800000987946987, 1.0240000486373901, 0.0, 0.0, 0.0, 0.0, 0.0, 1.7632280121639428E9, 0.0, 2025-11-15 12:33:32.163
93.0, 3385.5650043380447, 38.02169289952144, -31.665732924826443, 1.7876721788197756, -0.03200000151991844, 0.20800000987946987, 1.0240000486373901, 0.0, 0.0, 0.0, 0.0, 0.0, 1.763228012164654E9, 0.0, 2025-11-15 12:33:32.164
93.0, 3173.220964653883, -153.10963423596695, -190.7161982404068, -172.6749208541587, -0.03200000151991844, 0.20800000987946987, 1.0240000486373901, 0.0, 0.0, 0.0, 0.0, 0.0, 1.763228012164654E9, 0.0, 2025-11-15 12:33:32.164
94.0, 3167.13240752602, -167.93085776036605, -205.9114117603749, -174.35787583421916, -0.03200000151991844, 0.20800000987946987, 1.0240000486373901, 0.0, 0.0, 0.0, 0.0, 0.0, 1.7632280121782842E9, 0.0, 2025-11-15 12:33:32.178
94.0, 3394.5033652321436, 38.52657939353958, -26.489711386151612, 16.05913040973246, -0.03200000151991844, 0.20800000987946987, 1.0240000486373901, 0.0, 0.0, 0.0, 0.0, 0.0, 1.7632280121782842E9, 0.0, 2025-11-15 12:33:32.178
95.0, 3225.21679373784, -112.33724491903558, -156.5522121451795, -134.09411291126162, -0.03200000151991844, 0.20800000987946987, 1.0240000486373901, 0.0, 0.0, 0.0, 0.0, 0.0, 1.76322801219401E9, 0.0, 2025-11-15 12:33:32.194
95.0, 3135.7172478982247, -193.2537203603424, -236.60851059667766, -201.14677921682596, -0.03200000151991844, 0.20800000987946987, 1.0240000486373901, 0.0, 0.0, 0.0, 0.0, 0.0, 1.76322801219401E9, 0.0, 2025-11-15 12:33:32.194
96.0, 3334.3956931442954, -26.970288530457765, -91.39941501710564, -47.313474339433014, -0.03200000151991844, 0.20800000987946987, 1.0240000486373901, 0.0, 0.0, 0.0, 0.0, 0.0, 1.763228012194676E9, 0.0, 2025-11-15 12:33:32.194
96.0, 3318.0972091373987, -26.34572523785755, -83.66530190873891, -52.526894877664745, -0.03200000151991844, 0.20800000987946987, 1.0240000486373901, 0.0, 0.0, 0.0, 0.0, 0.0, 1.763228012194676E9, 0.0, 2025-11-15 12:33:32.194
97.0, 3140.6651355396025, -193.2985991598107, -232.47218124568462, -192.95639831386507, -0.03200000151991844, 0.20800000987946987, 1.0240000486373901, 0.0, 0.0, 0.0, 0.0, 0.0, 1.7632280122082732E9, 0.0, 2025-11-15 12:33:32.208
97.0, 3218.63082991587, -121.20454771397635, -173.3032240467146, -142.0301806172356, -0.03200000151991844, 0.20800000987946987, 1.0240000486373901, 0.0, 0.0, 0.0, 0.0, 0.0, 1.7632280122082732E9, 0.0, 2025-11-15 12:33:32.208
98.0, 3393.7067665415816, 44.79839161923155, -26.803862982429564, 1.6156367808580399, -0.03200000151991844, 0.20800000987946987, 1.0240000486373901, 0.0, 0.0, 0.0, 0.0, 0.0, 1.7632280122239473E9, 0.0, 2025-11-15 12:33:32.223
98.0, 3193.087313218508, -158.30061537446454, -203.41315858997405, -180.3791147628799, -0.03200000151991844, 0.20800000987946987, 1.0240000486373901, 0.0, 0.0, 0.0, 0.0, 0.0, 1.7632280122239473E9, 0.0, 2025-11-15 12:33:32.223
99.0, 3149.150968539063, -171.16587122203782, -213.64926476869732, -178.00427829101682, -0.03200000151991844, 0.20800000987946987, 1.0240000486373901, 0.0, 0.0, 0.0, 0.0, 0.0, 1.7632280122246492E9, 0.0, 2025-11-15 12:33:32.224
99.0, 2905.3300608778372, 46.47386679938063, -25.558476297184825, 5.9352212296798825, -0.03200000151991844, 0.20800000987946987, 1.0240000486373901, 0.0, 0.0, 0.0, 0.0, 0.0, 1.7632280122246492E9, 0.0, 2025-11-15 12:33:32.224
100.0, 2733.590115012601, -106.93308948306367, -147.93548264726996, -118.18831839971244, -0.03200000151991844, 0.20800000987946987, 1.0240000486373901, 0.0, 0.0, 0.0, 0.0, 0.0, 1.7632280122390478E9, 0.0, 2025-11-15 12:33:32.239
100.0, 2648.006244426593, -196.0399458273314, -236.17842210177332, -198.6896649459377, -0.03200000151991844, 0.20800000987946987, 1.0240000486373901, 0.0, 0.0, 0.0, 0.0, 0.0, 1.7632280122390478E9, 0.0, 2025-11-15 12:33:32.239
0.0, -120.12371662678197, -36.96143126208335, -103.0492033790797, -53.88447856158018, -0.03200000151991844, 0.20800000987946987, 1.0240000486373901, 0.0, 0.0, 0.0, 0.0, 0.0, 1.763228012239716E9, 0.0, 2025-11-15 12:33:32.239
1.0, -112.47562121739611, -22.701192731037736, -80.85663704201579, -42.12249320093542, -0.03200000151991844, 0.20800000987946987, 1.0240000486373901, 0.0, 0.0, 0.0, 0.0, 0.0, 1.763228012253302E9, 0.0, 2025-11-15 12:33:32.253
1.0, -310.93341236608103, -203.34584039077163, -242.7456864239648, -219.8799380948767, -0.03200000151991844, 0.20800000987946987, 1.0240000486373901, 0.0, 0.0, 0.0, 0.0, 0.0, 1.763228012253302E9, 0.0, 2025-11-15 12:33:32.253
2.0, -207.5999765903689, -117.7619698047638, -174.88894162792712, -145.4447092767805, -0.03200000151991844, 0.20800000987946987, 1.0240000486373901, 0.0, 0.0, 0.0, 0.0, 0.0, 1.7632280122689881E9, 0.0, 2025-11-15 12:33:32.268
2.0, -49.888395458925515, 34.06674869637936, -26.706625583581626, 8.972019993700087, -0.03200000151991844, 0.20800000987946987, 1.0240000486373901, 0.0, 0.0, 0.0, 0.0, 0.0, 1.7632280122689881E9, 0.0, 2025-11-15 12:33:32.268
3.0, -274.16645590169355, -166.6312425257638, -209.9542436124757, -185.69725249987096, -0.03200000151991844, 0.20800000987946987, 1.0240000486373901, 0.0, 0.0, 0.0, 0.0, 0.0, 1.7632280122697191E9, 0.0, 2025-11-15 12:33:32.269
3.0, -259.0946590802632, -157.97337412834167, -203.2822620915249, -167.62231601402164, -0.03200000151991844, 0.20800000987946987, 1.0240000486373901, 0.0, 0.0, 0.0, 0.0, 0.0, 1.7632280122697191E9, 0.0, 2025-11-15 12:33:32.269
4.0, -29.318945702631027, 45.06579446606338, -25.173266601748765, 10.165048079565167, -0.03200000151991844, 0.20800000987946987, 1.0240000486373901, 0.0, 0.0, 0.0, 0.0, 0.0, 1.7632280122832596E9, 0.0, 2025-11-15 12:33:32.283
4.0, -129.21915331901982, -83.7064408082515, -139.4047708483413, -115.2038782350719, -0.03200000151991844, 0.20800000987946987, 1.0240000486373901, 0.0, 0.0, 0.0, 0.0, 0.0, 1.7632280122832596E9, 0.0, 2025-11-15 12:33:32.283
5.0, -351.6646627834998, -211.81297389045358, -245.16166179534048, -207.2428161446005, -0.03200000151991844, 0.20800000987946987, 1.0240000486373901, 0.0, 0.0, 0.0, 0.0, 0.0, 1.763228012298977E9, 0.0, 2025-11-15 12:33:32.298
5.0, -123.9309347816743, -34.33228159323335, -97.54781054425985, -53.25617536902428, -0.03200000151991844, 0.20800000987946987, 1.0240000486373901, 0.0, 0.0, 0.0, 0.0, 0.0, 1.763228012298977E9, 0.0, 2025-11-15 12:33:32.298
6.0, -112.81969201331958, -22.13646783772856, -75.23930730856955, -56.558507029898465, -0.03200000151991844, 0.20800000987946987, 1.0240000486373901, 0.0, 0.0, 0.0, 0.0, 0.0, 1.7632280122997065E9, 0.0, 2025-11-15 12:33:32.299
6.0, -313.58874133462086, -198.99259684234858, -234.43562872242182, -212.89754487760365, -0.03200000151991844, 0.20800000987946987, 1.0240000486373901, 0.0, 0.0, 0.0, 0.0, 0.0, 1.7632280122997065E9, 0.0, 2025-11-15 12:33:32.299
7.0, -197.0422390154563, -104.70223915949464, -155.72569425497204, -127.23887629248202, -0.03200000151991844, 0.20800000987946987, 1.0240000486373901, 0.0, 0.0, 0.0, 0.0, 0.0, 1.7632280123132865E9, 0.0, 2025-11-15 12:33:32.313
7.0, -39.065124987158924, 34.276183093898, -34.66887258924544, -10.120169280096889, -0.03200000151991844, 0.20800000987946987, 1.0240000486373901, 0.0, 0.0, 0.0, 0.0, 0.0, 1.7632280123132865E9, 0.0, 2025-11-15 12:33:32.313
8.0, -272.53585952101275, -172.85069615207613, -212.01118858810514, -197.6537126582116, -0.03200000151991844, 0.20800000987946987, 1.0240000486373901, 0.0, 0.0, 0.0, 0.0, 0.0, 1.7632280123289776E9, 0.0, 2025-11-15 12:33:32.328
8.0, -276.0289260796271, -169.01355879753828, -212.49737558234483, -179.87796816881746, -0.03200000151991844, 0.20800000987946987, 1.0240000486373901, 0.0, 0.0, 0.0, 0.0, 0.0, 1.7632280123289776E9, 0.0, 2025-11-15 12:33:32.328
9.0, -504.6060015214607, 51.47224309016019, -25.70433239545673, 13.575836839154363, -0.03200000151991844, 0.20800000987946987, 1.0240000486373901, 0.0, 0.0, 0.0, 0.0, 0.0, 1.7632280123296933E9, 0.0, 2025-11-15 12:33:32.329
9.0, -705.3039927436039, -111.6098343776539, -150.42251611780375, -121.7262637577951, -0.03200000151991844, 0.20800000987946987, 1.0240000486373901, 0.0, 0.0, 0.0, 0.0, 0.0, 1.7632280123296933E9, 0.0, 2025-11-15 12:33:32.329
10.0, -803.4165281811729, -207.70282383915037, -241.83689073473215, -201.3599535143003, -0.03200000151991844, 0.20800000987946987, 1.0240000486373901, 0.0, 0.0, 0.0, 0.0, 0.0, 1.7632280123432739E9, 0.0, 2025-11-15 12:33:32.343
10.0, -577.3994142590091, -22.805909929797053, -96.66893405467272, -55.705809840001166, -0.03200000151991844, 0.20800000987946987, 1.0240000486373901, 0.0, 0.0, 0.0, 0.0, 0.0, 1.7632280123432739E9, 0.0, 2025-11-15 12:33:32.343
11.0, -626.5865784762427, -32.70168521255255, -85.78956508357078, -65.00694102980196, -0.03200000151991844, 0.20800000987946987, 1.0240000486373901, 0.0, 0.0, 0.0, 0.0, 0.0, 1.7632280123589933E9, 0.0, 2025-11-15 12:33:32.358
11.0, -774.5407606232911, -193.2817696100101, -236.8553439937532, -216.2148361383006, -0.03200000151991844, 0.20800000987946987, 1.0240000486373901, 0.0, 0.0, 0.0, 0.0, 0.0, 1.7632280123589933E9, 0.0, 2025-11-15 12:33:32.358
12.0, -708.4829077059403, -126.93594439607114, -180.36789506301284, -141.85066541936249, -0.03200000151991844, 0.20800000987946987, 1.0240000486373901, 0.0, 0.0, 0.0, 0.0, 0.0, 1.7632280123597052E9, 0.0, 2025-11-15 12:33:32.359
12.0, -530.8040007110685, 30.56620233785361, -39.53448243159801, -7.984686405397952, -0.03200000151991844, 0.20800000987946987, 1.0240000486373901, 0.0, 0.0, 0.0, 0.0, 0.0, 1.7632280123597052E9, 0.0, 2025-11-15 12:33:32.359
13.0, -745.4630384678021, -159.27485931292176, -201.9471178073436, -181.572142848745, -0.03200000151991844, 0.20800000987946987, 1.0240000486373901, 0.0, 0.0, 0.0, 0.0, 0.0, 1.763228012373293E9, 0.0, 2025-11-15 12:33:32.373
13.0, -753.4701642729342, -171.20140027161688, -220.22400889080018, -182.02467074338347, -0.03200000151991844, 0.20800000987946987, 1.0240000486373901, 0.0, 0.0, 0.0, 0.0, 0.0, 1.763228012373293E9, 0.0, 2025-11-15 12:33:32.373
14.0, -995.4772204556502, 47.48924963735044, -25.214405501261353, 7.517198910936713, -0.03200000151991844, 0.20800000987946987, 1.0240000486373901, 0.0, 0.0, 0.0, 0.0, 0.0, 1.7632280123890624E9, 0.0, 2025-11-15 12:33:32.389
14.0, -1212.2119026877917, -117.60489400662482, -160.43422829918563, -137.1383914751932, -0.03200000151991844, 0.20800000987946987, 1.0240000486373901, 0.0, 0.0, 0.0, 0.0, 0.0, 1.7632280123890624E9, 0.0, 2025-11-15 12:33:32.389
15.0, -1264.7911561648361, -189.11552105937153, -233.02194653917104, -212.44501698296517, -0.03200000151991844, 0.20800000987946987, 1.0240000486373901, 0.0, 0.0, 0.0, 0.0, 0.0, 1.763228012389711E9, 0.0, 2025-11-15 12:33:32.389
15.0, -1095.3587285722606, -34.99798378534615, -95.83867626450956, -54.38936505559832, -0.03200000151991844, 0.20800000987946987, 1.0240000486373901, 0.0, 0.0, 0.0, 0.0, 0.0, 1.763228012389711E9, 0.0, 2025-11-15 12:33:32.389
16.0, -1103.4032533769496, -28.737391259521246, -82.19178132619709, -47.56030773650855, -0.03200000151991844, 0.20800000987946987, 1.0240000486373901, 0.0, 0.0, 0.0, 0.0, 0.0, 1.763228012403252E9, 0.0, 2025-11-15 12:33:32.403
16.0, -1267.760636729654, -190.14399354718626, -223.4814617522061, -192.13736022356898, -0.03200000151991844, 0.20800000987946987, 1.0240000486373901, 0.0, 0.0, 0.0, 0.0, 0.0, 1.763228012403252E9, 0.0, 2025-11-15 12:33:32.403
17.0, -1164.4309408538975, -104.70597905945033, -156.87010364141315, -128.23368968069553, -0.03200000151991844, 0.20800000987946987, 1.0240000486373901, 0.0, 0.0, 0.0, 0.0, 0.0, 1.7632280124189813E9, 0.0, 2025-11-15 12:33:32.418
17.0, -974.8030535005964, 47.47429003752768, -24.387887611053884, 1.974667176604271, -0.03200000151991844, 0.20800000987946987, 1.0240000486373901, 0.0, 0.0, 0.0, 0.0, 0.0, 1.7632280124189813E9, 0.0, 2025-11-15 12:33:32.418
18.0, -781.8335655368865, -171.68758726585656, -207.63550563994795, -178.47924558538944, -0.03200000151991844, 0.20800000987946987, 1.0240000486373901, 0.0, 0.0, 0.0, 0.0, 0.0, 1.763228012419707E9, 0.0, 2025-11-15 12:33:32.419
18.0, -755.6804451467469, -167.90654841065407, -207.0296418471262, -179.11128867790103, -0.03200000151991844, 0.20800000987946987, 1.0240000486373901, 0.0, 0.0, 0.0, 0.0, 0.0, 1.763228012419707E9, 0.0, 2025-11-15 12:33:32.419
19.0, -544.9146432438865, 27.607941472902894, -43.75682948157191, -5.419115035794675, -0.03200000151991844, 0.20800000987946987, 1.0240000486373901, 0.0, 0.0, 0.0, 0.0, 0.0, 1.763228012433358E9, 0.0, 2025-11-15 12:33:32.433
19.0, -691.0736734122038, -105.00517105590552, -151.71278160251677, -143.436383000575, -0.03200000151991844, 0.20800000987946987, 1.0240000486373901, 0.0, 0.0, 0.0, 0.0, 0.0, 1.763228012433358E9, 0.0, 2025-11-15 12:33:32.433
20.0, -795.166308878921, -196.63271997030824, -243.01121932081878, -221.09540558047593, -0.03200000151991844, 0.20800000987946987, 1.0240000486373901, 0.0, 0.0, 0.0, 0.0, 0.0, 1.7632280124489849E9, 0.0, 2025-11-15 12:33:32.448
20.0, -593.8063553646207, -27.3835474755615, -91.65746811404824, -58.86976520251483, -0.03200000151991844, 0.20800000987946987, 1.0240000486373901, 0.0, 0.0, 0.0, 0.0, 0.0, 1.7632280124489849E9, 0.0, 2025-11-15 12:33:32.448
21.0, -618.3812379734591, -39.81497492827475, -90.52053852751851, -65.2911734264344, -0.03200000151991844, 0.20800000987946987, 1.0240000486373901, 0.0, 0.0, 0.0, 0.0, 0.0, 1.7632280124496932E9, 0.0, 2025-11-15 12:33:32.449
21.0, -793.7040079962462, -199.0524352416396, -240.3708499521017, -213.38373187184334, -0.03200000151991844, 0.20800000987946987, 1.0240000486373901, 0.0, 0.0, 0.0, 0.0, 0.0, 1.7632280124496932E9, 0.0, 2025-11-15 12:33:32.449
22.0, -661.3227692646906, -102.94822608027607, -161.53375888615847, -122.8706731442362, -0.03200000151991844, 0.20800000987946987, 1.0240000486373901, 0.0, 0.0, 0.0, 0.0, 0.0, 1.7632280124633272E9, 0.0, 2025-11-15 12:33:32.463
22.0, -555.7977521149442, 22.52167753316462, -37.48875715583563, 2.4683339707553387, -0.03200000151991844, 0.20800000987946987, 1.0240000486373901, 0.0, 0.0, 0.0, 0.0, 0.0, 1.7632280124633272E9, 0.0, 2025-11-15 12:33:32.463
23.0, -771.6647775573656, -176.3400228107348, -218.34657911304384, -193.1994918109849, -0.03200000151991844, 0.20800000987946987, 1.0240000486373901, 0.0, 0.0, 0.0, 0.0, 0.0, 1.763228012478994E9, 0.0, 2025-11-15 12:33:32.478
23.0, -737.1043620668352, -165.44195433985442, -217.18721012677997, -179.95276616793126, -0.03200000151991844, 0.20800000987946987, 1.0240000486373901, 0.0, 0.0, 0.0, 0.0, 0.0, 1.763228012478994E9, 0.0, 2025-11-15 12:33:32.478
24.0, -535.3928579567, 28.030550167895854, -41.17629851214588, -15.049357421696186, -0.03200000151991844, 0.20800000987946987, 1.0240000486373901, 0.0, 0.0, 0.0, 0.0, 0.0, 1.7632280124797006E9, 0.0, 2025-11-15 12:33:32.479
24.0, -682.6327192122117, -98.62864163145423, -139.86103864293545, -114.67281244136393, -0.03200000151991844, 0.20800000987946987, 1.0240000486373901, 0.0, 0.0, 0.0, 0.0, 0.0, 1.7632280124797006E9, 0.0, 2025-11-15 12:33:32.479
25.0, -730.3987214462832, -167.08751032035798, -217.3293263250962, -187.08101548347622, -0.03200000151991844, 0.20800000987946987, 1.0240000486373901, 0.0, 0.0, 0.0, 0.0, 0.0, 1.7632280124933403E9, 0.0, 2025-11-15 12:33:32.493
25.0, -630.2105415333062, -34.25748359411955, -94.06596368551254, -58.34617920871824, -0.03200000151991844, 0.20800000987946987, 1.0240000486373901, 0.0, 0.0, 0.0, 0.0, 0.0, 1.7632280124933403E9, 0.0, 2025-11-15 12:33:32.493
26.0, -618.7776673687622, -25.0124509036541, -79.8506039539352, -49.84164670947939, -0.03200000151991844, 0.20800000987946987, 1.0240000486373901, 0.0, 0.0, 0.0, 0.0, 0.0, 1.7632280125089865E9, 0.0, 2025-11-15 12:33:32.508
26.0, -780.2403681557626, -179.50397817324847, -214.67773725651205, -196.3148284740746, -0.03200000151991844, 0.20800000987946987, 1.0240000486373901, 0.0, 0.0, 0.0, 0.0, 0.0, 1.7632280125089865E9, 0.0, 2025-11-15 12:33:32.508
27.0, -674.4011994097382, -99.78053081780672, -154.98145416378975, -123.59247383568436, -0.03200000151991844, 0.20800000987946987, 1.0240000486373901, 0.0, 0.0, 0.0, 0.0, 0.0, 1.763228012509687E9, 0.0, 2025-11-15 12:33:32.509
27.0, -526.6863708598539, 38.95853783842176, -19.398861070163548, 7.760292408056557, -0.03200000151991844, 0.20800000987946987, 1.0240000486373901, 0.0, 0.0, 0.0, 0.0, 0.0, 1.763228012509687E9, 0.0, 2025-11-15 12:33:32.509
28.0, -771.1823304630816, -170.68903397768736, -207.5831470405683, -185.37188120372593, -0.03200000151991844, 0.20800000987946987, 1.0240000486373901, 0.0, 0.0, 0.0, 0.0, 0.0, 1.7632280125233488E9, 0.0, 2025-11-15 12:33:32.523
28.0, -750.9457318028435, -154.73462076671422, -201.99573650676757, -167.6746746134013, -0.03200000151991844, 0.20800000987946987, 1.0240000486373901, 0.0, 0.0, 0.0, 0.0, 0.0, 1.7632280125233488E9, 0.0, 2025-11-15 12:33:32.523
29.0, -524.7229233831167, 39.70651782955974, -31.84524812269956, -11.713366661220789, -0.03200000151991844, 0.20800000987946987, 1.0240000486373901, 0.0, 0.0, 0.0, 0.0, 0.0, 1.7632280125390708E9, 0.0, 2025-11-15 12:33:32.539
29.0, -686.6605914644897, -100.36021531093866, -139.51696784701198, -118.9101190911606, -0.03200000151991844, 0.20800000987946987, 1.0240000486373901, 0.0, 0.0, 0.0, 0.0, 0.0, 1.7632280125390708E9, 0.0, 2025-11-15 12:33:32.539
30.0, -766.6944505162537, -182.51459763757885, -220.39230438880622, -194.86000739131123, -0.03200000151991844, 0.20800000987946987, 1.0240000486373901, 0.0, 0.0, 0.0, 0.0, 0.0, 1.7632280125397117E9, 0.0, 2025-11-15 12:33:32.539
30.0, -597.6659321188927, -35.214897982776165, -91.99031921010464, -59.45692949555814, -0.03200000151991844, 0.20800000987946987, 1.0240000486373901, 0.0, 0.0, 0.0, 0.0, 0.0, 1.7632280125397117E9, 0.0, 2025-11-15 12:33:32.539
31.0, -606.8847855096683, -40.57791451923549, -92.66724110208452, -62.10851856414229, -0.03200000151991844, 0.20800000987946987, 1.0240000486373901, 0.0, 0.0, 0.0, 0.0, 0.0, 1.7632280125533395E9, 0.0, 2025-11-15 12:33:32.553
31.0, -756.8024151334539, -188.41241986770183, -227.98056139890105, -198.74950334522873, -0.03200000151991844, 0.20800000987946987, 1.0240000486373901, 0.0, 0.0, 0.0, 0.0, 0.0, 1.7632280125533395E9, 0.0, 2025-11-15 12:33:32.553
32.0, -682.2475095167756, -106.83398213423789, -166.4816465275362, -133.6939436160028, -0.03200000151991844, 0.20800000987946987, 1.0240000486373901, 0.0, 0.0, 0.0, 0.0, 0.0, 1.7632280125689826E9, 0.0, 2025-11-15 12:33:32.568
32.0, -560.8690564548597, 29.960338545031846, -23.647387419827282, 11.578730262815952, -0.03200000151991844, 0.20800000987946987, 1.0240000486373901, 0.0, 0.0, 0.0, 0.0, 0.0, 1.7632280125689826E9, 0.0, 2025-11-15 12:33:32.568
33.0, -765.0526344357058, -173.47151954472065, -208.07307393476367, -190.1626930469647, -0.03200000151991844, 0.20800000987946987, 1.0240000486373901, 0.0, 0.0, 0.0, 0.0, 0.0, 1.7632280125696888E9, 0.0, 2025-11-15 12:33:32.569
33.0, -746.2110184589401, -167.84297011140734, -213.78764106705785, -179.44039987400174, -0.03200000151991844, 0.20800000987946987, 1.0240000486373901, 0.0, 0.0, 0.0, 0.0, 0.0, 1.7632280125696888E9, 0.0, 2025-11-15 12:33:32.569
34.0, -506.41237320005894, 38.92487873882055, -34.71001148875803, -2.543131969869137, -0.03200000151991844, 0.20800000987946987, 1.0240000486373901, 0.0, 0.0, 0.0, 0.0, 0.0, 1.7632280125833218E9, 0.0, 2025-11-15 12:33:32.583
34.0, -698.718028921634, -109.051742807962, -146.2188685676083, -118.92507869098336, -0.03200000151991844, 0.20800000987946987, 1.0240000486373901, 0.0, 0.0, 0.0, 0.0, 0.0, 1.7632280125833218E9, 0.0, 2025-11-15 12:33:32.583
35.0, -771.8442927552387, -185.55887620151043, -219.6929430970922, -186.89402048569173, -0.03200000151991844, 0.20800000987946987, 1.0240000486373901, 0.0, 0.0, 0.0, 0.0, 0.0, 1.7632280125989933E9, 0.0, 2025-11-15 12:33:32.598
35.0, -579.4301799349487, -5.351796836592257, -71.18525575660169, -31.35532122850418, -0.03200000151991844, 0.20800000987946987, 1.0240000486373901, 0.0, 0.0, 0.0, 0.0, 0.0, 1.7632280125989933E9, 0.0, 2025-11-15 12:33:32.598
36.0, -606.4920960143209, -18.58356287982315, -65.83719881996512, -27.955752168782055, -0.03200000151991844, 0.20800000987946987, 1.0240000486373901, 0.0, 0.0, 0.0, 0.0, 0.0, 1.763228012599692E9, 0.0, 2025-11-15 12:33:32.599
36.0, -760.2543427925557, -165.68130793701857, -205.38034596666694, -180.43895316217095, -0.03200000151991844, 0.20800000987946987, 1.0240000486373901, 0.0, 0.0, 0.0, 0.0, 0.0, 1.763228012599692E9, 0.0, 2025-11-15 12:33:32.599
37.0, -652.586362968199, -85.88306258246303, -137.0635934760794, -103.15392057783902, -0.03200000151991844, 0.20800000987946987, 1.0240000486373901, 0.0, 0.0, 0.0, 0.0, 0.0, 1.7632280126133225E9, 0.0, 2025-11-15 12:33:32.613
37.0, -522.7071173069999, 51.20671019330621, -13.871288935653865, 22.697452831082046, -0.03200000151991844, 0.20800000987946987, 1.0240000486373901, 0.0, 0.0, 0.0, 0.0, 0.0, 1.7632280126133225E9, 0.0, 2025-11-15 12:33:32.613
38.0, -755.4897102490067, -144.78648688457906, -181.09343565441668, -165.50179273914546, -0.03200000151991844, 0.20800000987946987, 1.0240000486373901, 0.0, 0.0, 0.0, 0.0, 0.0, 1.7632280126289756E9, 0.0, 2025-11-15 12:33:32.628
38.0, -723.2330731311813, -137.30668697319925, -176.79629060532898, -149.79795282520354, -0.03200000151991844, 0.20800000987946987, 1.0240000486373901, 0.0, 0.0, 0.0, 0.0, 0.0, 1.7632280126289756E9, 0.0, 2025-11-15 12:33:32.628
39.0, -947.2960893264972, 81.31290483660996, 6.511165822856128, 34.48187759146094, -0.03200000151991844, 0.20800000987946987, 1.0240000486373901, 0.0, 0.0, 0.0, 0.0, 0.0, 1.7632280126296945E9, 0.0, 2025-11-15 12:33:32.629
39.0, -710.4912339821458, -88.68050774931908, -115.99299712572247, -88.3738359529525, -0.03200000151991844, 0.20800000987946987, 1.0240000486373901, 0.0, 0.0, 0.0, 0.0, 0.0, 1.7632280126296945E9, 0.0, 2025-11-15 12:33:32.629
40.0, -748.4811377320439, -155.4452017582953, -189.10430135950446, -160.0041398042813, -0.03200000151991844, 0.20800000987946987, 1.0240000486373901, 0.0, 0.0, 0.0, 0.0, 0.0, 1.7632280126433437E9, 0.0, 2025-11-15 12:33:32.643
40.0, -589.1389602199197, -18.5274643804878, -72.13145044539124, -37.5373758552596, -0.03200000151991844, 0.20800000987946987, 1.0240000486373901, 0.0, 0.0, 0.0, 0.0, 0.0, 1.7632280126433437E9, 0.0, 2025-11-15 12:33:32.643
41.0, -585.215805166401, -11.522631763480604, -59.08667939994484, -36.037675973027945, -0.03200000151991844, 0.20800000987946987, 1.0240000486373901, 0.0, 0.0, 0.0, 0.0, 0.0, 1.7632280126589792E9, 0.0, 2025-11-15 12:33:32.658
41.0, -764.0690407473594, -173.94648683909327, -201.0944206174463, -169.8213771879673, -0.03200000151991844, 0.20800000987946987, 1.0240000486373901, 0.0, 0.0, 0.0, 0.0, 0.0, 1.7632280126589792E9, 0.0, 2025-11-15 12:33:32.658
42.0, -664.3520882287994, -87.40894176438451, -141.1438243277371, -101.36624839901924, -0.03200000151991844, 0.20800000987946987, 1.0240000486373901, 0.0, 0.0, 0.0, 0.0, 0.0, 1.7632280126596856E9, 0.0, 2025-11-15 12:33:32.659
42.0, -495.4208072302863, 61.30444007366896, -4.472920347005129, 31.923786021769047, -0.03200000151991844, 0.20800000987946987, 1.0240000486373901, 0.0, 0.0, 0.0, 0.0, 0.0, 1.7632280126596856E9, 0.0, 2025-11-15 12:33:32.659
43.0, -267.5991915795021, -153.23492088448256, -186.29189659282565, -152.67767579108477, -0.03200000151991844, 0.20800000987946987, 1.0240000486373901, 0.0, 0.0, 0.0, 0.0, 0.0, 1.7632280126733456E9, 0.0, 2025-11-15 12:33:32.673
43.0, -236.6141204466112, -145.15299708023667, -183.47201202623546, -162.75670617166907, -0.03200000151991844, 0.20800000987946987, 1.0240000486373901, 0.0, 0.0, 0.0, 0.0, 0.0, 1.7632280126733456E9, 0.0, 2025-11-15 12:33:32.673
44.0, -23.9933281657286, 54.150011458434165, -6.881415918469429, 30.11741434317082, -0.03200000151991844, 0.20800000987946987, 1.0240000486373901, 0.0, 0.0, 0.0, 0.0, 0.0, 1.7632280126889749E9, 0.0, 2025-11-15 12:33:32.688
44.0, -189.6297573032789, -80.75565974321216, -112.8664407627657, -76.76518649049103, -0.03200000151991844, 0.20800000987946987, 1.0240000486373901, 0.0, 0.0, 0.0, 0.0, 0.0, 1.7632280126889749E9, 0.0, 2025-11-15 12:33:32.688
45.0, -260.0408537690528, -172.10645606089383, -210.87051910161972, -187.69435907620937, -0.03200000151991844, 0.20800000987946987, 1.0240000486373901, 0.0, 0.0, 0.0, 0.0, 0.0, 1.763228012689682E9, 0.0, 2025-11-15 12:33:32.689
45.0, -117.63294325629249, -35.14009998366237, -91.51161201577634, -57.25786832161248, -0.03200000151991844, 0.20800000987946987, 1.0240000486373901, 0.0, 0.0, 0.0, 0.0, 0.0, 1.763228012689682E9, 0.0, 2025-11-15 12:33:32.689
46.0, -118.0031933519058, -28.643893760629, -77.19527498539537, -52.29502108041197, -0.03200000151991844, 0.20800000987946987, 1.0240000486373901, 0.0, 0.0, 0.0, 0.0, 0.0, 1.763228012703349E9, 0.0, 2025-11-15 12:33:32.703
46.0, -284.6456555775367, -184.10031521879137, -217.41534402407706, -184.65008051227778, -0.03200000151991844, 0.20800000987946987, 1.0240000486373901, 0.0, 0.0, 0.0, 0.0, 0.0, 1.763228012703349E9, 0.0, 2025-11-15 12:33:32.703
47.0, -172.74784890329465, -96.5268178563565, -148.9265561355278, -120.88852616772056, -0.03200000151991844, 0.20800000987946987, 1.0240000486373901, 0.0, 0.0, 0.0, 0.0, 0.0, 1.763228012718971E9, 0.0, 2025-11-15 12:33:32.718
47.0, -36.652889515738934, 40.454497820697725, -23.202339325100183, 18.87901497632265, -0.03200000151991844, 0.20800000987946987, 1.0240000486373901, 0.0, 0.0, 0.0, 0.0, 0.0, 1.763228012718971E9, 0.0, 2025-11-15 12:33:32.718
48.0, 190.2337511461228, -174.48503243271261, -207.10443984623998, -185.1250478066504, -0.03200000151991844, 0.20800000987946987, 1.0240000486373901, 0.0, 0.0, 0.0, 0.0, 0.0, 1.7632280127196827E9, 0.0, 2025-11-15 12:33:32.719
48.0, 226.3350054183975, -170.28886468242854, -206.07222745846957, -180.7942436579615, -0.03200000151991844, 0.20800000987946987, 1.0240000486373901, 0.0, 0.0, 0.0, 0.0, 0.0, 1.7632280127196827E9, 0.0, 2025-11-15 12:33:32.719
49.0, 459.89923745114356, 44.16073867678642, -22.9368064282462, 6.144655627198517, -0.03200000151991844, 0.20800000987946987, 1.0240000486373901, 0.0, 0.0, 0.0, 0.0, 0.0, 1.7632280127333338E9, 0.0, 2025-11-15 12:33:32.733
49.0, 285.2833085199818, -122.23863005172461, -158.13044992648065, -129.01158887147903, -0.03200000151991844, 0.20800000987946987, 1.0240000486373901, 0.0, 0.0, 0.0, 0.0, 0.0, 1.7632280127333338E9, 0.0, 2025-11-15 12:33:32.733
50.0, 178.20997278857976, -201.0607615178451, -232.67413584329188, -196.5354825714603, -0.03200000151991844, 0.20800000987946987, 1.0240000486373901, 0.0, 0.0, 0.0, 0.0, 0.0, 1.763228012748965E9, 0.0, 2025-11-15 12:33:32.748
50.0, 367.3554130475968, -47.16013844124973, -109.9418389974162, -77.40096948295832, -0.03200000151991844, 0.20800000987946987, 1.0240000486373901, 0.0, 0.0, 0.0, 0.0, 0.0, 1.763228012748965E9, 0.0, 2025-11-15 12:33:32.748
51.0, 368.08095363900065, -37.9450249504298, -89.33125034160912, -61.14362437557429, -0.03200000151991844, 0.19200000911951065, 1.0240000486373901, 0.0, 0.0, 0.0, 0.0, 0.0, 1.763228012749684E9, 0.0, 2025-11-15 12:33:32.749
51.0, 196.98801046609879, -193.14713321160525, -230.7406075662002, -210.35067300777882, -0.03200000151991844, 0.19200000911951065, 1.0240000486373901, 0.0, 0.0, 0.0, 0.0, 0.0, 1.763228012749684E9, 0.0, 2025-11-15 12:33:32.749
52.0, 280.8103881729767, -116.239830522798, -165.51301243901253, -127.72132338676602, -0.03200000151991844, 0.19200000911951065, 1.0240000486373901, 0.0, 0.0, 0.0, 0.0, 0.0, 1.7632280127633188E9, 0.0, 2025-11-15 12:33:32.763
52.0, 442.92757145222276, 31.75923042371869, -33.76381679996848, 1.5146594820544124, -0.03200000151991844, 0.19200000911951065, 1.0240000486373901, 0.0, 0.0, 0.0, 0.0, 0.0, 1.7632280127633188E9, 0.0, 2025-11-15 12:33:32.763
53.0, 222.92795655876398, -165.1203229436651, -198.99633674230427, -170.43098088074476, -0.03200000151991844, 0.19200000911951065, 1.0240000486373901, 0.0, 0.0, 0.0, 0.0, 0.0, 1.7632280127789695E9, 0.0, 2025-11-15 12:33:32.778
53.0, 215.10782575141639, -177.70882619451731, -221.19638287927955, -191.76711012795568, -0.03200000151991844, 0.19200000911951065, 1.0240000486373901, 0.0, 0.0, 0.0, 0.0, 0.0, 1.7632280127789695E9, 0.0, 2025-11-15 12:33:32.778
54.0, 443.6231928439811, 32.32021541707218, -35.74970367643982, 6.776698719710112, -0.03200000151991844, 0.19200000911951065, 1.0240000486373901, 0.0, 0.0, 0.0, 0.0, 0.0, 1.763228012779678E9, 0.0, 2025-11-15 12:33:32.779
54.0, 301.6902496255934, -110.35322799254209, -157.94345492869616, -136.85789897851646, -0.03200000151991844, 0.19200000911951065, 1.0240000486373901, 0.0, 0.0, 0.0, 0.0, 0.0, 1.763228012779678E9, 0.0, 2025-11-15 12:33:32.779
55.0, 193.34534790925682, -195.73514398094267, -236.35793729964644, -209.9542436124757, -0.03200000151991844, 0.19200000911951065, 1.0240000486373901, 0.0, 0.0, 0.0, 0.0, 0.0, 1.7632280127933104E9, 0.0, 2025-11-15 12:33:32.793
55.0, 376.4097108403221, -34.89700648654252, -99.28686402365565, -61.84672556724399, -0.03200000151991844, 0.19200000911951065, 1.0240000486373901, 0.0, 0.0, 0.0, 0.0, 0.0, 1.7632280127933104E9, 0.0, 2025-11-15 12:33:32.793
56.0, 355.2867558905855, -31.897606722079217, -83.1865947144106, -68.07739889342338, -0.03200000151991844, 0.19200000911951065, 1.0240000486373901, 0.0, 0.0, 0.0, 0.0, 0.0, 1.7632280128090065E9, 0.0, 2025-11-15 12:33:32.809
56.0, 181.43750645034015, -198.36803354974836, -229.90286997612566, -211.08743329904974, -0.03200000151991844, 0.19200000911951065, 1.0240000486373901, 0.0, 0.0, 0.0, 0.0, 0.0, 1.7632280128090065E9, 0.0, 2025-11-15 12:33:32.809
57.0, 288.18547088559717, -112.67196596506983, -168.95746029820293, -147.98036144673824, -0.03200000151991844, 0.19200000911951065, 1.0240000486373901, 0.0, 0.0, 0.0, 0.0, 0.0, 1.76322801280969E9, 0.0, 2025-11-15 12:33:32.809
57.0, 444.6217461321503, 44.32155437488109, -28.774790259078145, -3.018099264241755, -0.03200000151991844, 0.19200000911951065, 1.0240000486373901, 0.0, 0.0, 0.0, 0.0, 0.0, 1.76322801280969E9, 0.0, 2025-11-15 12:33:32.809
58.0, 214.5057018585503, -173.1573679484427, -209.5391147173941, -190.93685233779252, -0.03200000151991844, 0.19200000911951065, 1.0240000486373901, 0.0, 0.0, 0.0, 0.0, 0.0, 1.7632280128233242E9, 0.0, 2025-11-15 12:33:32.823
58.0, 220.16791039146483, -172.98159265052527, -214.6926968563348, -182.753951234743, -0.03200000151991844, 0.19200000911951065, 1.0240000486373901, 0.0, 0.0, 0.0, 0.0, 0.0, 1.7632280128233242E9, 0.0, 2025-11-15 12:33:32.823
59.0, 439.3896260941401, 29.7546440474689, -33.232751006260514, -1.6044170809909701, -0.03200000151991844, 0.19200000911951065, 1.0240000486373901, 0.0, 0.0, 0.0, 0.0, 0.0, 1.7632280128389797E9, 0.0, 2025-11-15 12:33:32.838
59.0, 278.8432007962838, -115.07298173662275, -154.82811826560646, -137.74425526801497, -0.03200000151991844, 0.19200000911951065, 1.0240000486373901, 0.0, 0.0, 0.0, 0.0, 0.0, 1.7632280128389797E9, 0.0, 2025-11-15 12:33:32.838
60.0, 200.7578296214342, -188.18802587036043, -229.0015540868044, -204.9502574717626, -0.03200000151991844, 0.19200000911951065, 1.0240000486373901, 0.0, 0.0, 0.0, 0.0, 0.0, 1.763228012839687E9, 0.0, 2025-11-15 12:33:32.839
60.0, 363.6641317913309, -47.85949973296374, -108.97320490889251, -81.91128882952034, -0.03200000151991844, 0.19200000911951065, 1.0240000486373901, 0.0, 0.0, 0.0, 0.0, 0.0, 1.763228012839687E9, 0.0, 2025-11-15 12:33:32.839
61.0, 384.5589528437704, -28.5316967619583, -84.27116570156068, -61.57745277043432, -0.03200000151991844, 0.19200000911951065, 1.0240000486373901, 0.0, 0.0, 0.0, 0.0, 0.0, 1.7632280128533149E9, 0.0, 2025-11-15 12:33:32.853
61.0, 181.81897624582052, -195.0208230894059, -230.90142326429486, -198.18477845191956, -0.03200000151991844, 0.19200000911951065, 1.0240000486373901, 0.0, 0.0, 0.0, 0.0, 0.0, 1.7632280128533149E9, 0.0, 2025-11-15 12:33:32.853
62.0, 273.59612115845084, -125.39884551428258, -174.79544412903488, -144.38257768936455, -0.03200000151991844, 0.19200000911951065, 1.0240000486373901, 0.0, 0.0, 0.0, 0.0, 0.0, 1.7632280128690443E9, 0.0, 2025-11-15 12:33:32.869
62.0, 438.33497430663556, 31.669472824782133, -36.10125427227467, -0.4861869942396879, -0.03200000151991844, 0.19200000911951065, 1.0240000486373901, 0.0, 0.0, 0.0, 0.0, 0.0, 1.7632280128690443E9, 0.0, 2025-11-15 12:33:32.869
63.0, 197.63127325847745, -185.9403459969908, -215.93808354157954, -195.91839907877147, -0.03200000151991844, 0.19200000911951065, 1.0240000486373901, 0.0, 0.0, 0.0, 0.0, 0.0, 1.7632280128697145E9, 0.0, 2025-11-15 12:33:32.869
63.0, 217.96136941760778, -172.6001228550449, -222.19119626749307, -194.0559289008379, -0.03200000151991844, 0.19200000911951065, 1.0240000486373901, 0.0, 0.0, 0.0, 0.0, 0.0, 1.7632280128697145E9, 0.0, 2025-11-15 12:33:32.869
