%OpenBCI Raw EXG Data
%Number of channels = 4
%Sample Rate = 200 Hz
%Board = OpenBCI_GUI$BoardGanglionBLE
Sample Index, EXG Channel 0, EXG Channel 1, EXG Channel 2, EXG Channel 3, Accel Channel 0, Accel Channel 1, Accel Channel 2, Other, Other, Other, Other, Other, Timestamp, Marker Channel, Timestamp (Formatted)
18.0, -156.49611364584416, -157.27027293667197, -142.31441301386803, -123.46905713714659, 0.0, 0.0, 0.0, 0.0, 0.0, 0.0, 0.0, 0.0, 1.7632257465713732E9, 0.0, 2025-11-15 11:55:46.571
18.0, 49.84538660943508, -51.63305878825486, -15.617822214961052, -12.431427452713251, 0.0, 0.0, 0.0, 0.0, 0.0, 0.0, 0.0, 0.0, 1.7632257465713732E9, 0.0, 2025-11-15 11:55:46.571
0.0, -297.59318922413513, -208.6901574274525, -222.2753440164961, -182.86053838348016, 0.0, 0.0, 0.0, 0.0, 0.0, 0.0, 0.0, 0.0, 1.7632257466005769E9, 0.0, 2025-11-15 11:55:46.600
1.0, -498.99989148788154, -435.7076945877634, 0.6002539428882301, 1.1126202368177474, 0.0, 0.12800000607967377, 0.0, 0.0, 0.0, 0.0, 0.0, 0.0, 1.7632257466140485E9, 0.0, 2025-11-15 11:55:46.614
1.0, -463.60173840727657, -381.8942741253413, 73.95091177383438, 62.21884561283514, 0.0, 0.12800000607967377, 0.0, 0.0, 0.0, 0.0, 0.0, 0.0, 1.7632257466140485E9, 0.0, 2025-11-15 11:55:46.614
2.0, -321.1395993451588, -220.7363751847297, 266.11258134711534, -181.52913399925455, -0.09600000455975533, 0.12800000607967377, 0.0, 0.0, 0.0, 0.0, 0.0, 0.0, 1.763225746630756E9, 0.0, 2025-11-15 11:55:46.630
2.0, -164.40787200210616, -95.3038705708459, 361.07986092194915, -114.38297019479796, -0.09600000455975533, 0.12800000607967377, 0.0, 0.0, 0.0, 0.0, 0.0, 0.0, 1.763225746630756E9, 0.0, 2025-11-15 11:55:46.630
3.0, -339.1229082820937, -264.91020351136103, 160.63057304685935, -356.59572087507695, -0.09600000455975533, 0.12800000607967377, 0.0, 0.0, 0.0, 0.0, 0.0, 0.0, 1.763225746631512E9, 0.0, 2025-11-15 11:55:46.631
3.0, -275.69233508361503, -172.35328945796937, 315.50917996186763, -135.84625604050234, -0.09600000455975533, 0.12800000607967377, 0.0, 0.0, 0.0, 0.0, 0.0, 0.0, 1.763225746631512E9, 0.0, 2025-11-15 11:55:46.631
4.0, -259.93987647024915, -182.2378450408578, 293.93743701744825, -159.01119636604562, -0.09600000455975533, 0.12800000607967377, 0.0, 0.0, 0.0, 0.0, 0.0, 0.0, 1.7632257466438615E9, 0.0, 2025-11-15 11:55:46.643
4.0, -357.63167316280305, -299.5641165007837, 121.45138111105189, -390.7110882708803, -0.09600000455975533, 0.12800000607967377, 0.0, 0.0, 0.0, 0.0, 0.0, 0.0, 1.7632257466438615E9, 0.0, 2025-11-15 11:55:46.643
5.0, -144.03663694346324, -536.8345893896185, -56.16768748452887, -526.9369441568851, -0.09600000455975533, 0.12800000607967377, 0.0, 0.0, 0.0, 0.0, 0.0, 0.0, 1.763225746659619E9, 0.0, 2025-11-15 11:55:46.659
5.0, -291.1231623007916, -690.4846391691826, -206.42564800428227, -670.773496452719, -0.09600000455975533, 0.12800000607967377, 0.0, 0.0, 0.0, 0.0, 0.0, 0.0, 1.763225746659619E9, 0.0, 2025-11-15 11:55:46.659
6.0, -493.07588995806873, -917.5433152290061, 9.804147733841091, -478.1873482344672, -0.09600000455975533, 0.12800000607967377, 0.0, 0.0, 0.0, 0.0, 0.0, 0.0, 1.7632257466602952E9, 0.0, 2025-11-15 11:55:46.660
6.0, -443.85880654118955, -845.3707258841023, 96.15843771072105, -406.83379697985947, -0.09600000455975533, 0.12800000607967377, 0.0, 0.0, 0.0, 0.0, 0.0, 0.0, 1.7632257466602952E9, 0.0, 2025-11-15 11:55:46.660
7.0, -293.98418576689437, -680.2186137908138, 302.2512346189469, -647.7768516251817, -0.09600000455975533, 0.12800000607967377, 0.0, 0.0, 0.0, 0.0, 0.0, 0.0, 1.763225746673902E9, 0.0, 2025-11-15 11:55:46.673
7.0, -144.9790917322971, -555.3545739701949, 392.31924525182694, -574.2653780961409, -0.09600000455975533, 0.12800000607967377, 0.0, 0.0, 0.0, 0.0, 0.0, 0.0, 1.763225746673902E9, 0.0, 2025-11-15 11:55:46.673
8.0, -319.95218110922724, -731.9956587273628, 177.26938794972375, -346.80840269103646, -0.09600000455975533, 0.12800000607967377, 0.0, 0.0, 0.0, 0.0, 0.0, 0.0, 1.7632257466895895E9, 0.0, 2025-11-15 11:55:46.689
8.0, -244.88303924864158, -631.6709724660031, 352.2387374266982, -588.5256166271865, -0.09600000455975533, 0.12800000607967377, 0.0, 0.0, 0.0, 0.0, 0.0, 0.0, 1.7632257466895895E9, 0.0, 2025-11-15 11:55:46.689
9.0, -230.26751022180542, -638.6982444827445, 322.8580833747983, -628.3667708551511, -0.09600000455975533, 0.12800000607967377, 0.0, 0.0, 0.0, 0.0, 0.0, 0.0, 1.7632257466902936E9, 0.0, 2025-11-15 11:55:46.690
9.0, -333.40460124984384, -762.7301565632224, 145.36056152777746, -868.2458239630796, -0.09600000455975533, 0.12800000607967377, 0.0, 0.0, 0.0, 0.0, 0.0, 0.0, 1.7632257466902936E9, 0.0, 2025-11-15 11:55:46.690
10.0, -115.52363968128338, -986.6566664101556, -21.266941098030657, -984.11914429022, -0.09600000455975533, 0.12800000607967377, 1.0240000486373901, 0.0, 0.0, 0.0, 0.0, 0.0, 1.763225746703924E9, 0.0, 2025-11-15 11:55:46.703
10.0, -254.53198113432154, -1137.5952887218446, -166.99588277144358, -1111.2196442843415, -0.09600000455975533, 0.12800000607967377, 1.0240000486373901, 0.0, 0.0, 0.0, 0.0, 0.0, 1.763225746703924E9, 0.0, 2025-11-15 11:55:46.703
11.0, -461.20072263572365, -1363.3001209977083, 52.0425778334029, -941.3421685970388, -0.09600000455975533, 0.06400000303983688, 1.0240000486373901, 0.0, 0.0, 0.0, 0.0, 0.0, 1.7632257467196105E9, 0.0, 2025-11-15 11:55:46.719
11.0, -429.6210074098781, -1313.566931386944, 123.97207368118688, -869.266816650983, -0.09600000455975533, 0.06400000303983688, 1.0240000486373901, 0.0, 0.0, 0.0, 0.0, 0.0, 1.7632257467196105E9, 0.0, 2025-11-15 11:55:46.719
12.0, -283.3703496926464, -1158.4040920753032, 313.53825268521905, -630.4872941300273, -0.04800000227987766, 0.06400000303983688, 1.0240000486373901, 0.0, 0.0, 0.0, 0.0, 0.0, 1.7632257467203114E9, 0.0, 2025-11-15 11:55:46.720
12.0, -157.08514788886532, -1057.3931341720745, 384.08398554939777, -577.0815227627754, -0.04800000227987766, 0.06400000303983688, 1.0240000486373901, 0.0, 0.0, 0.0, 0.0, 0.0, 1.7632257467203114E9, 0.0, 2025-11-15 11:55:46.720
13.0, -356.89865277148783, -1259.185046131257, 145.71211212361231, -377.53542072698474, -0.04800000227987766, 0.06400000303983688, 1.0240000486373901, 0.0, 0.0, 0.0, 0.0, 0.0, 1.763225746733957E9, 0.0, 2025-11-15 11:55:46.733
13.0, -300.66738698771223, -1162.712456824258, 309.97412802744657, -151.7183914524503, -0.04800000227987766, 0.06400000303983688, 1.0240000486373901, 0.0, 0.0, 0.0, 0.0, 0.0, 1.763225746733957E9, 0.0, 2025-11-15 11:55:46.733
14.0, -277.98863365640864, -1168.55044065509, 285.12249282188714, -173.92591738933697, -0.04800000227987766, 0.06400000303983688, 1.0240000486373901, 0.0, 0.0, 0.0, 0.0, 0.0, 1.7632257467495935E9, 0.0, 2025-11-15 11:55:46.749
14.0, -392.90640954487026, -1311.7306405087002, 91.14323187014088, 59.44009994575754, -0.04800000227987766, 0.06400000303983688, 1.0240000486373901, 0.0, 0.0, 0.0, 0.0, 0.0, 1.7632257467495935E9, 0.0, 2025-11-15 11:55:46.749
15.0, -177.86029214272276, -1545.3509710407816, -84.34035385074094, -66.13078096648678, -0.04800000227987766, 0.06400000303983688, 1.0240000486373901, 0.0, 0.0, 0.0, 0.0, 0.0, 1.7632257467502904E9, 0.0, 2025-11-15 11:55:46.750
15.0, -315.95983790652826, -1691.0238142148592, -222.94478610856459, -181.24490160262212, -0.04800000227987766, 0.06400000303983688, 1.0240000486373901, 0.0, 0.0, 0.0, 0.0, 0.0, 1.7632257467502904E9, 0.0, 2025-11-15 11:55:46.750
16.0, -536.0286409491673, -1458.4656152701937, -33.836744849104434, -41.67931505618617, -0.04800000227987766, 0.06400000303983688, 1.0240000486373901, 0.0, 0.0, 0.0, 0.0, 0.0, 1.7632257467639503E9, 0.0, 2025-11-15 11:55:46.763
16.0, -485.4951127478853, -1382.5680855694227, 50.85328964749351, 51.26841854257509, -0.04800000227987766, 0.06400000303983688, 1.0240000486373901, 0.0, 0.0, 0.0, 0.0, 0.0, 1.7632257467639503E9, 0.0, 2025-11-15 11:55:46.763
17.0, -322.994589723181, -1209.4425067706034, 264.10051517095417, -182.61744488636032, -0.04800000227987766, 0.06400000303983688, 1.0240000486373901, 0.0, 0.0, 0.0, 0.0, 0.0, 1.7632257467796407E9, 0.0, 2025-11-15 11:55:46.779
17.0, -198.67657529609278, -1105.5181668018922, 343.0535431355238, -117.36741035943851, -0.04800000227987766, 0.06400000303983688, 1.0240000486373901, 0.0, 0.0, 0.0, 0.0, 0.0, 1.7632257467796407E9, 0.0, 2025-11-15 11:55:46.779
18.0, -368.23054963722825, -1282.5182819548063, 127.13976894365624, 110.35509794251993, -0.04800000227987766, 0.06400000303983688, 1.0240000486373901, 0.0, 0.0, 0.0, 0.0, 0.0, 1.7632257467803063E9, 0.0, 2025-11-15 11:55:46.780
18.0, -286.5642242548056, -1161.2912948410958, 309.72355473041534, 346.4194530956447, -0.04800000227987766, 0.06400000303983688, 1.0240000486373901, 0.0, 0.0, 0.0, 0.0, 0.0, 1.7632257467803063E9, 0.0, 2025-11-15 11:55:46.780
19.0, -280.0119195324369, -1176.4678088612854, 289.41589797101915, 336.7817309098318, -0.04800000227987766, 0.06400000303983688, 1.0240000486373901, 0.0, 0.0, 0.0, 0.0, 0.0, 1.7632257467939775E9, 0.0, 2025-11-15 11:55:46.793
19.0, -386.94500901550055, -1307.5531722581945, 95.2122430219315, 553.9315420370549, -0.04800000227987766, 0.06400000303983688, 1.0240000486373901, 0.0, 0.0, 0.0, 0.0, 0.0, 1.7632257467939775E9, 0.0, 2025-11-15 11:55:46.793
20.0, -149.22387818200514, -1518.6443454572, -55.483285792637616, 448.11855259072036, -0.04800000227987766, 0.06400000303983688, 0.5120000243186951, 0.0, 0.0, 0.0, 0.0, 0.0, 1.7632257468095791E9, 0.0, 2025-11-15 11:55:46.809
20.0, -302.5784758650698, -1685.1297318846919, -216.7141127823852, 318.0336124319583, -0.04800000227987766, 0.06400000303983688, 0.5120000243186951, 0.0, 0.0, 0.0, 0.0, 0.0, 1.7632257468095791E9, 0.0, 2025-11-15 11:55:46.809
21.0, -528.9602300329134, -1448.5062616881914, -23.054613276850432, 468.7814998459071, -0.04800000227987766, 0.09600000455975533, 0.5120000243186951, 0.0, 0.0, 0.0, 0.0, 0.0, 1.76322574681029E9, 0.0, 2025-11-15 11:55:46.810
21.0, -465.2659938875586, -1362.6418986055069, 70.17361281858757, 547.3156590154395, -0.04800000227987766, 0.09600000455975533, 0.5120000243186951, 0.0, 0.0, 0.0, 0.0, 0.0, 1.76322574681029E9, 0.0, 2025-11-15 11:55:46.810
22.0, -318.4618309768848, -1199.195180892013, 275.66802573390305, 316.1861018538475, -0.06400000303983688, 0.09600000455975533, 0.5120000243186951, 0.0, 0.0, 0.0, 0.0, 0.0, 1.7632257468239455E9, 0.0, 2025-11-15 11:55:46.823
22.0, -182.83061918383464, -1088.5053619034588, 354.10868740454316, 378.1375446198508, -0.06400000303983688, 0.09600000455975533, 0.5120000243186951, 0.0, 0.0, 0.0, 0.0, 0.0, 1.7632257468239455E9, 0.0, 2025-11-15 11:55:46.823
23.0, -361.60344691574574, -1268.7517102179118, 146.80416291067377, 617.3191063860431, -0.06400000303983688, 0.09600000455975533, 0.5120000243186951, 0.0, 0.0, 0.0, 0.0, 0.0, 1.7632257468396044E9, 0.0, 2025-11-15 11:55:46.839
23.0, -264.741908013355, -1143.7062852494419, 329.06631730124354, 853.5293176374398, -0.06400000303983688, 0.09600000455975533, 0.5120000243186951, 0.0, 0.0, 0.0, 0.0, 0.0, 1.7632257468396044E9, 0.0, 2025-11-15 11:55:46.839
24.0, -274.824678293895, -1168.5392209552228, 292.75188873149455, 817.4318032651208, -0.06400000303983688, 0.09600000455975533, 0.5120000243186951, 0.0, 0.0, 0.0, 0.0, 0.0, 1.763225746840299E9, 0.0, 2025-11-15 11:55:46.840
24.0, -389.90700978040695, -1310.3543573250063, 91.18811066960916, 1049.294380818028, -0.06400000303983688, 0.09600000455975533, 0.5120000243186951, 0.0, 0.0, 0.0, 0.0, 0.0, 1.763225746840299E9, 0.0, 2025-11-15 11:55:46.840
25.0, -630.6032310286537, -1512.95221772464, -56.44070018129423, 943.0176437771879, -0.06400000303983688, 0.09600000455975533, 0.5120000243186951, 0.0, 0.0, 0.0, 0.0, 0.0, 1.7632257468539605E9, 0.0, 2025-11-15 11:55:46.853
25.0, -796.0003065690398, -1686.3676387700252, -220.7120658350177, 790.7887559807859, -0.06400000303983688, 0.09600000455975533, 0.5120000243186951, 0.0, 0.0, 0.0, 0.0, 0.0, 1.7632257468539605E9, 0.0, 2025-11-15 11:55:46.853
26.0, -1027.7749964729883, -1447.4890089002438, -24.7712273565121, 947.9954506182112, -0.06400000303983688, 0.09600000455975533, 0.5120000243186951, 0.0, 0.0, 0.0, 0.0, 0.0, 1.7632257468696992E9, 0.0, 2025-11-15 11:55:46.869
26.0, -957.5695945047773, -1362.5110021070577, 72.40259319217876, 1058.7413681061007, -0.06400000303983688, 0.09600000455975533, 0.5120000243186951, 0.0, 0.0, 0.0, 0.0, 0.0, 1.7632257468696992E9, 0.0, 2025-11-15 11:55:46.869
27.0, -791.2842927249148, -1189.546239006333, 278.18497840408236, 1290.5459772096947, -0.06400000303983688, 0.09600000455975533, 0.5120000243186951, 0.0, 0.0, 0.0, 0.0, 0.0, 1.7632257468703187E9, 0.0, 2025-11-15 11:55:46.870
27.0, -667.8114956878126, -1083.9015450580046, 354.6958516975865, 1356.671148326248, -0.06400000303983688, 0.09600000455975533, 0.5120000243186951, 0.0, 0.0, 0.0, 0.0, 0.0, 1.7632257468703187E9, 0.0, 2025-11-15 11:55:46.870
28.0, -835.4693407514133, -1257.6255078497343, 149.37347418023273, 1592.3858228335157, -0.06400000303983688, 0.09600000455975533, 0.5120000243186951, 0.0, 0.0, 0.0, 0.0, 0.0, 1.7632257468839083E9, 0.0, 2025-11-15 11:55:46.883
28.0, -748.9935040259734, -1134.7529647555202, 334.83698293287307, 1351.8504172833636, -0.06400000303983688, 0.09600000455975533, 0.5120000243186951, 0.0, 0.0, 0.0, 0.0, 0.0, 1.7632257468839083E9, 0.0, 2025-11-15 11:55:46.883
29.0, -756.7201373344287, -1161.0145422443748, 299.9885951457545, 1323.2476624222472, -0.06400000303983688, 0.09600000455975533, 0.5120000243186951, 0.0, 0.0, 0.0, 0.0, 0.0, 1.7632257468995795E9, 0.0, 2025-11-15 11:55:46.899
29.0, -872.0979209174402, -1298.225861768704, 105.3660714016296, 1547.3200283674523, -0.06400000303983688, 0.09600000455975533, 0.5120000243186951, 0.0, 0.0, 0.0, 0.0, 0.0, 1.7632257468995795E9, 0.0, 2025-11-15 11:55:46.899
30.0, -1109.596527703572, -1505.558435512241, -47.42380138812587, 1439.5809904439375, -0.06400000303983688, 0.09600000455975533, 0.7680000364780426, 0.0, 0.0, 0.0, 0.0, 0.0, 1.76322574690029E9, 0.0, 2025-11-15 11:55:46.900
30.0, -1287.1707174996845, -1679.4263844522648, -209.6344821662642, 1302.2556039709598, -0.06400000303983688, 0.09600000455975533, 0.7680000364780426, 0.0, 0.0, 0.0, 0.0, 0.0, 1.76322574690029E9, 0.0, 2025-11-15 11:55:46.900
31.0, -1494.0862923981622, -1923.553963909857, -17.53452094225213, 1450.1948265181854, -0.06400000303983688, 0.11200000531971455, 0.7680000364780426, 0.0, 0.0, 0.0, 0.0, 0.0, 1.7632257469139273E9, 0.0, 2025-11-15 11:55:46.913
31.0, -1433.2755191186443, -1840.0494776992127, 79.46726420847699, 1545.6669925870374, -0.06400000303983688, 0.11200000531971455, 0.7680000364780426, 0.0, 0.0, 0.0, 0.0, 0.0, 1.7632257469139273E9, 0.0, 2025-11-15 11:55:46.913
32.0, -1280.868986074347, -1681.232756130863, 282.2801688555628, 1305.5841149315238, -0.0800000037997961, 0.11200000531971455, 0.7680000364780426, 0.0, 0.0, 0.0, 0.0, 0.0, 1.763225746929652E9, 0.0, 2025-11-15 11:55:46.929
32.0, -1156.1844614516012, -1572.917773614172, 363.8473868891597, 1362.8606827529147, -0.0800000037997961, 0.11200000531971455, 0.7680000364780426, 0.0, 0.0, 0.0, 0.0, 0.0, 1.763225746929652E9, 0.0, 2025-11-15 11:55:46.929
33.0, -1322.8848921265453, -1745.4823674196377, 154.5719351186417, 1584.6442299252376, -0.0800000037997961, 0.11200000531971455, 0.7680000364780426, 0.0, 0.0, 0.0, 0.0, 0.0, 1.7632257469302952E9, 0.0, 2025-11-15 11:55:46.930
33.0, -1236.5923104989342, -1616.539966697339, 350.70163854490966, 1369.573803173378, -0.0800000037997961, 0.11200000531971455, 0.7680000364780426, 0.0, 0.0, 0.0, 0.0, 0.0, 1.7632257469302952E9, 0.0, 2025-11-15 11:55:46.930
34.0, -1236.9064620952122, -1645.1128023588099, 311.9637548038736, 1333.442629701458, -0.0800000037997961, 0.11200000531971455, 0.7680000364780426, 0.0, 0.0, 0.0, 0.0, 0.0, 1.7632257469439867E9, 0.0, 2025-11-15 11:55:46.943
34.0, -1361.9481471637264, -1784.7700164541602, 106.54039998771623, 1543.5090703126043, -0.0800000037997961, 0.11200000531971455, 0.7680000364780426, 0.0, 0.0, 0.0, 0.0, 0.0, 1.7632257469439867E9, 0.0, 2025-11-15 11:55:46.943
35.0, -1594.263252611272, -1988.3851296417415, -47.18444779096171, 1432.217127431184, -0.0800000037997961, 0.11200000531971455, 0.7680000364780426, 0.0, 0.0, 0.0, 0.0, 0.0, 1.763225746959641E9, 0.0, 2025-11-15 11:55:46.959
35.0, -1764.282844496891, -2160.024098208174, -204.450980827678, 1300.901760187, -0.0800000037997961, 0.11200000531971455, 0.7680000364780426, 0.0, 0.0, 0.0, 0.0, 0.0, 1.763225746959641E9, 0.0, 2025-11-15 11:55:46.959
36.0, -2003.2119630160742, -1928.0829827561975, -16.77158135129139, 1444.1436683898792, -0.0800000037997961, 0.11200000531971455, 0.7680000364780426, 0.0, 0.0, 0.0, 0.0, 0.0, 1.7632257469603002E9, 0.0, 2025-11-15 11:55:46.960
36.0, -1917.474756531883, -1825.3180117737502, 95.50395521847531, 1554.70633077994, -0.0800000037997961, 0.11200000531971455, 0.7680000364780426, 0.0, 0.0, 0.0, 0.0, 0.0, 1.7632257469603002E9, 0.0, 2025-11-15 11:55:46.960
37.0, -1772.9444527942687, -1668.000990087632, 293.1819772263989, 1793.7626058976166, -0.0800000037997961, 0.11200000531971455, 0.7680000364780426, 0.0, 0.0, 0.0, 0.0, 0.0, 1.7632257469739125E9, 0.0, 2025-11-15 11:55:46.973
37.0, -1656.147377178073, -1567.7080929758959, 364.543008280918, 1844.449469997082, -0.0800000037997961, 0.11200000531971455, 0.7680000364780426, 0.0, 0.0, 0.0, 0.0, 0.0, 1.7632257469739125E9, 0.0, 2025-11-15 11:55:46.973
38.0, -1812.4321864764206, -1737.01149402, 149.6801459765993, 2083.933963659685, -0.0800000037997961, 0.11200000531971455, 0.7680000364780426, 0.0, 0.0, 0.0, 0.0, 0.0, 1.7632257469895825E9, 0.0, 2025-11-15 11:55:46.989
38.0, -1719.9089315226302, -1613.439589634072, 349.6170675577596, 1856.1815361580811, -0.0800000037997961, 0.11200000531971455, 0.7680000364780426, 0.0, 0.0, 0.0, 0.0, 0.0, 1.7632257469895825E9, 0.0, 2025-11-15 11:55:46.989
39.0, -1737.953948808834, -1648.1795203224756, 298.1485643675551, 1798.6319556399249, -0.0800000037997961, 0.11200000531971455, 0.7680000364780426, 0.0, 0.0, 0.0, 0.0, 0.0, 1.7632257469902883E9, 0.0, 2025-11-15 11:55:46.990
39.0, -1852.7408281988464, -1784.8186351535842, 102.44520953623578, 2027.599850627128, -0.0800000037997961, 0.11200000531971455, 0.7680000364780426, 0.0, 0.0, 0.0, 0.0, 0.0, 1.7632257469902883E9, 0.0, 2025-11-15 11:55:46.990
40.0, -2091.6867762678303, -1985.1127171805128, -34.00130044715479, 1939.293332873378, -0.0800000037997961, 0.11200000531971455, 0.9120000433176756, 0.0, 0.0, 0.0, 0.0, 0.0, 1.7632257470039408E9, 0.0, 2025-11-15 11:55:47.003
40.0, -2250.1725166901015, -2155.360442963429, -200.17253527836874, 1804.3128636726178, -0.0800000037997961, 0.11200000531971455, 0.9120000433176756, 0.0, 0.0, 0.0, 0.0, 0.0, 1.7632257470039408E9, 0.0, 2025-11-15 11:55:47.003
41.0, -2487.9721854226664, -1922.0019054282457, -12.081746806856245, 1946.818011584226, -0.0800000037997961, 0.12800000607967377, 0.9120000433176756, 0.0, 0.0, 0.0, 0.0, 0.0, 1.7632257470196211E9, 0.0, 2025-11-15 11:55:47.019
41.0, -2409.5053444523364, -1826.8850298551843, 84.96491714334115, 2023.235387378838, -0.0800000037997961, 0.12800000607967377, 0.9120000433176756, 0.0, 0.0, 0.0, 0.0, 0.0, 1.7632257470196211E9, 0.0, 2025-11-15 11:55:47.019
42.0, -2270.345537051093, -1671.2322636493482, 288.802554378286, 1796.2159802685492, -0.0800000037997961, 0.12800000607967377, 0.9120000433176756, 0.0, 0.0, 0.0, 0.0, 0.0, 1.7632257470202973E9, 0.0, 2025-11-15 11:55:47.020
42.0, -2144.830754638184, -1571.0029448368587, 359.48292364086956, 1850.4146104264073, -0.0800000037997961, 0.12800000607967377, 0.9120000433176756, 0.0, 0.0, 0.0, 0.0, 0.0, 1.7632257470202973E9, 0.0, 2025-11-15 11:55:47.020
43.0, -2304.9975800905377, -1743.1785890469328, 153.25923023419455, 2076.0053757536225, -0.0800000037997961, 0.12800000607967377, 0.9120000433176756, 0.0, 0.0, 0.0, 0.0, 0.0, 1.7632257470339217E9, 0.0, 2025-11-15 11:55:47.033
43.0, -2218.4619049658068, -1620.3808439518325, 339.65771397575736, 1845.7696546814404, -0.0800000037997961, 0.12800000607967377, 0.9120000433176756, 0.0, 0.0, 0.0, 0.0, 0.0, 1.7632257470339217E9, 0.0, 2025-11-15 11:55:47.033
44.0, -2223.5332093057223, -1646.4479466429912, 308.38093064632267, 1815.13987404434, -0.0800000037997961, 0.12800000607967377, 0.9120000433176756, 0.0, 0.0, 0.0, 0.0, 0.0, 1.7632257470495749E9, 0.0, 2025-11-15 11:55:47.049
44.0, -2336.940065612085, -1781.8491545887664, 106.57405908731744, 2027.1622823323123, -0.0800000037997961, 0.12800000607967377, 0.9120000433176756, 0.0, 0.0, 0.0, 0.0, 0.0, 1.7632257470495749E9, 0.0, 2025-11-15 11:55:47.049
45.0, -2098.878603882622, -1989.3612435301766, -43.26877253735438, 1938.3097391850315, -0.0800000037997961, 0.12800000607967377, 0.9120000433176756, 0.0, 0.0, 0.0, 0.0, 0.0, 1.7632257470502782E9, 0.0, 2025-11-15 11:55:47.050
45.0, -2255.2288614301942, -2163.161874270998, -204.50333942705765, 1800.6178425163962, -0.0800000037997961, 0.12800000607967377, 0.9120000433176756, 0.0, 0.0, 0.0, 0.0, 0.0, 1.7632257470502782E9, 0.0, 2025-11-15 11:55:47.050
46.0, -2487.867468223907, -1931.4227134166285, -28.518607112113386, 1919.116572612431, -0.0800000037997961, 0.12800000607967377, 0.9120000433176756, 0.0, 0.0, 0.0, 0.0, 0.0, 1.763225747064009E9, 0.0, 2025-11-15 11:55:47.064
46.0, -2413.177926208824, -1826.7167343571782, 85.19679094059393, 2025.875756747555, -0.0800000037997961, 0.12800000607967377, 0.9120000433176756, 0.0, 0.0, 0.0, 0.0, 0.0, 1.763225747064009E9, 0.0, 2025-11-15 11:55:47.064
47.0, -2266.957187691238, -1669.5717480690219, 288.3126274840906, 1796.833063761238, -0.0800000037997961, 0.12800000607967377, 0.9120000433176756, 0.0, 0.0, 0.0, 0.0, 0.0, 1.7632257470795753E9, 0.0, 2025-11-15 11:55:47.079
47.0, -2139.101227906067, -1568.874941762071, 361.3865327183157, 1859.259473821614, -0.0800000037997961, 0.12800000607967377, 0.9120000433176756, 0.0, 0.0, 0.0, 0.0, 0.0, 1.7632257470795753E9, 0.0, 2025-11-15 11:55:47.079
48.0, -2296.9567951858044, -1735.7174886353314, 153.96981122577563, 2084.5173880527727, -0.0800000037997961, 0.12800000607967377, 0.9120000433176756, 0.0, 0.0, 0.0, 0.0, 0.0, 1.7632257470803E9, 0.0, 2025-11-15 11:55:47.080
48.0, -2215.0286768064834, -1615.0664461147971, 345.06560931168497, 1856.4994276543148, -0.0800000037997961, 0.12800000607967377, 0.9120000433176756, 0.0, 0.0, 0.0, 0.0, 0.0, 1.7632257470803E9, 0.0, 2025-11-15 11:55:47.080
49.0, -2207.956525990274, -1632.0156727139838, 315.94674825668335, 1836.6106396899559, -0.0800000037997961, 0.12800000607967377, 0.9120000433176756, 0.0, 0.0, 0.0, 0.0, 0.0, 1.7632257470939572E9, 0.0, 2025-11-15 11:55:47.093
49.0, -2349.001242969185, -1797.2538025062531, 85.81761433323845, 2005.287607491482, -0.0800000037997961, 0.12800000607967377, 0.9120000433176756, 0.0, 0.0, 0.0, 0.0, 0.0, 1.7632257470939572E9, 0.0, 2025-11-15 11:55:47.093
50.0, -2578.2047516535968, -1985.5315859755501, -43.919515129644424, 1921.2782347868197, -0.0800000037997961, 0.12800000607967377, 0.9760000463575125, 0.0, 0.0, 0.0, 0.0, 0.0, 1.7632257471095827E9, 0.0, 2025-11-15 11:55:47.109
50.0, -2743.624266593717, -2159.4743329146877, -208.16844138363376, 1800.0456378231756, -0.0800000037997961, 0.12800000607967377, 0.9760000463575125, 0.0, 0.0, 0.0, 0.0, 0.0, 1.7632257471095827E9, 0.0, 2025-11-15 11:55:47.109
51.0, -2983.28266560426, -1931.235718418844, -33.28697955561802, 1919.729916205164, -0.0800000037997961, 0.12800000607967377, 0.9760000463575125, 0.0, 0.0, 0.0, 0.0, 0.0, 1.7632257471102908E9, 0.0, 2025-11-15 11:55:47.110
51.0, -2890.3349320054986, -1823.017973301001, 88.10643310612068, 2038.755972194951, -0.0800000037997961, 0.12800000607967377, 0.9760000463575125, 0.0, 0.0, 0.0, 0.0, 0.0, 1.7632257471102908E9, 0.0, 2025-11-15 11:55:47.110
52.0, -2753.142311980948, -1672.0400820397772, 280.8477871725336, 1796.1972807687707, -0.0800000037997961, 0.12800000607967377, 0.9760000463575125, 0.0, 0.0, 0.0, 0.0, 0.0, 1.763225747123928E9, 0.0, 2025-11-15 11:55:47.123
52.0, -2624.3251979071647, -1568.2541183694266, 358.271196055226, 1855.1680232700892, -0.0800000037997961, 0.12800000607967377, 0.9760000463575125, 0.0, 0.0, 0.0, 0.0, 0.0, 1.763225747123928E9, 0.0, 2025-11-15 11:55:47.123
53.0, -2792.7198032620363, -1739.689262388274, 149.2724968814291, 2075.960496954154, -0.0800000037997961, 0.12800000607967377, 0.9760000463575125, 0.0, 0.0, 0.0, 0.0, 0.0, 1.7632257471395972E9, 0.0, 2025-11-15 11:55:47.139
53.0, -2697.0550323454663, -1610.6645838669501, 350.07333535235375, 1855.5158339659683, -0.0800000037997961, 0.12800000607967377, 0.9760000463575125, 0.0, 0.0, 0.0, 0.0, 0.0, 1.7632257471395972E9, 0.0, 2025-11-15 11:55:47.139
54.0, -2720.893154663034, -1648.1832602224313, 297.5015616752207, 1802.0390044995584, -0.0800000037997961, 0.12800000607967377, 0.9760000463575125, 0.0, 0.0, 0.0, 0.0, 0.0, 1.76322574714029E9, 0.0, 2025-11-15 11:55:47.140
54.0, -2830.002865920309, -1783.7116247667, 93.91075783735141, 2025.6925016497262, -0.0800000037997961, 0.12800000607967377, 0.9760000463575125, 0.0, 0.0, 0.0, 0.0, 0.0, 1.76322574714029E9, 0.0, 2025-11-15 11:55:47.140
55.0, -3061.9439813722856, -1984.3647371893749, -44.06911112787202, 1930.3774113790132, -0.0800000037997961, 0.12800000607967377, 0.9760000463575125, 0.0, 0.0, 0.0, 0.0, 0.0, 1.7632257471539936E9, 0.0, 2025-11-15 11:55:47.153
55.0, -3225.4972862345167, -2154.5301851732656, -207.8916887869127, 1798.833910237532, -0.0800000037997961, 0.12800000607967377, 0.9760000463575125, 0.0, 0.0, 0.0, 0.0, 0.0, 1.7632257471539936E9, 0.0, 2025-11-15 11:55:47.153
56.0, -2994.9025347665884, -1934.8110627764836, -30.7363677858375, 1926.0540870302357, -0.0800000037997961, 0.12800000607967377, 0.9760000463575125, 0.0, 0.0, 0.0, 0.0, 0.0, 1.7632257471696537E9, 0.0, 2025-11-15 11:55:47.169
56.0, -2898.084004713688, -1825.8415977675468, 83.85042695654556, 2028.7405201136135, -0.0800000037997961, 0.12800000607967377, 0.9760000463575125, 0.0, 0.0, 0.0, 0.0, 0.0, 1.7632257471696537E9, 0.0, 2025-11-15 11:55:47.169
57.0, -2743.904759090394, -1662.40609975392, 295.31372020114213, 1814.1675000558607, -0.0800000037997961, 0.12800000607967377, 0.9760000463575125, 0.0, 0.0, 0.0, 0.0, 0.0, 1.7632257471702936E9, 0.0, 2025-11-15 11:55:47.170
57.0, -2629.714393743314, -1573.000051413197, 352.22003792691976, 1847.1534176650457, -0.0800000037997961, 0.12800000607967377, 0.9760000463575125, 0.0, 0.0, 0.0, 0.0, 0.0, 1.7632257471702936E9, 0.0, 2025-11-15 11:55:47.170
58.0, -2792.3645127662458, -1733.8811977570876, 155.72756420494989, 2090.6358643802814, -0.0800000037997961, 0.12800000607967377, 0.9760000463575125, 0.0, 0.0, 0.0, 0.0, 0.0, 1.7632257472003002E9, 0.0, 2025-11-15 11:55:47.200
58.0, -2705.0733778504655, -1620.2162883537821, 334.4555131373927, 2327.42576012481, -0.0800000037997961, 0.12800000607967377, 0.9760000463575125, 0.0, 0.0, 0.0, 0.0, 0.0, 1.7632257472003002E9, 0.0, 2025-11-15 11:55:47.200
59.0, -2712.74017275963, -1644.0394510715269, 302.57660591509193, 2299.0062603615224, -0.0800000037997961, 0.12800000607967377, 0.9760000463575125, 0.0, 0.0, 0.0, 0.0, 0.0, 1.7632257472010453E9, 0.0, 2025-11-15 11:55:47.201
59.0, -2842.703566169832, -1789.7814823947847, 91.95479016052559, 2512.3451134338975, -0.0800000037997961, 0.12800000607967377, 0.9760000463575125, 0.0, 0.0, 0.0, 0.0, 0.0, 1.7632257472010453E9, 0.0, 2025-11-15 11:55:47.201
60.0, -3063.6718151518144, -1976.7428210796788, -33.07380525814369, 2435.5088688442484, -0.0800000037997961, 0.12800000607967377, 0.9920000471174717, 0.0, 0.0, 0.0, 0.0, 0.0, 1.763225747201744E9, 0.0, 2025-11-15 11:55:47.201
60.0, -3240.677540154662, -2166.224852334708, -211.1603613481857, 2281.051000674255, -0.0800000037997961, 0.12800000607967377, 0.9920000471174717, 0.0, 0.0, 0.0, 0.0, 0.0, 1.763225747201744E9, 0.0, 2025-11-15 11:55:47.201
61.0, -3474.737308931537, -1938.292909635231, -36.978260811883956, 2413.1293075094, -0.0800000037997961, 0.12800000607967377, 0.9920000471174717, 0.0, 0.0, 0.0, 0.0, 0.0, 1.7632257472139668E9, 0.0, 2025-11-15 11:55:47.213
61.0, -3386.355993178673, -1824.8804434789345, 85.87745273252949, 2518.938557055779, -0.0800000037997961, 0.12800000607967377, 0.9920000471174717, 0.0, 0.0, 0.0, 0.0, 0.0, 1.7632257472139668E9, 0.0, 2025-11-15 11:55:47.213
62.0, -3237.5023650922813, -1664.661259427201, 293.361492424272, 2299.941235350445, -0.09600000455975533, 0.12800000607967377, 0.9920000471174717, 0.0, 0.0, 0.0, 0.0, 0.0, 1.7632257472296162E9, 0.0, 2025-11-15 11:55:47.229
62.0, -3131.360264449846, -1585.1135873696767, 350.5819617463276, 2330.5897154873237, -0.09600000455975533, 0.12800000607967377, 0.9920000471174717, 0.0, 0.0, 0.0, 0.0, 0.0, 1.7632257472296162E9, 0.0, 2025-11-15 11:55:47.229
63.0, -3278.5159779563546, -1736.2261150293052, 153.1619928353466, 2571.267237235792, -0.09600000455975533, 0.12800000607967377, 0.9920000471174717, 0.0, 0.0, 0.0, 0.0, 0.0, 1.7632257472303176E9, 0.0, 2025-11-15 11:55:47.230
63.0, -3192.978856119793, -1612.5906323441304, 353.85811410751194, 2348.593593874015, -0.09600000455975533, 0.12800000607967377, 0.9920000471174717, 0.0, 0.0, 0.0, 0.0, 0.0, 1.7632257472303176E9, 0.0, 2025-11-15 11:55:47.230
64.0, -3204.2583943861537, -1646.2235526456498, 301.30503993015736, 2301.9271222269163, -0.09600000455975533, 0.12800000607967377, 0.9920000471174717, 0.0, 0.0, 0.0, 0.0, 0.0, 1.7632257472439613E9, 0.0, 2025-11-15 11:55:47.243
64.0, -3335.1081440858543, -1792.92673825752, 96.78674090327695, 2523.4413966024294, -0.09600000455975533, 0.12800000607967377, 0.9920000471174717, 0.0, 0.0, 0.0, 0.0, 0.0, 1.7632257472439613E9, 0.0, 2025-11-15 11:55:47.243
65.0, -3550.6647578319535, -1973.1038984227926, -35.91238932451233, 2425.452277863398, -0.09600000455975533, 0.12800000607967377, 0.9920000471174717, 0.0, 0.0, 0.0, 0.0, 0.0, 1.7632257472596714E9, 0.0, 2025-11-15 11:55:47.259
65.0, -3720.9461427144706, -2158.165367930196, -209.90375496307388, 2283.3659987468272, -0.09600000455975533, 0.12800000607967377, 0.9920000471174717, 0.0, 0.0, 0.0, 0.0, 0.0, 1.7632257472596714E9, 0.0, 2025-11-15 11:55:47.259
66.0, -3482.875331235118, -1942.5526556847617, -32.41932276589796, 2414.045582998544, -0.09600000455975533, 0.12800000607967377, 0.9920000471174717, 0.0, 0.0, 0.0, 0.0, 0.0, 1.7632257472603505E9, 0.0, 2025-11-15 11:55:47.260
66.0, -3370.812968962826, -1811.1437909416854, 96.93259700154886, 2527.424390055239, -0.09600000455975533, 0.12800000607967377, 0.9920000471174717, 0.0, 0.0, 0.0, 0.0, 0.0, 1.7632257472603505E9, 0.0, 2025-11-15 11:55:47.260
67.0, -3241.6237348434515, -1666.5237296051346, 295.074366603978, 2308.744959846139, -0.09600000455975533, 0.12800000607967377, 0.9920000471174717, 0.0, 0.0, 0.0, 0.0, 0.0, 1.7632257472739308E9, 0.0, 2025-11-15 11:55:47.273
67.0, -3131.225628051441, -1576.5978351705708, 360.99758312292397, 2347.434224887751, -0.09600000455975533, 0.12800000607967377, 0.9920000471174717, 0.0, 0.0, 0.0, 0.0, 0.0, 1.7632257472739308E9, 0.0, 2025-11-15 11:55:47.273
68.0, -3277.195793271996, -1737.1124713188037, 162.59776042355224, 2571.398133734241, -0.09600000455975533, 0.12800000607967377, 0.9920000471174717, 0.0, 0.0, 0.0, 0.0, 0.0, 1.7632257472897289E9, 0.0, 2025-11-15 11:55:47.289
68.0, -3189.2950546634383, -1611.752894754056, 354.7706496967003, 2351.1329859439284, -0.09600000455975533, 0.12800000607967377, 0.9920000471174717, 0.0, 0.0, 0.0, 0.0, 0.0, 1.7632257472897289E9, 0.0, 2025-11-15 11:55:47.289
69.0, -3193.715616411064, -1637.0570578542538, 308.7063019424677, 2314.8746558735147, -0.09600000455975533, 0.12800000607967377, 0.9920000471174717, 0.0, 0.0, 0.0, 0.0, 0.0, 1.7632257472903223E9, 0.0, 2025-11-15 11:55:47.290
69.0, -3335.6728689791635, -1795.398812128231, 96.85779900243506, 2516.6385185830295, -0.09600000455975533, 0.12800000607967377, 0.9920000471174717, 0.0, 0.0, 0.0, 0.0, 0.0, 1.7632257472903223E9, 0.0, 2025-11-15 11:55:47.290
70.0, -3542.941864423454, -1968.4103239784017, -24.094305464532226, 2437.767768417485, -0.09600000455975533, 0.12800000607967377, 1.0240000486373901, 0.0, 0.0, 0.0, 0.0, 0.0, 1.7632257473039646E9, 0.0, 2025-11-15 11:55:47.303
70.0, -3718.481548643671, -2162.0473840842023, -205.0830239201896, 2285.224729024805, -0.09600000455975533, 0.12800000607967377, 1.0240000486373901, 0.0, 0.0, 0.0, 0.0, 0.0, 1.7632257473039646E9, 0.0, 2025-11-15 11:55:47.303
71.0, -3479.389744476415, -1939.8337484169751, -27.684609421994537, 2420.0069835279137, -0.09600000455975533, 0.144000006839633, 1.0240000486373901, 0.0, 0.0, 0.0, 0.0, 0.0, 1.7632257473196092E9, 0.0, 2025-11-15 11:55:47.319
71.0, -3379.167905463837, -1819.0349798481911, 96.56982670584694, 2523.3665986033157, -0.09600000455975533, 0.144000006839633, 1.0240000486373901, 0.0, 0.0, 0.0, 0.0, 0.0, 1.7632257473196092E9, 0.0, 2025-11-15 11:55:47.319
72.0, -3241.567636344116, -1665.6336334156804, 297.3220464773476, 2315.570277265273, -0.09600000455975533, 0.144000006839633, 1.0240000486373901, 0.0, 0.0, 0.0, 0.0, 0.0, 1.763225747320331E9, 0.0, 2025-11-15 11:55:47.320
72.0, -3122.713615752291, -1573.3964808085002, 357.47833726461977, 2335.167353033088, -0.09600000455975533, 0.144000006839633, 1.0240000486373901, 0.0, 0.0, 0.0, 0.0, 0.0, 1.763225747320331E9, 0.0, 2025-11-15 11:55:47.320
73.0, -3278.777770953253, -1736.252294328995, 153.52476313104853, 2563.4358867285773, -0.09600000455975533, 0.144000006839633, 1.0240000486373901, 0.0, 0.0, 0.0, 0.0, 0.0, 1.7632257473340187E9, 0.0, 2025-11-15 11:55:47.334
73.0, -3191.456716837827, -1614.9879082157277, 347.5077639827505, 2353.466683516279, -0.09600000455975533, 0.144000006839633, 1.0240000486373901, 0.0, 0.0, 0.0, 0.0, 0.0, 1.7632257473340187E9, 0.0, 2025-11-15 11:55:47.334
74.0, -3198.850499050226, -1649.7614980037324, 301.79122692439705, 2308.2699925517663, -0.09600000455975533, 0.144000006839633, 1.0240000486373901, 0.0, 0.0, 0.0, 0.0, 0.0, 1.7632257473496084E9, 0.0, 2025-11-15 11:55:47.349
74.0, -3326.7232883851975, -1793.1623519547284, 93.62278554076329, 2511.73550974112, -0.09600000455975533, 0.144000006839633, 1.0240000486373901, 0.0, 0.0, 0.0, 0.0, 0.0, 1.7632257473496084E9, 0.0, 2025-11-15 11:55:47.349
75.0, -3556.457862863317, -1981.6084309220314, -34.244393944274634, 2427.4381647398695, -0.09600000455975533, 0.144000006839633, 1.0240000486373901, 0.0, 0.0, 0.0, 0.0, 0.0, 1.7632257473503194E9, 0.0, 2025-11-15 11:55:47.350
75.0, -3730.636223499663, -2169.635641094297, -211.2276795473881, 2274.4238979527727, -0.09600000455975533, 0.144000006839633, 1.0240000486373901, 0.0, 0.0, 0.0, 0.0, 0.0, 1.7632257473503194E9, 0.0, 2025-11-15 11:55:47.350
76.0, -3489.3116990588605, -1948.820728010498, -41.61573675693944, 2406.494724988006, -0.09600000455975533, 0.144000006839633, 1.0240000486373901, 0.0, 0.0, 0.0, 0.0, 0.0, 1.7632257473640027E9, 0.0, 2025-11-15 11:55:47.364
76.0, -3386.946897371672, -1828.8447374319658, 83.01642926642671, 2512.229176535271, -0.09600000455975533, 0.144000006839633, 1.0240000486373901, 0.0, 0.0, 0.0, 0.0, 0.0, 1.7632257473640027E9, 0.0, 2025-11-15 11:55:47.364
77.0, -3255.3155085812323, -1681.2514556306414, 273.40912616066635, 2278.3320934064686, -0.09600000455975533, 0.144000006839633, 1.0240000486373901, 0.0, 0.0, 0.0, 0.0, 0.0, 1.7632257473796012E9, 0.0, 2025-11-15 11:55:47.379
77.0, -3144.3526768959127, -1593.9434911650605, 336.647094511427, 2329.262051003054, -0.09600000455975533, 0.144000006839633, 1.0240000486373901, 0.0, 0.0, 0.0, 0.0, 0.0, 1.7632257473796012E9, 0.0, 2025-11-15 11:55:47.379
78.0, -3296.9686443377286, -1758.8375501614064, 130.31494400603697, 2552.571477357298, -0.09600000455975533, 0.144000006839633, 1.0240000486373901, 0.0, 0.0, 0.0, 0.0, 0.0, 1.763225747380324E9, 0.0, 2025-11-15 11:55:47.380
78.0, -3216.749660238158, -1638.8260305332951, 320.8198378989473, 2324.254324962385, -0.09600000455975533, 0.144000006839633, 1.0240000486373901, 0.0, 0.0, 0.0, 0.0, 0.0, 1.763225747380324E9, 0.0, 2025-11-15 11:55:47.380
79.0, -3232.6853739493527, -1679.519881951157, 273.4914039596915, 2278.8781187999994, -0.09600000455975533, 0.144000006839633, 1.0240000486373901, 0.0, 0.0, 0.0, 0.0, 0.0, 1.763225747393952E9, 0.0, 2025-11-15 11:55:47.393
79.0, -3349.0467512207106, -1818.085045259446, 73.84245467511937, 2508.0292688850313, -0.09600000455975533, 0.144000006839633, 1.0240000486373901, 0.0, 0.0, 0.0, 0.0, 0.0, 1.763225747393952E9, 0.0, 2025-11-15 11:55:47.393
80.0, -3556.304526965134, -1987.2781192548573, -44.00927272858098, 2423.081181291491, -0.09600000455975533, 0.144000006839633, 1.0240000486373901, 0.0, 0.0, 0.0, 0.0, 0.0, 1.7632257474096713E9, 0.0, 2025-11-15 11:55:47.409
80.0, -3744.95630043, -2176.632993911393, -225.73475147550926, 2272.381912576966, -0.09600000455975533, 0.144000006839633, 1.0240000486373901, 0.0, 0.0, 0.0, 0.0, 0.0, 1.7632257474096713E9, 0.0, 2025-11-15 11:55:47.409
81.0, -3978.582240812015, -1948.652432512492, -45.127502815332264, 2415.5078838812187, -0.09600000455975533, 0.144000006839633, 1.0240000486373901, 0.0, 0.0, 0.0, 0.0, 0.0, 1.7632257474103296E9, 0.0, 2025-11-15 11:55:47.410
81.0, -3868.9321140111424, -1820.145730135031, 93.20391674572602, 2528.7595343394205, -0.09600000455975533, 0.144000006839633, 1.0240000486373901, 0.0, 0.0, 0.0, 0.0, 0.0, 1.7632257474103296E9, 0.0, 2025-11-15 11:55:47.410
82.0, -3740.3524835845456, -1676.7373963841237, 273.66717925760895, 2768.421673249919, -0.0800000037997961, 0.144000006839633, 1.0240000486373901, 0.0, 0.0, 0.0, 0.0, 0.0, 1.763225747423964E9, 0.0, 2025-11-15 11:55:47.423
82.0, -3631.8953848695382, -1593.58820066927, 337.3127967035398, 2822.466967509594, -0.0800000037997961, 0.144000006839633, 1.0240000486373901, 0.0, 0.0, 0.0, 0.0, 0.0, 1.763225747423964E9, 0.0, 2025-11-15 11:55:47.423
83.0, -3760.7106289933436, -1732.8340257694945, 151.14992665918544, 3058.2302607162856, -0.0800000037997961, 0.144000006839633, 1.0240000486373901, 0.0, 0.0, 0.0, 0.0, 0.0, 1.7632257474396193E9, 0.0, 2025-11-15 11:55:47.439
83.0, -3679.044303610921, -1614.1352110258304, 347.2085719862953, 2830.5002726144157, -0.0800000037997961, 0.144000006839633, 1.0240000486373901, 0.0, 0.0, 0.0, 0.0, 0.0, 1.7632257474396193E9, 0.0, 2025-11-15 11:55:47.439
84.0, -3718.0028414493427, -1660.1359804808162, 288.2191299851984, 2773.0105304955505, -0.0800000037997961, 0.144000006839633, 1.0240000486373901, 0.0, 0.0, 0.0, 0.0, 0.0, 1.7632257474403117E9, 0.0, 2025-11-15 11:55:47.440
84.0, -3817.7927220170386, -1789.8188813943416, 102.44146963628009, 3011.09256167477, -0.0800000037997961, 0.144000006839633, 1.0240000486373901, 0.0, 0.0, 0.0, 0.0, 0.0, 1.7632257474403117E9, 0.0, 2025-11-15 11:55:47.440
85.0, -4018.2139606424607, -1949.9576575970277, -3.947464403230697, 2948.1537853204645, -0.0800000037997961, 0.144000006839633, 1.0240000486373901, 0.0, 0.0, 0.0, 0.0, 0.0, 1.7632257474539337E9, 0.0, 2025-11-15 11:55:47.453
85.0, -4219.13260596199, -2163.06463687215, -203.23925324203447, 2781.2495300979353, -0.0800000037997961, 0.144000006839633, 1.0240000486373901, 0.0, 0.0, 0.0, 0.0, 0.0, 1.7632257474539337E9, 0.0, 2025-11-15 11:55:47.453
86.0, -4462.467326628976, -1940.61912740767, -26.6972758336924, 2909.6664748764597, -0.0800000037997961, 0.144000006839633, 1.0240000486373901, 0.0, 0.0, 0.0, 0.0, 0.0, 1.7632257474696665E9, 0.0, 2025-11-15 11:55:47.469
86.0, -4323.440285676159, -1787.268269624561, 121.1858482141979, 3045.6006185659207, -0.0800000037997961, 0.144000006839633, 1.0240000486373901, 0.0, 0.0, 0.0, 0.0, 0.0, 1.7632257474696665E9, 0.0, 2025-11-15 11:55:47.469
87.0, -4229.35375254089, -1668.7901089782827, 293.9561365172267, 3277.0574169736356, -0.0800000037997961, 0.144000006839633, 1.0240000486373901, 0.0, 0.0, 0.0, 0.0, 0.0, 1.763225747470317E9, 0.0, 2025-11-15 11:55:47.470
87.0, -4122.912459902, -1585.711971362587, 349.40389326028526, 3315.537247617729, -0.0800000037997961, 0.144000006839633, 1.0240000486373901, 0.0, 0.0, 0.0, 0.0, 0.0, 1.763225747470317E9, 0.0, 2025-11-15 11:55:47.470
88.0, -4231.117115369998, -1704.1190739097074, 185.87489774776623, 3091.418132923078, -0.0800000037997961, 0.144000006839633, 1.0240000486373901, 0.0, 0.0, 0.0, 0.0, 0.0, 1.7632257474839191E9, 0.0, 2025-11-15 11:55:47.483
88.0, -4153.912490634713, -1589.1938182213344, 365.26854887232184, 3323.5032345233485, -0.0800000037997961, 0.144000006839633, 1.0240000486373901, 0.0, 0.0, 0.0, 0.0, 0.0, 1.7632257474839191E9, 0.0, 2025-11-15 11:55:47.483
89.0, -4184.05982417753, -1639.551571124699, 313.852404281497, 3296.9237655382603, -0.0800000037997961, 0.144000006839633, 1.0240000486373901, 0.0, 0.0, 0.0, 0.0, 0.0, 1.763225747499354E9, 0.0, 2025-11-15 11:55:47.499
89.0, -4309.875668536872, -1786.1051607383415, 108.79929956095293, 3518.636254611425, -0.0800000037997961, 0.144000006839633, 1.0240000486373901, 0.0, 0.0, 0.0, 0.0, 0.0, 1.763225747499354E9, 0.0, 2025-11-15 11:55:47.499
90.0, -4488.747603617609, -1935.1775729721412, 6.801008069422096, 3431.7097599413246, -0.0800000037997961, 0.144000006839633, 1.0240000486373901, 0.0, 0.0, 0.0, 0.0, 0.0, 1.7632257475146449E9, 0.0, 2025-11-15 11:55:47.514
90.0, -4723.47868443653, -2170.540696883574, -210.2291262592189, 3258.657109191641, -0.0800000037997961, 0.144000006839633, 1.0240000486373901, 0.0, 0.0, 0.0, 0.0, 0.0, 1.7632257475146449E9, 0.0, 2025-11-15 11:55:47.514
91.0, -4958.241554405075, -1946.950778032653, -35.9236090243794, 3394.7670281790197, -0.0800000037997961, 0.144000006839633, 1.0240000486373901, 0.0, 0.0, 0.0, 0.0, 0.0, 1.7632257475153115E9, 0.0, 2025-11-15 11:55:47.515
91.0, -4795.42874973407, -1766.2014131741598, 144.54152343748137, 3550.6909371316433, -0.0800000037997961, 0.144000006839633, 1.0240000486373901, 0.0, 0.0, 0.0, 0.0, 0.0, 1.7632257475153115E9, 0.0, 2025-11-15 11:55:47.515
92.0, -4718.302662897855, -1659.4328792891465, 298.78808725997806, 3764.7871199450456, -0.09600000455975533, 0.144000006839633, 1.0240000486373901, 0.0, 0.0, 0.0, 0.0, 0.0, 1.763225747529601E9, 0.0, 2025-11-15 11:55:47.529
92.0, -4612.934721546248, -1594.1828447622247, 342.2419848451391, 3798.8613484413363, -0.09600000455975533, 0.144000006839633, 1.0240000486373901, 0.0, 0.0, 0.0, 0.0, 0.0, 1.763225747529601E9, 0.0, 2025-11-15 11:55:47.529
93.0, -4730.174975307193, -1719.3666460290551, 173.60054609319195, 3566.480794744566, -0.09600000455975533, 0.144000006839633, 1.0240000486373901, 0.0, 0.0, 0.0, 0.0, 0.0, 1.7632257475302985E9, 0.0, 2025-11-15 11:55:47.530
93.0, -4601.011920487508, -1549.6967347892933, 403.1088566239923, 3362.9778785556555, -0.09600000455975533, 0.144000006839633, 1.0240000486373901, 0.0, 0.0, 0.0, 0.0, 0.0, 1.7632257475302985E9, 0.0, 2025-11-15 11:55:47.530
94.0, -4686.7229476720095, -1649.9634526013397, 303.4068637052551, 3278.5047582564875, -0.09600000455975533, 0.144000006839633, 1.0240000486373901, 0.0, 0.0, 0.0, 0.0, 0.0, 1.7632257475439951E9, 0.0, 2025-11-15 11:55:47.543
94.0, -4873.259807711933, -1859.197765472345, 534.6972365649417, 3467.609059615992, -0.09600000455975533, 0.144000006839633, 1.0240000486373901, 0.0, 0.0, 0.0, 0.0, 0.0, 1.7632257475439951E9, 0.0, 2025-11-15 11:55:47.543
95.0, -4944.811573664192, -1909.4844602765515, 507.74003768432885, 3444.6011950885877, -0.09600000455975533, 0.144000006839633, 1.0240000486373901, 0.0, 0.0, 0.0, 0.0, 0.0, 1.7632257475595973E9, 0.0, 2025-11-15 11:55:47.559
95.0, -5161.1610462008975, -2117.8417666079476, 318.9685874208808, 3292.8809336861596, -0.09600000455975533, 0.144000006839633, 1.0240000486373901, 0.0, 0.0, 0.0, 0.0, 0.0, 1.7632257475595973E9, 0.0, 2025-11-15 11:55:47.559
96.0, -5014.725263435859, -1992.0016128988937, 420.7163056153804, 3374.006843524985, -0.09600000455975533, 0.144000006839633, 1.0240000486373901, 0.0, 0.0, 0.0, 0.0, 0.0, 1.7632257475603044E9, 0.0, 2025-11-15 11:55:47.560
96.0, -4894.11348986486, -1861.9690313395113, 545.2774135395885, 3491.9670280274004, -0.09600000455975533, 0.144000006839633, 1.0240000486373901, 0.0, 0.0, 0.0, 0.0, 0.0, 1.7632257475603044E9, 0.0, 2025-11-15 11:55:47.560
97.0, -5131.885109347757, -2088.8949409509078, 350.5333430469036, 3323.4546158239245, -0.09600000455975533, 0.144000006839633, 1.0240000486373901, 0.0, 0.0, 0.0, 0.0, 0.0, 1.7632257475739663E9, 0.0, 2025-11-15 11:55:47.573
97.0, -5095.697837376501, -2071.3136712592095, 353.2335508149117, 3317.698909792118, -0.09600000455975533, 0.144000006839633, 1.0240000486373901, 0.0, 0.0, 0.0, 0.0, 0.0, 1.7632257475739663E9, 0.0, 2025-11-15 11:55:47.573
98.0, -5311.720068667084, -2286.1615739637055, 593.4061860693619, 3511.6613411940634, -0.09600000455975533, 0.144000006839633, 1.0240000486373901, 0.0, 0.0, 0.0, 0.0, 0.0, 1.763225747589609E9, 0.0, 2025-11-15 11:55:47.589
98.0, -5104.034074377734, -2056.4400891354308, 381.30897978227586, 3347.5395715385675, -0.09600000455975533, 0.144000006839633, 1.0240000486373901, 0.0, 0.0, 0.0, 0.0, 0.0, 1.763225747589609E9, 0.0, 2025-11-15 11:55:47.589
99.0, -5178.368325897027, -2138.3925168644637, 297.546440474689, 3270.3517763530836, -0.09600000455975533, 0.144000006839633, 1.0240000486373901, 0.0, 0.0, 0.0, 0.0, 0.0, 1.7632257475902996E9, 0.0, 2025-11-15 11:55:47.590
99.0, -5356.524070136249, -2345.3754099621437, 531.9259706977755, 3459.538355511613, -0.09600000455975533, 0.144000006839633, 1.0240000486373901, 0.0, 0.0, 0.0, 0.0, 0.0, 1.7632257475902996E9, 0.0, 2025-11-15 11:55:47.590
100.0, -5446.21809077356, -2412.11392467143, 498.91761368885636, 3443.9766317959875, -0.09600000455975533, 0.144000006839633, 1.0240000486373901, 0.0, 0.0, 0.0, 0.0, 0.0, 1.7632257476203716E9, 0.0, 2025-11-15 11:55:47.620
100.0, -5669.228325131349, -2625.239603446331, 307.03830656223, 3285.689106071368, -0.09600000455975533, 0.144000006839633, 1.0240000486373901, 0.0, 0.0, 0.0, 0.0, 0.0, 1.7632257476203716E9, 0.0, 2025-11-15 11:55:47.620
0.0, -120.15363582642749, -37.72250090306625, -77.16348583577201, -64.21221228921786, -0.09600000455975533, 0.144000006839633, 1.0240000486373901, 0.0, 0.0, 0.0, 0.0, 0.0, 1.7632257476210704E9, 0.0, 2025-11-15 11:55:47.621
1.0, 43.98683332884684, 140.28925718786195, 89.82678708573803, 73.47968437941745, -0.09600000455975533, 0.144000006839633, 1.0240000486373901, 0.0, 0.0, 0.0, 0.0, 0.0, 1.7632257476217673E9, 0.0, 2025-11-15 11:55:47.621
1.0, 285.9041319126263, 384.80204634089023, -123.2240936900489, -106.37958428962156, -0.09600000455975533, 0.144000006839633, 1.0240000486373901, 0.0, 0.0, 0.0, 0.0, 0.0, 1.7632257476217673E9, 0.0, 2025-11-15 11:55:47.621
2.0, 305.50120768044144, 394.6267635244876, -120.95771431690082, -101.08014605240896, -0.09600000455975533, 0.144000006839633, 1.0240000486373901, 0.0, 0.0, 0.0, 0.0, 0.0, 1.7632257476346848E9, 0.0, 2025-11-15 11:55:47.634
2.0, 518.9485178515315, 607.3373134043068, 63.40813379874453, 55.46832619281486, -0.09600000455975533, 0.144000006839633, 1.0240000486373901, 0.0, 0.0, 0.0, 0.0, 0.0, 1.7632257476346848E9, 0.0, 2025-11-15 11:55:47.634
3.0, 313.0408459911123, 418.43496664240956, -92.36991905560717, -73.29642928158864, -0.09600000455975533, 0.144000006839633, 1.0240000486373901, 0.0, 0.0, 0.0, 0.0, 0.0, 1.7632257476353512E9, 0.0, 2025-11-15 11:55:47.635
3.0, 265.40948015544564, 370.2126966137439, -149.47819137899205, -118.65019604424015, -0.09600000455975533, 0.144000006839633, 1.0240000486373901, 0.0, 0.0, 0.0, 0.0, 0.0, 1.7632257476353512E9, 0.0, 2025-11-15 11:55:47.635
4.0, 496.03415082301944, 587.1231541438028, 41.866310053970665, 40.78921886673197, -0.09600000455975533, 0.144000006839633, 1.0240000486373901, 0.0, 0.0, 0.0, 0.0, 0.0, 1.7632257476489215E9, 0.0, 2025-11-15 11:55:47.648
4.0, 393.295359140262, 497.43661330640316, -18.574213129933923, -4.721623694058508, -0.09600000455975533, 0.144000006839633, 1.0240000486373901, 0.0, 0.0, 0.0, 0.0, 0.0, 1.7632257476489215E9, 0.0, 2025-11-15 11:55:47.648
5.0, 251.49705232027918, 345.03943001199514, -159.93495165510103, -136.10804903740063, -0.09600000455975533, 0.144000006839633, 1.0240000486373901, 0.0, 0.0, 0.0, 0.0, 0.0, 1.763225747664647E9, 0.0, 2025-11-15 11:55:47.664
5.0, 400.4460478555411, 486.50488573592156, -41.406302359420806, -18.77242782758549, -0.09600000455975533, 0.144000006839633, 1.0240000486373901, 0.0, 0.0, 0.0, 0.0, 0.0, 1.763225747664647E9, 0.0, 2025-11-15 11:55:47.664
6.0, 523.5448548970744, 616.6272248942405, 80.0955674010329, 67.22657165350392, -0.09600000455975533, 0.144000006839633, 1.0240000486373901, 0.0, 0.0, 0.0, 0.0, 0.0, 1.76322574766535E9, 0.0, 2025-11-15 11:55:47.665
6.0, 734.5780596467666, 836.546431938652, -161.5019697365351, -144.55648303730413, -0.09600000455975533, 0.144000006839633, 1.0240000486373901, 0.0, 0.0, 0.0, 0.0, 0.0, 1.76322574766535E9, 0.0, 2025-11-15 11:55:47.665
7.0, 789.5508490954526, 884.0057623763569, -127.3005846417509, -100.60891865799204, -0.09600000455975533, 0.144000006839633, 1.0240000486373901, 0.0, 0.0, 0.0, 0.0, 0.0, 1.7632257476789765E9, 0.0, 2025-11-15 11:55:47.678
7.0, 566.437767488882, 649.8973749000579, 102.7331818328239, 85.51094253687188, -0.09600000455975533, 0.144000006839633, 1.0240000486373901, 0.0, 0.0, 0.0, 0.0, 0.0, 1.7632257476789765E9, 0.0, 2025-11-15 11:55:47.678
8.0, 788.7168514053337, 893.688363361638, -101.2521814503707, -73.6105808778666, -0.09600000455975533, 0.144000006839633, 1.0240000486373901, 0.0, 0.0, 0.0, 0.0, 0.0, 1.763225747694668E9, 0.0, 2025-11-15 11:55:47.694
8.0, 750.5885713570751, 848.2635384998284, -157.18986508762464, -128.91248152265325, -0.09600000455975533, 0.144000006839633, 1.0240000486373901, 0.0, 0.0, 0.0, 0.0, 0.0, 1.763225747694668E9, 0.0, 2025-11-15 11:55:47.694
9.0, 510.78431624826044, 1077.4221683847718, 37.71502110315487, 31.372150778304785, -0.09600000455975533, 0.144000006839633, 1.0240000486373901, 0.0, 0.0, 0.0, 0.0, 0.0, 1.7632257476953497E9, 0.0, 2025-11-15 11:55:47.695
9.0, 396.13020330667496, 986.9352889568545, -20.6947364048101, -13.86567908572033, -0.09600000455975533, 0.144000006839633, 1.0240000486373901, 0.0, 0.0, 0.0, 0.0, 0.0, 1.7632257476953497E9, 0.0, 2025-11-15 11:55:47.695
10.0, 240.06043825577945, 833.2852391772904, -169.03412824729457, -140.3116965875961, -0.09600000455975533, 0.144000006839633, 1.0240000486373901, 0.0, 0.0, 0.0, 0.0, 0.0, 1.7632257477089884E9, 0.0, 2025-11-15 11:55:47.708
10.0, 388.49706749711186, 964.7389827198349, -59.79913034150377, -53.089749820996076, -0.09600000455975533, 0.144000006839633, 1.0240000486373901, 0.0, 0.0, 0.0, 0.0, 0.0, 1.7632257477089884E9, 0.0, 2025-11-15 11:55:47.708
11.0, 513.9968903101981, 1092.8380360021256, 65.05742967920378, 63.90554049285129, -0.09600000455975533, 0.144000006839633, 1.0240000486373901, 0.0, 0.0, 0.0, 0.0, 0.0, 1.7632257477246523E9, 0.0, 2025-11-15 11:55:47.724
11.0, 730.0976594998501, 1323.3037609215826, -165.18951109284535, -140.21071928879246, -0.09600000455975533, 0.144000006839633, 1.0240000486373901, 0.0, 0.0, 0.0, 0.0, 0.0, 1.7632257477246523E9, 0.0, 2025-11-15 11:55:47.724
12.0, 788.3989599091001, 1368.1189820906147, -131.92684088693932, -96.49128880677745, -0.09600000455975533, 0.144000006839633, 1.0240000486373901, 0.0, 0.0, 0.0, 0.0, 0.0, 1.7632257477253435E9, 0.0, 2025-11-15 11:55:47.725
12.0, 568.5283715641126, 1139.9570355438627, 94.59889942919835, 84.30295485118404, -0.09600000455975533, 0.144000006839633, 1.0240000486373901, 0.0, 0.0, 0.0, 0.0, 0.0, 1.7632257477253435E9, 0.0, 2025-11-15 11:55:47.725
13.0, 782.4113800800405, 1378.994611161761, -108.81799906073138, -79.48970360821113, -0.09600000455975533, 0.144000006839633, 1.0240000486373901, 0.0, 0.0, 0.0, 0.0, 0.0, 1.7632257477389617E9, 0.0, 2025-11-15 11:55:47.738
13.0, 735.7262089331634, 1317.2264234935865, -177.48630214715376, -146.0187839199789, -0.09600000455975533, 0.144000006839633, 1.0240000486373901, 0.0, 0.0, 0.0, 0.0, 0.0, 1.7632257477389617E9, 0.0, 2025-11-15 11:55:47.738
14.0, 521.2186371246353, 1083.955773607362, 42.10566365113482, 41.836390854325145, -0.09600000455975533, 0.144000006839633, 1.0240000486373901, 0.0, 0.0, 0.0, 0.0, 0.0, 1.7632257477546256E9, 0.0, 2025-11-15 11:55:47.754
14.0, 394.8810767214745, 978.3035998591222, -27.62103112274781, -14.890411673579365, -0.09600000455975533, 0.144000006839633, 1.0240000486373901, 0.0, 0.0, 0.0, 0.0, 0.0, 1.7632257477546256E9, 0.0, 2025-11-15 11:55:47.754
15.0, 235.3332047117874, 824.4104565824382, -177.02255455264822, -147.54840300185606, -0.09600000455975533, 0.144000006839633, 1.0240000486373901, 0.0, 0.0, 0.0, 0.0, 0.0, 1.7632257477553284E9, 0.0, 2025-11-15 11:55:47.755
15.0, 403.88301591482013, 970.1057391562499, -62.62275480804965, -52.48762592813, -0.09600000455975533, 0.144000006839633, 1.0240000486373901, 0.0, 0.0, 0.0, 0.0, 0.0, 1.7632257477553284E9, 0.0, 2025-11-15 11:55:47.755
16.0, 520.0106494389474, 1107.7938959249295, 82.53398217214271, 75.14019995974377, -0.09600000455975533, 0.144000006839633, 1.0240000486373901, 0.0, 0.0, 0.0, 0.0, 0.0, 1.7632257477689617E9, 0.0, 2025-11-15 11:55:47.768
16.0, 700.8179827467538, 1307.9252923037857, 317.3828698396683, -143.96931874426082, -0.09600000455975533, 0.144000006839633, 1.0240000486373901, 0.0, 0.0, 0.0, 0.0, 0.0, 1.7632257477689617E9, 0.0, 2025-11-15 11:55:47.768
17.0, 788.2531038108282, 1358.2643457073718, 347.40678668394685, -117.40480935899541, -0.09600000455975533, 0.144000006839633, 1.0240000486373901, 0.0, 0.0, 0.0, 0.0, 0.0, 1.763225747784627E9, 0.0, 2025-11-15 11:55:47.784
17.0, 583.5141506865621, 1159.999159406405, 108.60108486330137, 84.86767974449322, -0.09600000455975533, 0.144000006839633, 1.0240000486373901, 0.0, 0.0, 0.0, 0.0, 0.0, 1.763225747784627E9, 0.0, 2025-11-15 11:55:47.784
18.0, 768.8355432408862, 1373.8746881224215, -114.08751809829846, -80.46955739660189, -0.09600000455975533, 0.144000006839633, 1.0240000486373901, 0.0, 0.0, 0.0, 0.0, 0.0, 1.7632257477853348E9, 0.0, 2025-11-15 11:55:47.785
18.0, 725.7780750510283, 1310.5955808721483, -181.90686389477924, -146.13472081860527, -0.09600000455975533, 0.144000006839633, 1.0240000486373901, 0.0, 0.0, 0.0, 0.0, 0.0, 1.7632257477853348E9, 0.0, 2025-11-15 11:55:47.785
19.0, 521.1587987253442, 1089.3561891433783, 41.20060786185786, 33.769426649902016, -0.09600000455975533, 0.144000006839633, 1.0240000486373901, 0.0, 0.0, 0.0, 0.0, 0.0, 1.7632257477989476E9, 0.0, 2025-11-15 11:55:47.798
19.0, 395.1054707188159, 995.4510411559604, -12.552974201273173, 9.43389763822779, -0.09600000455975533, 0.144000006839633, 1.0240000486373901, 0.0, 0.0, 0.0, 0.0, 0.0, 1.7632257477989476E9, 0.0, 2025-11-15 11:55:47.798
20.0, 217.4340435238555, 808.8487328668125, -186.2526276432909, -147.3501883042045, -0.09600000455975533, 0.144000006839633, 1.0240000486373901, 0.0, 0.0, 0.0, 0.0, 0.0, 1.7632257478146513E9, 0.0, 2025-11-15 11:55:47.814
20.0, 398.8977292738855, 970.767701448407, -59.144647849258035, -53.912527811247855, -0.09600000455975533, 0.144000006839633, 1.0240000486373901, 0.0, 0.0, 0.0, 0.0, 0.0, 1.7632257478146513E9, 0.0, 2025-11-15 11:55:47.814
21.0, 531.473442803137, 1112.7417835663073, 81.63266628282145, 78.63700641831383, -0.09600000455975533, 0.144000006839633, 1.0240000486373901, 0.0, 0.0, 0.0, 0.0, 0.0, 1.7632257478153427E9, 0.0, 2025-11-15 11:55:47.815
21.0, 707.3478480693884, 1305.1390668367967, 315.1838086657226, -129.32761041773483, -0.09600000455975533, 0.144000006839633, 1.0240000486373901, 0.0, 0.0, 0.0, 0.0, 0.0, 1.7632257478153427E9, 0.0, 2025-11-15 11:55:47.815
22.0, 775.5449237613939, 1356.6038301270455, 341.314489656128, -119.4467947348021, -0.09600000455975533, 0.144000006839633, 1.0240000486373901, 0.0, 0.0, 0.0, 0.0, 0.0, 1.7632257478289492E9, 0.0, 2025-11-15 11:55:47.828
22.0, 583.985378080979, 1165.8147038375027, 113.68734880303964, 114.17353579727933, -0.09600000455975533, 0.144000006839633, 1.0240000486373901, 0.0, 0.0, 0.0, 0.0, 0.0, 1.7632257478289492E9, 0.0, 2025-11-15 11:55:47.828
23.0, 757.1371361794882, 1358.9412675993517, -130.95820679841563, -118.05555195128545, -0.09600000455975533, 0.144000006839633, 1.0240000486373901, 0.0, 0.0, 0.0, 0.0, 0.0, 1.763225747845306E9, 0.0, 2025-11-15 11:55:47.845
23.0, 727.9546968252398, 1310.1804519770667, -187.24370113154873, -153.70427832892165, -0.09600000455975533, 0.144000006839633, 1.0240000486373901, 0.0, 0.0, 0.0, 0.0, 0.0, 1.763225747845306E9, 0.0, 2025-11-15 11:55:47.845
24.0, 526.8509264579043, 1093.4887785944156, 45.430434711743146, 39.472774082329124, -0.09600000455975533, 0.144000006839633, 1.0240000486373901, 0.0, 0.0, 0.0, 0.0, 0.0, 1.7632257478460484E9, 0.0, 2025-11-15 11:55:47.846
24.0, 393.3290182398632, 988.2779130409472, -26.196129239629954, -12.538014601450413, -0.09600000455975533, 0.144000006839633, 1.0240000486373901, 0.0, 0.0, 0.0, 0.0, 0.0, 1.7632257478460484E9, 0.0, 2025-11-15 11:55:47.846
25.0, 216.9889954291284, 803.4258779310621, -193.16770266136155, -153.58834143029526, -0.09600000455975533, 0.144000006839633, 1.0240000486373901, 0.0, 0.0, 0.0, 0.0, 0.0, 1.7632257478589437E9, 0.0, 2025-11-15 11:55:47.858
25.0, 396.2311806054786, 966.474296299275, -69.7173450239934, -55.139214996714145, -0.09600000455975533, 0.144000006839633, 1.0240000486373901, 0.0, 0.0, 0.0, 0.0, 0.0, 1.7632257478589437E9, 0.0, 2025-11-15 11:55:47.858
26.0, 547.6634697113186, 1122.6001598495059, 86.37859932659194, 84.134659353178, -0.09600000455975533, 0.144000006839633, 1.0240000486373901, 0.0, 0.0, 0.0, 0.0, 0.0, 1.7632257478746576E9, 0.0, 2025-11-15 11:55:47.874
26.0, 705.941645686049, 1307.8205751050264, 312.49482059758157, -133.35922256996855, -0.09600000455975533, 0.144000006839633, 1.0240000486373901, 0.0, 0.0, 0.0, 0.0, 0.0, 1.7632257478746576E9, 0.0, 2025-11-15 11:55:47.874
27.0, 781.682099588681, 1360.2614522837102, 347.73589788004756, -109.74549424974248, -0.09600000455975533, 0.144000006839633, 1.0240000486373901, 0.0, 0.0, 0.0, 0.0, 0.0, 1.7632257478753452E9, 0.0, 2025-11-15 11:55:47.875
27.0, 595.9567978391424, 1163.1144960694946, 113.09644461004063, 97.20560969831422, -0.09600000455975533, 0.144000006839633, 1.0240000486373901, 0.0, 0.0, 0.0, 0.0, 0.0, 1.7632257478753452E9, 0.0, 2025-11-15 11:55:47.875
28.0, 767.6686944547109, 1369.7383587714285, -120.56876472150907, -89.68467088742182, -0.09600000455975533, 0.144000006839633, 1.0240000486373901, 0.0, 0.0, 0.0, 0.0, 0.0, 1.7632257478889601E9, 0.0, 2025-11-15 11:55:47.888
28.0, 731.2196294865571, 1309.1220602896065, -182.46784888813272, -149.4931509788148, -0.09600000455975533, 0.144000006839633, 1.0240000486373901, 0.0, 0.0, 0.0, 0.0, 0.0, 1.7632257478889601E9, 0.0, 2025-11-15 11:55:47.888
29.0, 532.703869888559, 1094.5733495815657, 44.95920731732622, 35.007333535235375, -0.09600000455975533, 0.144000006839633, 1.0240000486373901, 0.0, 0.0, 0.0, 0.0, 0.0, 1.763225747904664E9, 0.0, 2025-11-15 11:55:47.904
29.0, 400.2328735580668, 995.4473012560047, -16.165717558469623, -7.380692562554032, -0.09600000455975533, 0.144000006839633, 1.0240000486373901, 0.0, 0.0, 0.0, 0.0, 0.0, 1.763225747904664E9, 0.0, 2025-11-15 11:55:47.904
30.0, 230.12726397346705, 811.6087790341116, -184.09470536885783, -146.36285471590236, -0.09600000455975533, 0.144000006839633, 1.0400000493973494, 0.0, 0.0, 0.0, 0.0, 0.0, 1.7632257479053903E9, 0.0, 2025-11-15 11:55:47.905
30.0, 401.7774522397667, 970.0945194563828, -58.87163515249267, -53.130888720508665, -0.09600000455975533, 0.144000006839633, 1.0400000493973494, 0.0, 0.0, 0.0, 0.0, 0.0, 1.7632257479053903E9, 0.0, 2025-11-15 11:55:47.905
31.0, 551.687602063641, 1132.970902426634, 98.19294328661636, 85.75777593394741, -0.09600000455975533, 0.144000006839633, 1.0400000493973494, 0.0, 0.0, 0.0, 0.0, 0.0, 1.763225747918964E9, 0.0, 2025-11-15 11:55:47.918
31.0, 714.842607580591, 1308.9051460921764, 314.46948777418584, -136.7513118297793, -0.09600000455975533, 0.144000006839633, 1.0400000493973494, 0.0, 0.0, 0.0, 0.0, 0.0, 1.763225747918964E9, 0.0, 2025-11-15 11:55:47.918
32.0, 781.7568975877948, 1361.0019524749368, 350.33886824920774, -118.00693325186148, -0.0800000037997961, 0.144000006839633, 1.0400000493973494, 0.0, 0.0, 0.0, 0.0, 0.0, 1.7632257479346082E9, 0.0, 2025-11-15 11:55:47.934
32.0, 600.6054934840649, 1168.3129570079036, 126.68350114906207, 100.3246862613596, -0.0800000037997961, 0.144000006839633, 1.0400000493973494, 0.0, 0.0, 0.0, 0.0, 0.0, 1.7632257479346082E9, 0.0, 2025-11-15 11:55:47.934
33.0, 773.5365974851884, 1367.0718101030216, -117.27017296059057, -80.83980749221519, -0.0800000037997961, 0.144000006839633, 1.0400000493973494, 0.0, 0.0, 0.0, 0.0, 0.0, 1.7632257479353275E9, 0.0, 2025-11-15 11:55:47.935
33.0, 726.8813455379568, 1308.6994515946135, -182.53142718737945, -143.84590204572305, -0.0800000037997961, 0.144000006839633, 1.0400000493973494, 0.0, 0.0, 0.0, 0.0, 0.0, 1.7632257479353275E9, 0.0, 2025-11-15 11:55:47.935
34.0, 535.1983831590042, 1096.2600444615819, 53.45999991660938, 34.12097724573687, -0.0800000037997961, 0.144000006839633, 1.0400000493973494, 0.0, 0.0, 0.0, 0.0, 0.0, 1.763225747948956E9, 0.0, 2025-11-15 11:55:47.948
34.0, 412.77275810949504, 1001.1581284883432, -4.6131665953435, 4.9310580915771425, -0.0800000037997961, 0.144000006839633, 1.0400000493973494, 0.0, 0.0, 0.0, 0.0, 0.0, 1.763225747948956E9, 0.0, 2025-11-15 11:55:47.948
35.0, 217.02265452872962, 803.9083250253461, -191.12571728555486, -150.67121946485713, -0.0800000037997961, 0.144000006839633, 1.0400000493973494, 0.0, 0.0, 0.0, 0.0, 0.0, 1.7632257479646173E9, 0.0, 2025-11-15 11:55:47.964
35.0, 396.87444339785725, 970.1842770553194, -56.766071477439255, -53.45999991660938, -0.0800000037997961, 0.144000006839633, 1.0400000493973494, 0.0, 0.0, 0.0, 0.0, 0.0, 1.7632257479646173E9, 0.0, 2025-11-15 11:55:47.964
36.0, 549.0434927949682, 1133.307493422646, 101.27836075006053, 97.99472858896479, -0.0800000037997961, 0.144000006839633, 1.0400000493973494, 0.0, 0.0, 0.0, 0.0, 0.0, 1.7632257479653366E9, 0.0, 2025-11-15 11:55:47.965
36.0, 705.6611531893723, 1303.7590437531471, 311.13349701371044, -146.5685492134653, -0.0800000037997961, 0.144000006839633, 1.0400000493973494, 0.0, 0.0, 0.0, 0.0, 0.0, 1.7632257479653366E9, 0.0, 2025-11-15 11:55:47.965
37.0, 773.4318802864291, 1343.222468085587, 341.25465125683695, -113.42181590618566, -0.0800000037997961, 0.144000006839633, 1.0400000493973494, 0.0, 0.0, 0.0, 0.0, 0.0, 1.763225747978962E9, 0.0, 2025-11-15 11:55:47.978
37.0, 603.3954588510096, 1172.9728723526932, 122.19188130227849, 94.6549979285337, -0.0800000037997961, 0.144000006839633, 1.0400000493973494, 0.0, 0.0, 0.0, 0.0, 0.0, 1.763225747978962E9, 0.0, 2025-11-15 11:55:47.978
38.0, 769.404008034151, 1369.4391667749733, -116.93358196457848, -93.15903794625774, -0.0800000037997961, 0.144000006839633, 1.0400000493973494, 0.0, 0.0, 0.0, 0.0, 0.0, 1.763225747994639E9, 0.0, 2025-11-15 11:55:47.994
38.0, 719.6969977230765, 1307.2782896114513, -181.78344719624147, -150.07657537190244, -0.0800000037997961, 0.144000006839633, 1.0400000493973494, 0.0, 0.0, 0.0, 0.0, 0.0, 1.763225747994639E9, 0.0, 2025-11-15 11:55:47.994
39.0, 533.3920114804059, 1104.0539959692396, 54.57075020344928, 41.11833006283268, -0.0800000037997961, 0.144000006839633, 1.0400000493973494, 0.0, 0.0, 0.0, 0.0, 0.0, 1.763225747995356E9, 0.0, 2025-11-15 11:55:47.995
39.0, 414.69132678676397, 1015.4071473195218, 3.3266410105861723, 19.236175422091037, -0.0800000037997961, 0.144000006839633, 1.0400000493973494, 0.0, 0.0, 0.0, 0.0, 0.0, 1.763225747995356E9, 0.0, 2025-11-15 11:55:47.995
40.0, 215.7323890440166, 804.753542415332, -182.5463867872022, -156.78595589241013, -0.0800000037997961, 0.144000006839633, 1.0400000493973494, 0.0, 0.0, 0.0, 0.0, 0.0, 1.7632257480089643E9, 0.0, 2025-11-15 11:55:48.008
40.0, 396.57899130135775, 967.0315413926728, -66.69924575975165, -60.367595134768635, -0.0800000037997961, 0.144000006839633, 1.0400000493973494, 0.0, 0.0, 0.0, 0.0, 0.0, 1.7632257480089643E9, 0.0, 2025-11-15 11:55:48.008
41.0, 547.0239468188956, 1125.722976312507, 95.51143501838669, 83.36797986226156, -0.0800000037997961, 0.144000006839633, 1.0400000493973494, 0.0, 0.0, 0.0, 0.0, 0.0, 1.7632257480246687E9, 0.0, 2025-11-15 11:55:48.024
41.0, 701.7192986360751, 1300.0976816965267, 311.223254612647, -147.54840300185606, -0.0800000037997961, 0.144000006839633, 1.0400000493973494, 0.0, 0.0, 0.0, 0.0, 0.0, 1.7632257480246687E9, 0.0, 2025-11-15 11:55:48.024
42.0, 772.7437386945821, 1355.4482010407373, 350.77643654402345, -105.94201599480584, -0.0800000037997961, 0.144000006839633, 1.0400000493973494, 0.0, 0.0, 0.0, 0.0, 0.0, 1.7632257480253527E9, 0.0, 2025-11-15 11:55:48.025
42.0, 599.1057936018333, 1170.4633994824253, 126.0402383566834, 107.2173218796961, -0.0800000037997961, 0.144000006839633, 1.0400000493973494, 0.0, 0.0, 0.0, 0.0, 0.0, 1.7632257480253527E9, 0.0, 2025-11-15 11:55:48.025
43.0, 764.9722265866585, 1365.9872391158715, -110.83754503680393, -91.82763356203213, -0.0800000037997961, 0.144000006839633, 1.0400000493973494, 0.0, 0.0, 0.0, 0.0, 0.0, 1.7632257480389607E9, 0.0, 2025-11-15 11:55:48.038
43.0, 722.4271246907301, 1310.9059925684705, -176.11749876337126, -137.76856461772695, -0.0800000037997961, 0.144000006839633, 1.0400000493973494, 0.0, 0.0, 0.0, 0.0, 0.0, 1.7632257480389607E9, 0.0, 2025-11-15 11:55:48.038
44.0, 526.7798683587462, 1091.360775519628, 47.35648318892345, 32.37818386638537, -0.0800000037997961, 0.144000006839633, 1.0400000493973494, 0.0, 0.0, 0.0, 0.0, 0.0, 1.763225748054627E9, 0.0, 2025-11-15 11:55:48.054
44.0, 396.5976908011362, 1004.767131945584, -6.883285868447274, 4.975936891045421, -0.0800000037997961, 0.144000006839633, 1.0400000493973494, 0.0, 0.0, 0.0, 0.0, 0.0, 1.763225748054627E9, 0.0, 2025-11-15 11:55:48.054
45.0, 206.19564415700734, 797.6178132998757, -192.58053836831823, -155.80236220406368, -0.0800000037997961, 0.144000006839633, 1.0400000493973494, 0.0, 0.0, 0.0, 0.0, 0.0, 1.763225748055336E9, 0.0, 2025-11-15 11:55:48.055
45.0, 394.2265942292288, 958.9271781886928, -67.937152645085, -54.93726039910689, -0.0800000037997961, 0.144000006839633, 1.0400000493973494, 0.0, 0.0, 0.0, 0.0, 0.0, 1.763225748055336E9, 0.0, 2025-11-15 11:55:48.055
46.0, 544.8024462452158, 1127.3573125931434, 97.48984209494665, 96.34543270850554, -0.0800000037997961, 0.144000006839633, 1.0400000493973494, 0.0, 0.0, 0.0, 0.0, 0.0, 1.763225748068986E9, 0.0, 2025-11-15 11:55:48.068
46.0, 707.1870323712938, 1301.4664850803092, 314.5667251730338, -144.04411674337462, -0.0800000037997961, 0.144000006839633, 1.0400000493973494, 0.0, 0.0, 0.0, 0.0, 0.0, 1.763225748068986E9, 0.0, 2025-11-15 11:55:48.068
47.0, 770.092149625998, 1341.4759348062798, 337.59328920021653, -125.08656386798248, -0.0800000037997961, 0.144000006839633, 1.0400000493973494, 0.0, 0.0, 0.0, 0.0, 0.0, 1.7632257480846438E9, 0.0, 2025-11-15 11:55:48.084
47.0, 596.5514419320971, 1162.7442459738813, 111.04697943432257, 74.48571746749803, -0.0800000037997961, 0.144000006839633, 1.0400000493973494, 0.0, 0.0, 0.0, 0.0, 0.0, 1.7632257480846438E9, 0.0, 2025-11-15 11:55:48.084
48.0, 770.0136117269285, 1365.7254461189732, -117.43846845859662, -86.21778362849727, -0.0800000037997961, 0.144000006839633, 1.0400000493973494, 0.0, 0.0, 0.0, 0.0, 0.0, 1.7632257480853305E9, 0.0, 2025-11-15 11:55:48.085
48.0, 723.2648622808047, 1301.698358877562, -185.31765265436843, -147.11083470704034, -0.0800000037997961, 0.144000006839633, 1.0400000493973494, 0.0, 0.0, 0.0, 0.0, 0.0, 1.7632257480853305E9, 0.0, 2025-11-15 11:55:48.085
49.0, 521.2709957240149, 1075.7878321041353, 37.12037701020017, 23.320146173704416, -0.0800000037997961, 0.144000006839633, 1.0400000493973494, 0.0, 0.0, 0.0, 0.0, 0.0, 1.763225748099027E9, 0.0, 2025-11-15 11:55:48.099
49.0, 412.7914576092735, 995.926008450333, -8.63355904771015, 4.530888796318322, -0.0800000037997961, 0.144000006839633, 1.0400000493973494, 0.0, 0.0, 0.0, 0.0, 0.0, 1.763225748099027E9, 0.0, 2025-11-15 11:55:48.099
50.0, 212.64323168061674, 798.3396139913239, -192.37484387075529, -155.4956904076971, -0.0800000037997961, 0.144000006839633, 1.0400000493973494, 0.0, 0.0, 0.0, 0.0, 0.0, 1.7632257481146536E9, 0.0, 2025-11-15 11:55:48.114
50.0, 394.8474176218733, 963.3066010368057, -62.70129270711914, -54.282777906861156, -0.0800000037997961, 0.144000006839633, 1.0400000493973494, 0.0, 0.0, 0.0, 0.0, 0.0, 1.7632257481146536E9, 0.0, 2025-11-15 11:55:48.114
51.0, 551.2537736687809, 1127.5854464904405, 96.9886955008842, 84.38149275025353, -0.0800000037997961, 0.144000006839633, 1.0400000493973494, 0.0, 0.0, 0.0, 0.0, 0.0, 1.76322574811535E9, 0.0, 2025-11-15 11:55:48.115
51.0, 707.9537118622102, 1301.1037147846073, 310.57251202035695, -136.5680567319505, -0.0800000037997961, 0.144000006839633, 1.0400000493973494, 0.0, 0.0, 0.0, 0.0, 0.0, 1.76322574811535E9, 0.0, 2025-11-15 11:55:48.115
52.0, 763.9587136986665, 1340.14827032201, 327.66011491790414, -128.7815850242041, -0.0800000037997961, 0.144000006839633, 1.0400000493973494, 0.0, 0.0, 0.0, 0.0, 0.0, 1.7632257481289356E9, 0.0, 2025-11-15 11:55:48.128
52.0, 605.6618382241577, 1168.2269393089227, 120.01151962811127, 99.52060777088627, -0.0800000037997961, 0.144000006839633, 1.0400000493973494, 0.0, 0.0, 0.0, 0.0, 0.0, 1.7632257481289356E9, 0.0, 2025-11-15 11:55:48.128
53.0, 773.0803296905942, 1368.3246765881777, -110.31395904300734, -86.60673322388902, -0.0800000037997961, 0.144000006839633, 1.0400000493973494, 0.0, 0.0, 0.0, 0.0, 0.0, 1.7632257481446106E9, 0.0, 2025-11-15 11:55:48.144
53.0, 717.2997218514793, 1298.0407367208973, -188.60502471541986, -150.76471696374938, -0.0800000037997961, 0.144000006839633, 1.0400000493973494, 0.0, 0.0, 0.0, 0.0, 0.0, 1.7632257481446106E9, 0.0, 2025-11-15 11:55:48.144
54.0, 522.0488949147984, 1081.375242637936, 37.19143510935828, 21.659630593378097, -0.0800000037997961, 0.144000006839633, 1.0400000493973494, 0.0, 0.0, 0.0, 0.0, 0.0, 1.7632257481453383E9, 0.0, 2025-11-15 11:55:48.145
54.0, 414.62400858756155, 998.7945117163472, -9.003809143323451, -10.23423622874543, -0.0800000037997961, 0.144000006839633, 1.0400000493973494, 0.0, 0.0, 0.0, 0.0, 0.0, 1.7632257481453383E9, 0.0, 2025-11-15 11:55:48.145
55.0, 202.79233519732952, 792.030402766075, -195.51261993357912, -150.80585586326197, -0.0800000037997961, 0.144000006839633, 1.0400000493973494, 0.0, 0.0, 0.0, 0.0, 0.0, 1.7632257481589515E9, 0.0, 2025-11-15 11:55:48.158
55.0, 385.6210844311863, 954.8432074370794, -76.38184674503282, -63.66618689568713, -0.0800000037997961, 0.144000006839633, 1.0400000493973494, 0.0, 0.0, 0.0, 0.0, 0.0, 1.7632257481589515E9, 0.0, 2025-11-15 11:55:48.158
56.0, 561.6693950453773, 1138.457335661631, 105.65404369821772, 84.725563546177, -0.0800000037997961, 0.144000006839633, 1.0400000493973494, 0.0, 0.0, 0.0, 0.0, 0.0, 1.7632257481746275E9, 0.0, 2025-11-15 11:55:48.174
56.0, 703.2115187183954, 1299.888247299008, 315.34836426377296, -141.4598458739929, -0.0800000037997961, 0.144000006839633, 1.0400000493973494, 0.0, 0.0, 0.0, 0.0, 0.0, 1.7632257481746275E9, 0.0, 2025-11-15 11:55:48.174
57.0, 763.1097564087249, 1343.7759732790291, 337.1706805052236, -125.9691802575253, -0.0800000037997961, 0.144000006839633, 1.0400000493973494, 0.0, 0.0, 0.0, 0.0, 0.0, 1.7632257481753368E9, 0.0, 2025-11-15 11:55:48.175
57.0, 606.9595835087821, 1170.2838842845522, 122.86132339434698, 101.20730265090242, -0.0800000037997961, 0.144000006839633, 1.0400000493973494, 0.0, 0.0, 0.0, 0.0, 0.0, 1.7632257481753368E9, 0.0, 2025-11-15 11:55:48.175
58.0, 774.0751430788077, 1367.513118297793, -107.07894558133557, -82.3544669742696, -0.0800000037997961, 0.144000006839633, 1.0400000493973494, 0.0, 0.0, 0.0, 0.0, 0.0, 1.7632257481889536E9, 0.0, 2025-11-15 11:55:48.188
58.0, 712.2583367112093, 1292.8011368829757, -190.01496699871495, -156.71115789329633, -0.0800000037997961, 0.144000006839633, 1.0400000493973494, 0.0, 0.0, 0.0, 0.0, 0.0, 1.7632257481889536E9, 0.0, 2025-11-15 11:55:48.188
59.0, 519.9695105394349, 1081.7941114329733, 44.233666725922376, 32.46794146532193, -0.0800000037997961, 0.144000006839633, 1.0400000493973494, 0.0, 0.0, 0.0, 0.0, 0.0, 1.7632257482046168E9, 0.0, 2025-11-15 11:55:48.204
59.0, 422.4964979942888, 1010.7509718746878, 8.394205450545996, 11.027095019351691, -0.0800000037997961, 0.144000006839633, 1.0400000493973494, 0.0, 0.0, 0.0, 0.0, 0.0, 1.7632257482046168E9, 0.0, 2025-11-15 11:55:48.204
60.0, 214.38228516001254, 798.7809221860953, -189.4091032058932, -152.55612904252484, -0.0800000037997961, 0.144000006839633, 1.0240000486373901, 0.0, 0.0, 0.0, 0.0, 0.0, 1.7632257482053251E9, 0.0, 2025-11-15 11:55:48.205
60.0, 383.0405534617603, 945.6804525456391, -74.54181596683338, -75.55906875478104, -0.0800000037997961, 0.144000006839633, 1.0240000486373901, 0.0, 0.0, 0.0, 0.0, 0.0, 1.7632257482053251E9, 0.0, 2025-11-15 11:55:48.205
61.0, 558.9542276775464, 1133.9208370153792, 107.62123107491061, 91.93983056070283, -0.0800000037997961, 0.144000006839633, 1.0240000486373901, 0.0, 0.0, 0.0, 0.0, 0.0, 1.7632257482190037E9, 0.0, 2025-11-15 11:55:48.219
61.0, 703.2264783182181, 1303.6356270546094, 319.4510345151648, -132.45790668064728, -0.0800000037997961, 0.144000006839633, 1.0240000486373901, 0.0, 0.0, 0.0, 0.0, 0.0, 1.7632257482190037E9, 0.0, 2025-11-15 11:55:48.219
62.0, 769.6321419314481, 1345.4402287593111, 348.2033853745088, -108.01018067030236, -0.0800000037997961, 0.144000006839633, 1.0240000486373901, 0.0, 0.0, 0.0, 0.0, 0.0, 1.7632257482346487E9, 0.0, 2025-11-15 11:55:48.234
62.0, 605.4262245269492, 1173.4440997471102, 125.7447862601839, 89.45653699012473, -0.0800000037997961, 0.144000006839633, 1.0240000486373901, 0.0, 0.0, 0.0, 0.0, 0.0, 1.7632257482346487E9, 0.0, 2025-11-15 11:55:48.234
63.0, 775.4402065626346, 1381.2722102347761, -98.44351658364758, -77.05128883710131, -0.0800000037997961, 0.144000006839633, 1.0240000486373901, 0.0, 0.0, 0.0, 0.0, 0.0, 1.763225748235324E9, 0.0, 2025-11-15 11:55:48.235
63.0, 714.8538272804581, 1304.533203043975, -178.96730252960697, -130.28502480639145, -0.0800000037997961, 0.144000006839633, 1.0240000486373901, 0.0, 0.0, 0.0, 0.0, 0.0, 1.763225748235324E9, 0.0, 2025-11-15 11:55:48.235
64.0, 530.5309880143031, 1088.7353657507338, 49.043178068939596, 32.40062326611951, -0.0800000037997961, 0.144000006839633, 1.0240000486373901, 0.0, 0.0, 0.0, 0.0, 0.0, 1.7632257482489598E9, 0.0, 2025-11-15 11:55:48.248
64.0, 428.8767673186958, 1018.2083323863335, 8.62607924779877, 6.6626317710615695, -0.0800000037997961, 0.144000006839633, 1.0240000486373901, 0.0, 0.0, 0.0, 0.0, 0.0, 1.7632257482489598E9, 0.0, 2025-11-15 11:55:48.248
65.0, 202.59412049967796, 796.8847929085605, -188.15997662069276, -155.9033395028673, -0.0800000037997961, 0.144000006839633, 1.0240000486373901, 0.0, 0.0, 0.0, 0.0, 0.0, 1.7632257482646627E9, 0.0, 2025-11-15 11:55:48.264
65.0, 377.42696362826973, 942.5875552822836, -80.91834539128467, -69.0516428318806, -0.0800000037997961, 0.144000006839633, 1.0240000486373901, 0.0, 0.0, 0.0, 0.0, 0.0, 1.7632257482646627E9, 0.0, 2025-11-15 11:55:48.264
66.0, 564.2312265150249, 1141.7895865221508, 111.48828762909397, 95.64981131674722, -0.0800000037997961, 0.144000006839633, 1.0240000486373901, 0.0, 0.0, 0.0, 0.0, 0.0, 1.7632257482653675E9, 0.0, 2025-11-15 11:55:48.265
66.0, 701.9062936338596, 1296.5746959382668, 315.38576326332986, -145.62609442463145, -0.0800000037997961, 0.144000006839633, 1.0240000486373901, 0.0, 0.0, 0.0, 0.0, 0.0, 1.7632257482653675E9, 0.0, 2025-11-15 11:55:48.265
67.0, 763.4987060041167, 1338.1885627452284, 337.1669406052679, -115.1833087853156, -0.0800000037997961, 0.144000006839633, 1.0240000486373901, 0.0, 0.0, 0.0, 0.0, 0.0, 1.763225748278923E9, 0.0, 2025-11-15 11:55:48.278
67.0, 608.5901798894629, 1173.4740189467557, 125.66250846115872, 92.40731805516407, -0.0800000037997961, 0.144000006839633, 1.0240000486373901, 0.0, 0.0, 0.0, 0.0, 0.0, 1.763225748278923E9, 0.0, 2025-11-15 11:55:48.278
68.0, 779.535397014115, 1377.7716638762504, -96.93633690150455, -76.26216994645074, -0.0800000037997961, 0.144000006839633, 1.0240000486373901, 0.0, 0.0, 0.0, 0.0, 0.0, 1.7632257482947423E9, 0.0, 2025-11-15 11:55:48.294
68.0, 722.464523690287, 1305.6589129306376, -173.84737949026749, -139.07378970226273, -0.0800000037997961, 0.144000006839633, 1.0240000486373901, 0.0, 0.0, 0.0, 0.0, 0.0, 1.7632257482947423E9, 0.0, 2025-11-15 11:55:48.294
69.0, 526.2301030652598, 1086.405408078339, 47.79405148373917, 34.78667943784967, -0.0800000037997961, 0.144000006839633, 1.0240000486373901, 0.0, 0.0, 0.0, 0.0, 0.0, 1.7632257482953851E9, 0.0, 2025-11-15 11:55:48.295
69.0, 421.5316038057208, 1012.4264470548369, 11.43848401447758, 20.533920706715435, -0.0800000037997961, 0.144000006839633, 1.0240000486373901, 0.0, 0.0, 0.0, 0.0, 0.0, 1.7632257482953851E9, 0.0, 2025-11-15 11:55:48.295
70.0, 206.26670225616544, 793.4403450493701, -189.9626083993353, -148.15052689472213, -0.0800000037997961, 0.144000006839633, 1.0240000486373901, 0.0, 0.0, 0.0, 0.0, 0.0, 1.7632257483089232E9, 0.0, 2025-11-15 11:55:48.308
70.0, 384.05780624970794, 949.3941732016392, -71.76307029975578, -74.70263166492805, -0.0800000037997961, 0.144000006839633, 1.0240000486373901, 0.0, 0.0, 0.0, 0.0, 0.0, 1.7632257483089232E9, 0.0, 2025-11-15 11:55:48.308
71.0, 570.2562053436413, 1141.1014449303038, 112.86457081278786, 96.955036401283, -0.0800000037997961, 0.144000006839633, 1.0240000486373901, 0.0, 0.0, 0.0, 0.0, 0.0, 1.763225748324657E9, 0.0, 2025-11-15 11:55:48.324
71.0, 710.7137580295093, 1308.344161098823, 330.9325273791328, -123.98703328100964, -0.0800000037997961, 0.144000006839633, 1.0240000486373901, 0.0, 0.0, 0.0, 0.0, 0.0, 1.763225748324657E9, 0.0, 2025-11-15 11:55:48.324
72.0, 766.872095764149, 1348.4845073232427, 348.88778706640005, -106.83211218426004, -0.0800000037997961, 0.144000006839633, 1.0240000486373901, 0.0, 0.0, 0.0, 0.0, 0.0, 1.7632257483253632E9, 0.0, 2025-11-15 11:55:48.325
72.0, 607.9506569970399, 1172.1089554629289, 121.02503251610324, 87.12283941777423, -0.0800000037997961, 0.144000006839633, 1.0240000486373901, 0.0, 0.0, 0.0, 0.0, 0.0, 1.7632257483253632E9, 0.0, 2025-11-15 11:55:48.325
73.0, 776.4911184501834, 1379.5107173556462, -94.6213388289325, -66.65436696028337, -0.0800000037997961, 0.144000006839633, 1.0240000486373901, 0.0, 0.0, 0.0, 0.0, 0.0, 1.7632257483389735E9, 0.0, 2025-11-15 11:55:48.338
73.0, 712.972657602746, 1303.1008213609457, -182.5089877876453, -140.7567446823232, -0.0800000037997961, 0.144000006839633, 1.0240000486373901, 0.0, 0.0, 0.0, 0.0, 0.0, 1.7632257483389735E9, 0.0, 2025-11-15 11:55:48.338
74.0, 521.7272635186091, 1087.3665623669513, 38.87812998937443, 30.0332665941678, -0.0800000037997961, 0.144000006839633, 1.0240000486373901, 0.0, 0.0, 0.0, 0.0, 0.0, 1.7632257483546615E9, 0.0, 2025-11-15 11:55:48.354
74.0, 427.3134891372174, 1022.954265430104, 11.797514410223812, 13.4692496904172, -0.0800000037997961, 0.144000006839633, 1.0240000486373901, 0.0, 0.0, 0.0, 0.0, 0.0, 1.7632257483546615E9, 0.0, 2025-11-15 11:55:48.354
75.0, 214.09431286342442, 809.0993061638437, -180.582939310465, -137.8246631170623, -0.0800000037997961, 0.144000006839633, 1.0240000486373901, 0.0, 0.0, 0.0, 0.0, 0.0, 1.7632257483553681E9, 0.0, 2025-11-15 11:55:48.355
75.0, 372.1088258912787, 938.8813144261949, -80.18158510001376, -77.25698333466426, -0.0800000037997961, 0.144000006839633, 1.0240000486373901, 0.0, 0.0, 0.0, 0.0, 0.0, 1.7632257483553681E9, 0.0, 2025-11-15 11:55:48.355
76.0, 565.2335197031498, 1140.6077781361528, 106.2561675910838, 91.47234306624159, -0.0800000037997961, 0.144000006839633, 1.0240000486373901, 0.0, 0.0, 0.0, 0.0, 0.0, 1.7632257483689425E9, 0.0, 2025-11-15 11:55:48.368
76.0, 708.8251085518859, 1305.7898094290867, 315.58023806102574, -135.9734126389958, -0.0800000037997961, 0.144000006839633, 1.0240000486373901, 0.0, 0.0, 0.0, 0.0, 0.0, 1.7632257483689425E9, 0.0, 2025-11-15 11:55:48.368
77.0, 765.5444312798791, 1339.9874546239153, 337.6493876995519, -119.56273163342848, -0.0800000037997961, 0.144000006839633, 1.0240000486373901, 0.0, 0.0, 0.0, 0.0, 0.0, 1.763225748384682E9, 0.0, 2025-11-15 11:55:48.384
77.0, 606.1629848182201, 1170.4222605829127, 121.8889494058676, 101.77576744416729, -0.0800000037997961, 0.144000006839633, 1.0240000486373901, 0.0, 0.0, 0.0, 0.0, 0.0, 1.763225748384682E9, 0.0, 2025-11-15 11:55:48.384
78.0, 781.0238771964796, 1378.2877700701356, -100.57151965843514, -70.04271632013842, -0.0800000037997961, 0.144000006839633, 1.0240000486373901, 0.0, 0.0, 0.0, 0.0, 0.0, 1.7632257483853781E9, 0.0, 2025-11-15 11:55:48.385
78.0, 714.0235694902949, 1297.9883781215176, -187.30353953083977, -148.8685876862146, -0.0800000037997961, 0.144000006839633, 1.0240000486373901, 0.0, 0.0, 0.0, 0.0, 0.0, 1.7632257483853781E9, 0.0, 2025-11-15 11:55:48.385
79.0, 517.3814997700974, 1074.1422761236317, 36.75386681454256, 20.810673303436488, -0.0800000037997961, 0.144000006839633, 1.0240000486373901, 0.0, 0.0, 0.0, 0.0, 0.0, 1.7632257483989491E9, 0.0, 2025-11-15 11:55:48.398
79.0, 433.3571674656123, 1020.2839768617414, 13.779661386739463, 18.33485953276977, -0.0800000037997961, 0.144000006839633, 1.0240000486373901, 0.0, 0.0, 0.0, 0.0, 0.0, 1.7632257483989491E9, 0.0, 2025-11-15 11:55:48.398
80.0, 209.38577881921083, 799.9253315725364, -191.42116938205436, -157.41799898492172, -0.0800000037997961, 0.144000006839633, 1.0240000486373901, 0.0, 0.0, 0.0, 0.0, 0.0, 1.7632257484147227E9, 0.0, 2025-11-15 11:55:48.414
80.0, 377.93185012228787, 947.913172819186, -75.64134655380622, -58.4527663574554, -0.0800000037997961, 0.144000006839633, 1.0240000486373901, 0.0, 0.0, 0.0, 0.0, 0.0, 1.7632257484147227E9, 0.0, 2025-11-15 11:55:48.414
81.0, 575.0544969867915, 1148.4428685433231, 115.20574818504974, 99.05312027642503, -0.0800000037997961, 0.144000006839633, 1.0240000486373901, 0.0, 0.0, 0.0, 0.0, 0.0, 1.7632257484153764E9, 0.0, 2025-11-15 11:55:48.415
81.0, 708.5633155549876, 1302.3939802693203, 325.7116270409897, -132.09139648498967, -0.0800000037997961, 0.144000006839633, 1.0240000486373901, 0.0, 0.0, 0.0, 0.0, 0.0, 1.7632257484153764E9, 0.0, 2025-11-15 11:55:48.415
82.0, 769.1571746370755, 1342.9157962892205, 340.6712268637493, -115.1496496857144, -0.0800000037997961, 0.144000006839633, 1.0240000486373901, 0.0, 0.0, 0.0, 0.0, 0.0, 1.7632257484290216E9, 0.0, 2025-11-15 11:55:48.429
82.0, 603.7432695468888, 1177.135381003376, 128.53849152708426, 106.66755658620968, -0.0800000037997961, 0.144000006839633, 1.0240000486373901, 0.0, 0.0, 0.0, 0.0, 0.0, 1.7632257484290216E9, 0.0, 2025-11-15 11:55:48.429
83.0, 793.9340118435211, 1388.280782751739, -90.51118877762929, -59.70937274256721, -0.0800000037997961, 0.144000006839633, 1.0240000486373901, 0.0, 0.0, 0.0, 0.0, 0.0, 1.7632257484448211E9, 0.0, 2025-11-15 11:55:48.444
83.0, 709.801222440321, 1294.4429529635236, -188.64990351488814, -154.44103862019256, -0.0800000037997961, 0.144000006839633, 1.0240000486373901, 0.0, 0.0, 0.0, 0.0, 0.0, 1.7632257484448211E9, 0.0, 2025-11-15 11:55:48.444
84.0, 510.3953666528687, 1070.7277474640869, 26.076452441047877, 12.30240090424195, -0.0800000037997961, 0.144000006839633, 1.0240000486373901, 0.0, 0.0, 0.0, 0.0, 0.0, 1.7632257484453936E9, 0.0, 2025-11-15 11:55:48.445
84.0, 445.7960747182369, 1032.7378437141888, 21.319299697410315, 35.54961902881041, -0.0800000037997961, 0.144000006839633, 1.0240000486373901, 0.0, 0.0, 0.0, 0.0, 0.0, 1.7632257484453936E9, 0.0, 2025-11-15 11:55:48.445
85.0, 210.03278151154518, 804.5328883179463, -191.8923967764713, -160.63805284677073, -0.0800000037997961, 0.144000006839633, 1.0240000486373901, 0.0, 0.0, 0.0, 0.0, 0.0, 1.7632257484589303E9, 0.0, 2025-11-15 11:55:48.458
85.0, 378.219822418876, 946.5780285350047, -78.77912261663005, -69.85946122230962, -0.0800000037997961, 0.144000006839633, 1.0240000486373901, 0.0, 0.0, 0.0, 0.0, 0.0, 1.7632257484589303E9, 0.0, 2025-11-15 11:55:48.458
86.0, 566.9763130825013, 1147.5340728540905, 110.13444384513423, 96.03876091213897, -0.0800000037997961, 0.144000006839633, 1.0240000486373901, 0.0, 0.0, 0.0, 0.0, 0.0, 1.763225748474681E9, 0.0, 2025-11-15 11:55:48.474
86.0, 708.4847776559182, 1309.1893784888089, 322.4167751800269, -131.33219679398462, -0.0800000037997961, 0.144000006839633, 1.0240000486373901, 0.0, 0.0, 0.0, 0.0, 0.0, 1.763225748474681E9, 0.0, 2025-11-15 11:55:48.474
87.0, 760.7648391365074, 1341.3487782077864, 331.074643577449, -129.57070391485468, -0.0800000037997961, 0.144000006839633, 1.0240000486373901, 0.0, 0.0, 0.0, 0.0, 0.0, 1.7632257484753747E9, 0.0, 2025-11-15 11:55:48.475
87.0, 607.3186139045283, 1174.0911024394445, 123.00717949261889, 89.875405785162, -0.0800000037997961, 0.144000006839633, 1.0240000486373901, 0.0, 0.0, 0.0, 0.0, 0.0, 1.7632257484753747E9, 0.0, 2025-11-15 11:55:48.475
88.0, 786.181199235376, 1386.556688872166, -91.37136576743796, -70.36434771632776, -0.0800000037997961, 0.144000006839633, 1.0240000486373901, 0.0, 0.0, 0.0, 0.0, 0.0, 1.7632257484889884E9, 0.0, 2025-11-15 11:55:48.488
88.0, 711.7197911175899, 1298.2052923189476, -186.67897623823956, -148.85736798634753, -0.0800000037997961, 0.144000006839633, 1.0240000486373901, 0.0, 0.0, 0.0, 0.0, 0.0, 1.7632257484889884E9, 0.0, 2025-11-15 11:55:48.488
89.0, 519.6890180427581, 1076.4572741962038, 31.59280487569049, 12.848426297772676, -0.0800000037997961, 0.144000006839633, 1.0240000486373901, 0.0, 0.0, 0.0, 0.0, 0.0, 1.7632257485046785E9, 0.0, 2025-11-15 11:55:48.504
89.0, 443.3651397470385, 1028.115327368956, 19.999115013051778, 26.888010731432587, -0.0800000037997961, 0.144000006839633, 1.0240000486373901, 0.0, 0.0, 0.0, 0.0, 0.0, 1.7632257485046785E9, 0.0, 2025-11-15 11:55:48.504
90.0, 208.89211202505976, 795.515989524778, -194.00544025143608, -160.33138105040416, -0.0800000037997961, 0.144000006839633, 1.0240000486373901, 0.0, 0.0, 0.0, 0.0, 0.0, 1.7632257485053737E9, 0.0, 2025-11-15 11:55:48.505
90.0, 376.46206943970174, 944.4126264606602, -79.58320110710338, -61.957052615936846, -0.0800000037997961, 0.144000006839633, 1.0240000486373901, 0.0, 0.0, 0.0, 0.0, 0.0, 1.7632257485053737E9, 0.0, 2025-11-15 11:55:48.505
91.0, 568.4647932648659, 1147.5378127540462, 114.85419758921489, 101.73836844461039, -0.0800000037997961, 0.144000006839633, 1.0240000486373901, 0.0, 0.0, 0.0, 0.0, 0.0, 1.763225748518992E9, 0.0, 2025-11-15 11:55:48.518
91.0, 708.5146968555637, 1306.8145420169458, 320.53560550231487, -129.6006231145002, -0.0800000037997961, 0.144000006839633, 1.0240000486373901, 0.0, 0.0, 0.0, 0.0, 0.0, 1.763225748518992E9, 0.0, 2025-11-15 11:55:48.518
92.0, 766.6103027672507, 1335.7501479741186, 327.87328921537846, -141.54960347292945, -0.0800000037997961, 0.144000006839633, 1.0240000486373901, 0.0, 0.0, 0.0, 0.0, 0.0, 1.7632257485346918E9, 0.0, 2025-11-15 11:55:48.534
92.0, 610.6059859655797, 1164.991925847251, 111.08811833383515, 92.18666395777836, -0.0800000037997961, 0.144000006839633, 1.0240000486373901, 0.0, 0.0, 0.0, 0.0, 0.0, 1.7632257485346918E9, 0.0, 2025-11-15 11:55:48.534
93.0, 791.0281095779501, 1378.8038762640208, -106.01307409396395, -78.65944581804797, -0.0800000037997961, 0.144000006839633, 1.0240000486373901, 0.0, 0.0, 0.0, 0.0, 0.0, 1.763225748535378E9, 0.0, 2025-11-15 11:55:48.535
93.0, 714.4947968847118, 1295.6845997488126, -189.19592890841886, -153.32280853344128, -0.0800000037997961, 0.144000006839633, 1.0240000486373901, 0.0, 0.0, 0.0, 0.0, 0.0, 1.763225748535378E9, 0.0, 2025-11-15 11:55:48.535
94.0, 509.78576296009123, 1070.4622145672329, 28.885117307770997, 16.7678414513357, -0.0800000037997961, 0.144000006839633, 1.0240000486373901, 0.0, 0.0, 0.0, 0.0, 0.0, 1.7632257485490298E9, 0.0, 2025-11-15 11:55:48.549
94.0, 437.38129981793463, 1032.7939422135241, 23.806333167944103, 32.542739464435726, -0.0800000037997961, 0.144000006839633, 1.0240000486373901, 0.0, 0.0, 0.0, 0.0, 0.0, 1.7632257485490298E9, 0.0, 2025-11-15 11:55:48.549
95.0, 204.85675997287035, 793.5301026483066, -194.98529403982684, -166.19554418092594, -0.0800000037997961, 0.144000006839633, 1.0240000486373901, 0.0, 0.0, 0.0, 0.0, 0.0, 1.763225748564675E9, 0.0, 2025-11-15 11:55:48.564
95.0, 376.1142587438226, 945.8300485438667, -76.36688714521006, -66.68802605988458, -0.0800000037997961, 0.144000006839633, 1.0240000486373901, 0.0, 0.0, 0.0, 0.0, 0.0, 1.763225748564675E9, 0.0, 2025-11-15 11:55:48.564
96.0, 574.699206491001, 1146.550479165744, 109.93248924752697, 93.49936884222552, -0.0800000037997961, 0.144000006839633, 1.0240000486373901, 0.0, 0.0, 0.0, 0.0, 0.0, 1.7632257485653644E9, 0.0, 2025-11-15 11:55:48.565
96.0, 711.1737657240592, 1309.7765427818522, 321.7136739883572, -132.4504268807359, -0.0800000037997961, 0.144000006839633, 1.0240000486373901, 0.0, 0.0, 0.0, 0.0, 0.0, 1.7632257485653644E9, 0.0, 2025-11-15 11:55:48.565
97.0, 765.6304489788599, 1334.3776046903804, 332.4509267611429, -132.90669467533007, -0.0800000037997961, 0.144000006839633, 1.0240000486373901, 0.0, 0.0, 0.0, 0.0, 0.0, 1.7632257485790005E9, 0.0, 2025-11-15 11:55:48.579
97.0, 602.5427616611123, 1169.2217526971363, 116.84756426559761, 89.74450928671286, -0.0800000037997961, 0.144000006839633, 1.0240000486373901, 0.0, 0.0, 0.0, 0.0, 0.0, 1.7632257485790005E9, 0.0, 2025-11-15 11:55:48.579
98.0, 786.3794139330275, 1377.2742571821436, -98.06952658807859, -75.80216225190088, -0.0800000037997961, 0.144000006839633, 1.0240000486373901, 0.0, 0.0, 0.0, 0.0, 0.0, 1.7632257485947027E9, 0.0, 2025-11-15 11:55:48.594
98.0, 701.8913340340368, 1288.9639995284379, -191.46978808147833, -157.6872717817314, -0.0800000037997961, 0.144000006839633, 1.0240000486373901, 0.0, 0.0, 0.0, 0.0, 0.0, 1.7632257485947027E9, 0.0, 2025-11-15 11:55:48.594
99.0, 515.9790372867137, 1071.894596250262, 33.64227005140856, 37.23257400887087, -0.0800000037997961, 0.144000006839633, 1.0240000486373901, 0.0, 0.0, 0.0, 0.0, 0.0, 1.7632257485953684E9, 0.0, 2025-11-15 11:55:48.595
99.0, 444.8760593291372, 1032.3414143188857, 21.674590193200856, 31.312312379013747, -0.0800000037997961, 0.144000006839633, 1.0240000486373901, 0.0, 0.0, 0.0, 0.0, 0.0, 1.7632257485953684E9, 0.0, 2025-11-15 11:55:48.595
100.0, 212.34029978420585, 794.6258933353238, -195.49766033375636, -164.40039220219478, -0.0800000037997961, 0.144000006839633, 1.0240000486373901, 0.0, 0.0, 0.0, 0.0, 0.0, 1.763225748609637E9, 0.0, 2025-11-15 11:55:48.609
100.0, 370.96815640479326, 934.9207603731193, -87.04430151870474, -77.19340503541753, -0.0800000037997961, 0.144000006839633, 1.0240000486373901, 0.0, 0.0, 0.0, 0.0, 0.0, 1.763225748609637E9, 0.0, 2025-11-15 11:55:48.609
0.0, 96.25567510956898, 172.32898010825738, 119.39443613542244, 105.11175820464268, -0.0800000037997961, 0.144000006839633, 1.0240000486373901, 0.0, 0.0, 0.0, 0.0, 0.0, 1.763225748610366E9, 0.0, 2025-11-15 11:55:48.610
1.0, 221.3684182772413, 326.7139202291146, 322.9964596731588, -127.64091553771868, -0.0800000037997961, 0.12800000607967377, 1.0240000486373901, 0.0, 0.0, 0.0, 0.0, 0.0, 1.7632257486239674E9, 0.0, 2025-11-15 11:55:48.623
1.0, 263.25903768092394, 355.15585939213634, 328.61752930656075, -133.55369736766443, -0.0800000037997961, 0.12800000607967377, 1.0240000486373901, 0.0, 0.0, 0.0, 0.0, 0.0, 1.7632257486239674E9, 0.0, 2025-11-15 11:55:48.623
2.0, 122.23676010174677, 183.72445527324453, 117.19537496147677, 89.53881478914991, -0.09600000455975533, 0.12800000607967377, 1.0240000486373901, 0.0, 0.0, 0.0, 0.0, 0.0, 1.763225748639649E9, 0.0, 2025-11-15 11:55:48.639
2.0, 305.3366520823911, 409.55270424764603, -84.89011914422736, -53.85642931191251, -0.09600000455975533, 0.12800000607967377, 1.0240000486373901, 0.0, 0.0, 0.0, 0.0, 0.0, 1.763225748639649E9, 0.0, 2025-11-15 11:55:48.639
3.0, 222.07899926882237, 315.5914577608928, -184.92870305897668, -151.14618675922975, -0.09600000455975533, 0.12800000607967377, 1.0240000486373901, 0.0, 0.0, 0.0, 0.0, 0.0, 1.7632257486403542E9, 0.0, 2025-11-15 11:55:48.640
3.0, 23.810073067899793, 91.67803756380454, 32.13509036926553, 14.942770272959024, -0.09600000455975533, 0.12800000607967377, 1.0240000486373901, 0.0, 0.0, 0.0, 0.0, 0.0, 1.7632257486403542E9, 0.0, 2025-11-15 11:55:48.640
4.0, -44.43188142357394, 46.84785679494962, 22.983555177692324, 31.099138081539422, -0.09600000455975533, 0.12800000607967377, 1.0240000486373901, 0.0, 0.0, 0.0, 0.0, 0.0, 1.7632257486539676E9, 0.0, 2025-11-15 11:55:48.653
4.0, -281.3321042167954, -185.0708192572929, -187.06418593367562, -151.5388762545772, -0.09600000455975533, 0.12800000607967377, 1.0240000486373901, 0.0, 0.0, 0.0, 0.0, 0.0, 1.7632257486539676E9, 0.0, 2025-11-15 11:55:48.653
5.0, -114.30817219568416, -43.36227003624663, -81.43819148512557, -64.21221228921786, -0.09600000455975533, 0.12800000607967377, 1.0240000486373901, 0.0, 0.0, 0.0, 0.0, 0.0, 1.7632257486696453E9, 0.0, 2025-11-15 11:55:48.669
5.0, 82.47414377285168, 163.0989070176147, 112.96554811159149, 94.41938423132524, -0.09600000455975533, 0.12800000607967377, 1.0240000486373901, 0.0, 0.0, 0.0, 0.0, 0.0, 1.7632257486696453E9, 0.0, 2025-11-15 11:55:48.669
6.0, 228.994074286893, 334.7547051338479, 330.09852968901396, -123.7813387834467, -0.09600000455975533, 0.12800000607967377, 1.0240000486373901, 0.0, 0.0, 0.0, 0.0, 0.0, 1.7632257486703537E9, 0.0, 2025-11-15 11:55:48.670
6.0, 266.6025082413107, 353.977790906094, 340.5365904653445, -111.4808078291826, -0.09600000455975533, 0.12800000607967377, 1.0240000486373901, 0.0, 0.0, 0.0, 0.0, 0.0, 1.7632257486703537E9, 0.0, 2025-11-15 11:55:48.670
7.0, 121.85155040631071, 191.5932047800161, 122.97726029297337, 89.3181606917642, -0.09600000455975533, 0.12800000607967377, 1.0240000486373901, 0.0, 0.0, 0.0, 0.0, 0.0, 1.7632257486839747E9, 0.0, 2025-11-15 11:55:48.683
7.0, 314.600384272635, 416.5986757641658, -81.86827998002991, -61.534443920943886, -0.09600000455975533, 0.12800000607967377, 1.0240000486373901, 0.0, 0.0, 0.0, 0.0, 0.0, 1.7632257486839747E9, 0.0, 2025-11-15 11:55:48.683
8.0, 227.61779110319912, 318.6020772252232, -181.12148490408435, -146.80042301071808, -0.09600000455975533, 0.12800000607967377, 1.0240000486373901, 0.0, 0.0, 0.0, 0.0, 0.0, 1.7632257486996937E9, 0.0, 2025-11-15 11:55:48.699
8.0, 21.13230469962582, 89.19100409327075, 34.9250557362102, 22.104678688105196, -0.09600000455975533, 0.12800000607967377, 1.0240000486373901, 0.0, 0.0, 0.0, 0.0, 0.0, 1.7632257486996937E9, 0.0, 2025-11-15 11:55:48.699
9.0, -44.81335121905431, 57.42429386964068, 31.372150778304785, 36.45467481808737, -0.09600000455975533, 0.12800000607967377, 1.0240000486373901, 0.0, 0.0, 0.0, 0.0, 0.0, 1.763225748700359E9, 0.0, 2025-11-15 11:55:48.700
9.0, -281.36202341644093, -185.75522094918415, -193.7399073545821, -157.00660998979583, -0.09600000455975533, 0.12800000607967377, 1.0240000486373901, 0.0, 0.0, 0.0, 0.0, 0.0, 1.763225748700359E9, 0.0, 2025-11-15 11:55:48.700
10.0, -119.91054232930765, -43.26877253735438, -86.13924572942778, -73.51708337897435, -0.09600000455975533, 0.12800000607967377, 1.0400000493973494, 0.0, 0.0, 0.0, 0.0, 0.0, 1.7632257487139816E9, 0.0, 2025-11-15 11:55:48.713
10.0, 89.3592995912768, 178.39135793643072, 125.17258156696334, 108.96759505895898, -0.09600000455975533, 0.12800000607967377, 1.0400000493973494, 0.0, 0.0, 0.0, 0.0, 0.0, 1.7632257487139816E9, 0.0, 2025-11-15 11:55:48.713
11.0, 228.63878379110247, 333.51679824851453, 327.1963673233986, -128.119622732047, -0.09600000455975533, 0.144000006839633, 1.0400000493973494, 0.0, 0.0, 0.0, 0.0, 0.0, 1.7632257487296607E9, 0.0, 2025-11-15 11:55:48.729
11.0, 267.40658673178405, 360.04764853417873, 342.4140202431008, -125.94300095783547, -0.09600000455975533, 0.144000006839633, 1.0400000493973494, 0.0, 0.0, 0.0, 0.0, 0.0, 1.7632257487296607E9, 0.0, 2025-11-15 11:55:48.729
12.0, 124.42460157582536, 197.32647141208872, 127.2295265425928, 98.92970357788727, -0.09600000455975533, 0.144000006839633, 1.0400000493973494, 0.0, 0.0, 0.0, 0.0, 0.0, 1.7632257487303545E9, 0.0, 2025-11-15 11:55:48.730
12.0, 313.05206569097936, 426.5281101465225, -71.54241620237008, -45.95402070553973, -0.09600000455975533, 0.144000006839633, 1.0400000493973494, 0.0, 0.0, 0.0, 0.0, 0.0, 1.7632257487303545E9, 0.0, 2025-11-15 11:55:48.730
13.0, 225.11953793279827, 320.7899186993018, -176.61116555752233, -150.87691396242008, -0.09600000455975533, 0.144000006839633, 1.0400000493973494, 0.0, 0.0, 0.0, 0.0, 0.0, 1.7632257487439675E9, 0.0, 2025-11-15 11:55:48.743
13.0, 10.813920721877366, 80.44711799686775, 30.01082719443366, 20.825632903259248, -0.09600000455975533, 0.144000006839633, 1.0400000493973494, 0.0, 0.0, 0.0, 0.0, 0.0, 1.7632257487439675E9, 0.0, 2025-11-15 11:55:48.743
14.0, -38.676175391767174, 59.986125339288265, 32.37818386638537, 40.617183468770236, -0.09600000455975533, 0.144000006839633, 1.0400000493973494, 0.0, 0.0, 0.0, 0.0, 0.0, 1.7632257487596672E9, 0.0, 2025-11-15 11:55:48.759
14.0, -280.39338932791725, -182.09385889256373, -189.64845680305734, -160.14812595257536, -0.09600000455975533, 0.144000006839633, 1.0400000493973494, 0.0, 0.0, 0.0, 0.0, 0.0, 1.7632257487596672E9, 0.0, 2025-11-15 11:55:48.759
15.0, -122.59205059753731, -43.69138123234734, -87.728703210596, -69.66872632456943, -0.09600000455975533, 0.144000006839633, 1.0400000493973494, 0.0, 0.0, 0.0, 0.0, 0.0, 1.763225748760355E9, 0.0, 2025-11-15 11:55:48.760
15.0, 93.36847234377638, 175.60139256948605, 120.05265852762386, 104.52459391159937, -0.09600000455975533, 0.144000006839633, 1.0400000493973494, 0.0, 0.0, 0.0, 0.0, 0.0, 1.763225748760355E9, 0.0, 2025-11-15 11:55:48.760
16.0, 230.3740973705426, 337.8176831975579, 336.1272484175861, -119.24858003715053, -0.09600000455975533, 0.144000006839633, 1.0400000493973494, 0.0, 0.0, 0.0, 0.0, 0.0, 1.7632257487739975E9, 0.0, 2025-11-15 11:55:48.773
16.0, 266.51275064237416, 359.49040344078094, 335.8205766212195, -120.3368909242563, -0.09600000455975533, 0.144000006839633, 1.0400000493973494, 0.0, 0.0, 0.0, 0.0, 0.0, 1.7632257487739975E9, 0.0, 2025-11-15 11:55:48.773
17.0, 112.8496112129651, 185.6991224498488, 121.1110502150841, 90.63086557621136, -0.09600000455975533, 0.144000006839633, 1.0400000493973494, 0.0, 0.0, 0.0, 0.0, 0.0, 1.7632257487896392E9, 0.0, 2025-11-15 11:55:48.789
17.0, 307.580592055805, 413.55439720023423, -80.71639079367742, -65.63711417233571, -0.09600000455975533, 0.144000006839633, 1.0400000493973494, 0.0, 0.0, 0.0, 0.0, 0.0, 1.7632257487896392E9, 0.0, 2025-11-15 11:55:48.789
18.0, 214.74131555575877, 310.9652015157044, -188.04777962202206, -149.87836067425087, -0.09600000455975533, 0.144000006839633, 1.0400000493973494, 0.0, 0.0, 0.0, 0.0, 0.0, 1.763225748790347E9, 0.0, 2025-11-15 11:55:48.790
18.0, 20.148711011279374, 82.26844927528873, 24.38601766107604, 12.631512100342661, -0.09600000455975533, 0.144000006839633, 1.0400000493973494, 0.0, 0.0, 0.0, 0.0, 0.0, 1.763225748790347E9, 0.0, 2025-11-15 11:55:48.790
19.0, -40.261892972979695, 52.99999222205952, 24.520654059480876, 30.089365093503147, -0.09600000455975533, 0.144000006839633, 1.0400000493973494, 0.0, 0.0, 0.0, 0.0, 0.0, 1.763225748803965E9, 0.0, 2025-11-15 11:55:48.803
19.0, -276.971380868461, -183.49632137594745, -189.7344745020382, -147.88873389782384, -0.09600000455975533, 0.144000006839633, 1.0400000493973494, 0.0, 0.0, 0.0, 0.0, 0.0, 1.763225748803965E9, 0.0, 2025-11-15 11:55:48.803
20.0, -127.0799305443652, -50.50921885157004, -92.95708334865049, -79.60564050683752, -0.09600000455975533, 0.144000006839633, 1.0400000493973494, 0.0, 0.0, 0.0, 0.0, 0.0, 1.7632257488360057E9, 0.0, 2025-11-15 11:55:48.836
20.0, 90.23069628095254, 175.59391276957467, 119.24858003715053, 97.98350888909772, -0.09600000455975533, 0.144000006839633, 1.0400000493973494, 0.0, 0.0, 0.0, 0.0, 0.0, 1.7632257488360057E9, 0.0, 2025-11-15 11:55:48.836
21.0, 228.23487459588796, 332.4920656606555, 331.83758316840976, -123.82995748287067, -0.09600000455975533, 0.12800000607967377, 1.0400000493973494, 0.0, 0.0, 0.0, 0.0, 0.0, 1.7632257488367248E9, 0.0, 2025-11-15 11:55:48.836
21.0, 259.65377412363887, 349.1607997631654, 333.95062664337456, -124.98932646913454, -0.09600000455975533, 0.12800000607967377, 1.0400000493973494, 0.0, 0.0, 0.0, 0.0, 0.0, 1.7632257488367248E9, 0.0, 2025-11-15 11:55:48.836
22.0, 108.89279705984518, 186.5518196397461, 119.22614063741639, 97.2504884977825, -0.0800000037997961, 0.12800000607967377, 1.0400000493973494, 0.0, 0.0, 0.0, 0.0, 0.0, 1.763225748837489E9, 0.0, 2025-11-15 11:55:48.837
22.0, 310.10128462594, 415.1962132807821, -86.51323572499678, -65.4949979740195, -0.0800000037997961, 0.12800000607967377, 1.0400000493973494, 0.0, 0.0, 0.0, 0.0, 0.0, 1.763225748837489E9, 0.0, 2025-11-15 11:55:48.837
23.0, 226.53322011604905, 319.8212846107781, -186.22644834360108, -137.39831452211365, -0.0800000037997961, 0.12800000607967377, 1.0400000493973494, 0.0, 0.0, 0.0, 0.0, 0.0, 1.7632257488382318E9, 0.0, 2025-11-15 11:55:48.838
23.0, 5.585540583822876, 563.1990141272545, 8.22217005258426, 0.3571604457683861, -0.0800000037997961, 0.12800000607967377, 1.0400000493973494, 0.0, 0.0, 0.0, 0.0, 0.0, 1.7632257488382318E9, 0.0, 2025-11-15 11:55:48.838
24.0, -28.099738317076117, 551.1378367701545, 29.61439779913053, 34.33789144316688, -0.0800000037997961, 0.12800000607967377, 1.0400000493973494, 0.0, 0.0, 0.0, 0.0, 0.0, 1.7632257488490088E9, 0.0, 2025-11-15 11:55:48.849
24.0, 207.56818744074553, 793.6759587465785, -191.23417438426986, -149.17899938253686, -0.0800000037997961, 0.12800000607967377, 1.0400000493973494, 0.0, 0.0, 0.0, 0.0, 0.0, 1.7632257488490088E9, 0.0, 2025-11-15 11:55:48.849
25.0, 353.44672511238605, 917.9603140740655, -99.28499407367781, -77.36544043337926, -0.0800000037997961, 0.12800000607967377, 1.0400000493973494, 0.0, 0.0, 0.0, 0.0, 0.0, 1.763225748863959E9, 0.0, 2025-11-15 11:55:48.863
25.0, 591.3155819941312, 1158.7724722209387, 118.50807984592393, 105.48948810016736, -0.0800000037997961, 0.12800000607967377, 1.0400000493973494, 0.0, 0.0, 0.0, 0.0, 0.0, 1.763225748863959E9, 0.0, 2025-11-15 11:55:48.863
26.0, 730.0640004002489, 1321.8115408392623, 332.39108836185187, -129.23411291884258, -0.0800000037997961, 0.12800000607967377, 1.0400000493973494, 0.0, 0.0, 0.0, 0.0, 0.0, 1.76322574887969E9, 0.0, 2025-11-15 11:55:48.879
26.0, 742.4879480530508, 1320.1697247587144, 320.8497570985928, -137.62644841941074, -0.0800000037997961, 0.12800000607967377, 1.0400000493973494, 0.0, 0.0, 0.0, 0.0, 0.0, 1.76322574887969E9, 0.0, 2025-11-15 11:55:48.879
27.0, 604.6632849359885, 1164.8647692487575, 117.46838765824214, 94.41564433136955, -0.0800000037997961, 0.12800000607967377, 1.0400000493973494, 0.0, 0.0, 0.0, 0.0, 0.0, 1.7632257488803914E9, 0.0, 2025-11-15 11:55:48.880
27.0, 802.7115570395254, 1397.9035453377292, -78.30041542230174, -56.362162282224745, -0.0800000037997961, 0.12800000607967377, 1.0400000493973494, 0.0, 0.0, 0.0, 0.0, 0.0, 1.7632257488803914E9, 0.0, 2025-11-15 11:55:48.880
28.0, 715.3138349750079, 1299.0355501091108, -185.64302395051345, -155.21519791102037, -0.0800000037997961, 0.12800000607967377, 1.0400000493973494, 0.0, 0.0, 0.0, 0.0, 0.0, 1.7632257488940225E9, 0.0, 2025-11-15 11:55:48.894
28.0, 496.72977221477777, 1539.8327486561611, 2.825494416523725, -6.946864167694002, -0.0800000037997961, 0.12800000607967377, 1.0400000493973494, 0.0, 0.0, 0.0, 0.0, 0.0, 1.7632257488940225E9, 0.0, 2025-11-15 11:55:48.894
29.0, 455.7703879000619, 1531.7246455522254, 33.33933815499768, 37.34477100754157, -0.0800000037997961, 0.12800000607967377, 1.0400000493973494, 0.0, 0.0, 0.0, 0.0, 0.0, 1.7632257489097033E9, 0.0, 2025-11-15 11:55:48.909
29.0, 696.0309108034708, 1771.0389737668447, -193.28737945994362, -160.97090394282714, -0.0800000037997961, 0.12800000607967377, 1.0400000493973494, 0.0, 0.0, 0.0, 0.0, 0.0, 1.7632257489097033E9, 0.0, 2025-11-15 11:55:48.909
30.0, 850.4700794736855, 1905.679112071637, -87.42203141422942, -79.10823381273076, -0.0800000037997961, 0.12800000607967377, 1.0400000493973494, 0.0, 0.0, 0.0, 0.0, 0.0, 1.7632257489103963E9, 0.0, 2025-11-15 11:55:48.910
30.0, 1074.1721953232773, 2126.882974750828, 118.3697035475634, 97.26918799756095, -0.0800000037997961, 0.12800000607967377, 1.0400000493973494, 0.0, 0.0, 0.0, 0.0, 0.0, 1.7632257489103963E9, 0.0, 2025-11-15 11:55:48.910
31.0, 1206.069117010571, 2284.89935772866, 327.7797917164862, -119.54029223369434, -0.0800000037997961, 0.12800000607967377, 1.0400000493973494, 0.0, 0.0, 0.0, 0.0, 0.0, 1.763225748924002E9, 0.0, 2025-11-15 11:55:48.924
31.0, 1242.3872854802758, 2302.0206197258085, 322.95158087369055, -146.28057691687718, -0.0800000037997961, 0.12800000607967377, 1.0400000493973494, 0.0, 0.0, 0.0, 0.0, 0.0, 1.763225748924002E9, 0.0, 2025-11-15 11:55:48.924
32.0, 1090.3996212310158, 2141.390046678949, 106.81341268448159, 79.54206220759079, -0.0800000037997961, 0.12800000607967377, 1.0400000493973494, 0.0, 0.0, 0.0, 0.0, 0.0, 1.7632257489396777E9, 0.0, 2025-11-15 11:55:48.939
32.0, 1302.3715408695862, 2378.984020913951, -82.07023457763717, -62.360961811151356, -0.0800000037997961, 0.12800000607967377, 1.0400000493973494, 0.0, 0.0, 0.0, 0.0, 0.0, 1.7632257489396777E9, 0.0, 2025-11-15 11:55:48.939
33.0, 1199.6813678862527, 2266.9366182414815, -193.98300085170195, -150.47300476720557, -0.0800000037997961, 0.12800000607967377, 1.0400000493973494, 0.0, 0.0, 0.0, 0.0, 0.0, 1.7632257489403844E9, 0.0, 2025-11-15 11:55:48.940
33.0, 971.1678707436658, 2022.1807355913334, 7.769642157945782, -0.07292804913595319, -0.0800000037997961, 0.12800000607967377, 1.0400000493973494, 0.0, 0.0, 0.0, 0.0, 0.0, 1.7632257489403844E9, 0.0, 2025-11-15 11:55:48.940
34.0, 952.8348811608739, 2026.4591811406426, 38.93422848870978, 40.47506727045402, -0.0800000037997961, 0.12800000607967377, 1.0400000493973494, 0.0, 0.0, 0.0, 0.0, 0.0, 1.7632257489540899E9, 0.0, 2025-11-15 11:55:48.954
34.0, 1189.6023375056684, 1782.5429060305469, -184.85390505986288, -156.37082699732855, -0.0800000037997961, 0.12800000607967377, 1.0400000493973494, 0.0, 0.0, 0.0, 0.0, 0.0, 1.7632257489540899E9, 0.0, 2025-11-15 11:55:48.954
35.0, 1336.7412214623764, 1898.9659916511737, -96.15843771072105, -77.51877633156255, -0.0800000037997961, 0.12800000607967377, 1.0400000493973494, 0.0, 0.0, 0.0, 0.0, 0.0, 1.7632257489696727E9, 0.0, 2025-11-15 11:55:48.969
35.0, 1552.3875928074121, 2127.1447677477263, 108.32433226658031, 87.75488251028582, -0.0800000037997961, 0.12800000607967377, 1.0400000493973494, 0.0, 0.0, 0.0, 0.0, 0.0, 1.7632257489696727E9, 0.0, 2025-11-15 11:55:48.969
36.0, 1715.9165883199312, 2307.914702055976, 343.80526302661747, -112.51302021695301, -0.0800000037997961, 0.12800000607967377, 1.0400000493973494, 0.0, 0.0, 0.0, 0.0, 0.0, 1.763225748970379E9, 0.0, 2025-11-15 11:55:48.970
36.0, 1734.358035001438, 2308.0044596549124, 331.28033807501197, -119.1887416378595, -0.0800000037997961, 0.12800000607967377, 1.0400000493973494, 0.0, 0.0, 0.0, 0.0, 0.0, 1.763225748970379E9, 0.0, 2025-11-15 11:55:48.970
37.0, 1558.0236220406368, 2120.7831979230978, 94.47922263061628, 63.572689396794885, -0.0800000037997961, 0.12800000607967377, 1.0400000493973494, 0.0, 0.0, 0.0, 0.0, 0.0, 1.7632257489840145E9, 0.0, 2025-11-15 11:55:48.984
37.0, 1800.6515016159974, 1896.7968496768735, -78.30415532225743, -62.13282791385427, -0.0800000037997961, 0.12800000607967377, 1.0400000493973494, 0.0, 0.0, 0.0, 0.0, 0.0, 1.7632257489840145E9, 0.0, 2025-11-15 11:55:48.984
38.0, 1697.7593740350567, 1788.474387360271, -185.889857347589, -152.73938414035365, -0.0800000037997961, 0.12800000607967377, 1.0400000493973494, 0.0, 0.0, 0.0, 0.0, 0.0, 1.7632257489997127E9, 0.0, 2025-11-15 11:55:48.999
38.0, 1454.8584817629308, 2018.3286386369728, 3.659492106642574, -4.586987295653671, -0.0800000037997961, 0.12800000607967377, 1.0400000493973494, 0.0, 0.0, 0.0, 0.0, 0.0, 1.7632257489997127E9, 0.0, 2025-11-15 11:55:48.999
39.0, 1444.4428603863344, 2026.7172342375852, 29.820092296693474, 35.73661402659491, -0.0800000037997961, 0.12800000607967377, 1.0400000493973494, 0.0, 0.0, 0.0, 0.0, 0.0, 1.7632257490003784E9, 0.0, 2025-11-15 11:55:49.000
39.0, 1206.4393671061844, 1795.3445835788734, -175.07780657568946, -133.53499786788598, -0.0800000037997961, 0.12800000607967377, 1.0400000493973494, 0.0, 0.0, 0.0, 0.0, 0.0, 1.7632257490003784E9, 0.0, 2025-11-15 11:55:49.000
40.0, 1329.040767453611, 1892.6455607260577, -108.57864546356723, -92.62423225259408, -0.0800000037997961, 0.12800000607967377, 1.0400000493973494, 0.0, 0.0, 0.0, 0.0, 0.0, 1.7632257490140233E9, 0.0, 2025-11-15 11:55:49.014
40.0, 1550.5400822293013, 2117.7127400594763, 103.76165432063863, 87.86333960900083, -0.0800000037997961, 0.12800000607967377, 1.0400000493973494, 0.0, 0.0, 0.0, 0.0, 0.0, 1.7632257490140233E9, 0.0, 2025-11-15 11:55:49.014
41.0, 1707.3896164209582, 2291.7358948476613, 331.5608305716887, -115.09729108633474, -0.0800000037997961, 0.144000006839633, 1.0400000493973494, 0.0, 0.0, 0.0, 0.0, 0.0, 1.7632257490296805E9, 0.0, 2025-11-15 11:55:49.029
41.0, 1730.9659457416274, 2301.8261449281126, 318.0784912314266, -146.03748341975734, -0.0800000037997961, 0.144000006839633, 1.0400000493973494, 0.0, 0.0, 0.0, 0.0, 0.0, 1.7632257490296805E9, 0.0, 2025-11-15 11:55:49.029
42.0, 1554.5941337812692, 2112.6227362197824, 89.93524418445304, 72.81024228734896, -0.0800000037997961, 0.144000006839633, 1.0400000493973494, 0.0, 0.0, 0.0, 0.0, 0.0, 1.7632257490303864E9, 0.0, 2025-11-15 11:55:49.030
42.0, 1311.104207266122, 1895.0951951970346, -81.34843388618901, -59.79165054159239, -0.0800000037997961, 0.144000006839633, 1.0400000493973494, 0.0, 0.0, 0.0, 0.0, 0.0, 1.7632257490303864E9, 0.0, 2025-11-15 11:55:49.030
43.0, 1206.8993748007342, 1789.3121249503456, -189.35674460651353, -152.34295474505052, -0.0800000037997961, 0.144000006839633, 1.0400000493973494, 0.0, 0.0, 0.0, 0.0, 0.0, 1.7632257490440469E9, 0.0, 2025-11-15 11:55:49.044
43.0, 968.3143270774744, 2017.2365878499113, 3.307941510807723, 0.805948440451175, -0.0800000037997961, 0.144000006839633, 1.0400000493973494, 0.0, 0.0, 0.0, 0.0, 0.0, 1.7632257490440469E9, 0.0, 2025-11-15 11:55:49.044
44.0, 953.5604217522778, 2026.9079691353254, 38.09649089863524, 39.831804478075355, -0.0800000037997961, 0.144000006839633, 1.0400000493973494, 0.0, 0.0, 0.0, 0.0, 0.0, 1.7632257490596623E9, 0.0, 2025-11-15 11:55:49.059
44.0, 708.9073863509111, 1790.3293777382933, -175.79212746722624, -129.06581742083654, -0.0800000037997961, 0.144000006839633, 1.0400000493973494, 0.0, 0.0, 0.0, 0.0, 0.0, 1.7632257490596623E9, 0.0, 2025-11-15 11:55:49.059
45.0, 846.3225304228254, 1908.5363956377842, -90.42517107864842, -78.54724881937727, -0.0800000037997961, 0.144000006839633, 1.0400000493973494, 0.0, 0.0, 0.0, 0.0, 0.0, 1.7632257490603812E9, 0.0, 2025-11-15 11:55:49.060
45.0, 1072.4368817438371, 2131.030523801688, 111.26015373179689, 82.63495947094634, -0.0800000037997961, 0.144000006839633, 1.0400000493973494, 0.0, 0.0, 0.0, 0.0, 0.0, 1.7632257490603812E9, 0.0, 2025-11-15 11:55:49.060
46.0, 1222.0272701215, 2307.432254961692, 341.7894569505006, -125.24737956607714, -0.0800000037997961, 0.144000006839633, 1.0400000493973494, 0.0, 0.0, 0.0, 0.0, 0.0, 1.7632257490740275E9, 0.0, 2025-11-15 11:55:49.074
46.0, 1244.1151192598045, 2306.6057370714843, 329.57868359517306, -131.6014695907943, -0.0800000037997961, 0.144000006839633, 1.0400000493973494, 0.0, 0.0, 0.0, 0.0, 0.0, 1.7632257490740275E9, 0.0, 2025-11-15 11:55:49.074
47.0, 1070.0171664725058, 2119.178780842107, 92.07820685906336, 76.57632154272869, -0.0800000037997961, 0.144000006839633, 1.0400000493973494, 0.0, 0.0, 0.0, 0.0, 0.0, 1.7632257490896747E9, 0.0, 2025-11-15 11:55:49.089
47.0, 1305.5841149315238, 1894.609008202795, -79.34758740989491, -56.07418998563662, -0.0800000037997961, 0.144000006839633, 1.0400000493973494, 0.0, 0.0, 0.0, 0.0, 0.0, 1.7632257490896747E9, 0.0, 2025-11-15 11:55:49.089
48.0, 1214.7830839073285, 1792.2778656152077, -178.91120403027162, -152.06620214832947, -0.0800000037997961, 0.144000006839633, 1.0400000493973494, 0.0, 0.0, 0.0, 0.0, 0.0, 1.7632257490903797E9, 0.0, 2025-11-15 11:55:49.090
48.0, 973.0826995209791, 2021.9002430946566, 6.969303567428142, -4.2877952991984785, -0.0800000037997961, 0.144000006839633, 1.0400000493973494, 0.0, 0.0, 0.0, 0.0, 0.0, 1.7632257490903797E9, 0.0, 2025-11-15 11:55:49.090
49.0, 967.5850465861149, 2045.027784420643, 52.693320425692946, 47.838930283207446, -0.0800000037997961, 0.144000006839633, 1.0400000493973494, 0.0, 0.0, 0.0, 0.0, 0.0, 1.763225749104038E9, 0.0, 2025-11-15 11:55:49.104
49.0, 1201.3605829663575, 2277.90574481152, -178.6232317336835, -159.8676334558986, -0.0800000037997961, 0.144000006839633, 1.0400000493973494, 0.0, 0.0, 0.0, 0.0, 0.0, 1.763225749104038E9, 0.0, 2025-11-15 11:55:49.104
50.0, 1329.1903634518385, 2389.668915087357, -98.61181208165362, -87.18641771702096, -0.0800000037997961, 0.144000006839633, 1.0400000493973494, 0.0, 0.0, 0.0, 0.0, 0.0, 1.7632257491196685E9, 0.0, 2025-11-15 11:55:49.119
50.0, 1571.6218982795253, 2629.811631142162, 121.63837610883638, 103.01367432950065, -0.0800000037997961, 0.144000006839633, 1.0400000493973494, 0.0, 0.0, 0.0, 0.0, 0.0, 1.7632257491196685E9, 0.0, 2025-11-15 11:55:49.119
51.0, 1705.6991816409864, 2792.2448359676637, 330.62585558276623, -124.42834147578105, -0.0800000037997961, 0.12800000607967377, 1.0400000493973494, 0.0, 0.0, 0.0, 0.0, 0.0, 1.7632257491203659E9, 0.0, 2025-11-15 11:55:49.120
51.0, 1728.5013516708277, 2785.352200349327, 308.38093064632267, -156.21749109914526, -0.0800000037997961, 0.12800000607967377, 1.0400000493973494, 0.0, 0.0, 0.0, 0.0, 0.0, 1.7632257491203659E9, 0.0, 2025-11-15 11:55:49.120
52.0, 1556.8455535545945, 2599.6306384997442, 79.29896871047094, 59.64579444332048, -0.0800000037997961, 0.12800000607967377, 1.0400000493973494, 0.0, 0.0, 0.0, 0.0, 0.0, 1.763225749134143E9, 0.0, 2025-11-15 11:55:49.134
52.0, 1799.5332715292461, 2384.952901243232, -76.1312734480016, -45.105063415598124, -0.0800000037997961, 0.12800000607967377, 1.0400000493973494, 0.0, 0.0, 0.0, 0.0, 0.0, 1.763225749134143E9, 0.0, 2025-11-15 11:55:49.134
53.0, 1701.903183185961, 2276.6715778261423, -183.85535177169368, -140.1546207894571, -0.0800000037997961, 0.12800000607967377, 1.0400000493973494, 0.0, 0.0, 0.0, 0.0, 0.0, 1.763225749149654E9, 0.0, 2025-11-15 11:55:49.149
53.0, 1933.7433213391341, 2496.8731473172083, -1.531489031855017, -8.577460548374802, -0.0800000037997961, 0.12800000607967377, 1.0400000493973494, 0.0, 0.0, 0.0, 0.0, 0.0, 1.763225749149654E9, 0.0, 2025-11-15 11:55:49.149
54.0, 1952.4054221180268, 2530.59956511762, 48.10072328010574, 39.18854168569669, -0.0800000037997961, 0.12800000607967377, 1.0400000493973494, 0.0, 0.0, 0.0, 0.0, 0.0, 1.763225749150385E9, 0.0, 2025-11-15 11:55:49.150
54.0, 2186.042582199909, 2286.133524714038, -171.92881081299856, -145.87292782170698, -0.0800000037997961, 0.12800000607967377, 1.0400000493973494, 0.0, 0.0, 0.0, 0.0, 0.0, 1.763225749150385E9, 0.0, 2025-11-15 11:55:49.150
55.0, 2303.78959240485, 2390.746006274596, -99.38971127243713, -93.90701793739572, -0.0800000037997961, 0.12800000607967377, 1.0400000493973494, 0.0, 0.0, 0.0, 0.0, 0.0, 1.7632257491640332E9, 0.0, 2025-11-15 11:55:49.164
55.0, 2542.103497381322, 2624.646829303354, 114.41662929439917, 96.82040000287816, -0.0800000037997961, 0.12800000607967377, 1.0400000493973494, 0.0, 0.0, 0.0, 0.0, 0.0, 1.7632257491640332E9, 0.0, 2025-11-15 11:55:49.164
56.0, 2694.1210808302276, 2791.6314923749305, 331.95352006703615, -127.5960367382504, -0.0800000037997961, 0.12800000607967377, 1.0400000493973494, 0.0, 0.0, 0.0, 0.0, 0.0, 1.7632257491796644E9, 0.0, 2025-11-15 11:55:49.179
56.0, 2711.5639742235653, 2787.2034508273937, 317.0313192438334, -139.01769120292738, -0.0800000037997961, 0.12800000607967377, 1.0400000493973494, 0.0, 0.0, 0.0, 0.0, 0.0, 1.7632257491796644E9, 0.0, 2025-11-15 11:55:49.179
57.0, 2541.344297690317, 2603.7370486510918, 87.30983441555873, 66.72916495939717, -0.0800000037997961, 0.12800000607967377, 1.0400000493973494, 0.0, 0.0, 0.0, 0.0, 0.0, 1.7632257491803865E9, 0.0, 2025-11-15 11:55:49.180
57.0, 2777.790122638922, 2390.4505541780964, -73.15805298322812, -47.464940287638456, -0.0800000037997961, 0.12800000607967377, 1.0400000493973494, 0.0, 0.0, 0.0, 0.0, 0.0, 1.7632257491803865E9, 0.0, 2025-11-15 11:55:49.180
58.0, 2674.2734317653812, 2271.417018388398, -189.5512194042094, -159.34778736205772, -0.0800000037997961, 0.12800000607967377, 1.0400000493973494, 0.0, 0.0, 0.0, 0.0, 0.0, 1.763225749194022E9, 0.0, 2025-11-15 11:55:49.194
58.0, 2440.4043978862464, 2509.745882964693, 4.856260092463344, 2.2345902235247195, -0.0800000037997961, 0.12800000607967377, 1.0400000493973494, 0.0, 0.0, 0.0, 0.0, 0.0, 1.763225749194022E9, 0.0, 2025-11-15 11:55:49.194
59.0, 2433.657618366182, 2531.44104260765, 42.59933044528589, 41.825171154458076, -0.0800000037997961, 0.12800000607967377, 1.0400000493973494, 0.0, 0.0, 0.0, 0.0, 0.0, 1.7632257492096577E9, 0.0, 2025-11-15 11:55:49.209
59.0, 2668.884235929232, 2769.9737317315303, -183.67583657382056, -147.88125409791246, -0.0800000037997961, 0.12800000607967377, 1.0400000493973494, 0.0, 0.0, 0.0, 0.0, 0.0, 1.7632257492096577E9, 0.0, 2025-11-15 11:55:49.209
60.0, 2797.028168010991, 2880.899164417293, -94.97288942476735, -78.62204681849107, -0.0800000037997961, 0.12800000607967377, 1.0400000493973494, 0.0, 0.0, 0.0, 0.0, 0.0, 1.7632257492103796E9, 0.0, 2025-11-15 11:55:49.210
60.0, 2554.9425739292055, 2641.8653286993504, 123.11937649128959, 93.71628303965554, -0.0800000037997961, 0.12800000607967377, 1.0400000493973494, 0.0, 0.0, 0.0, 0.0, 0.0, 1.7632257492103796E9, 0.0, 2025-11-15 11:55:49.210
61.0, 2693.1561866416596, 2796.56068051653, 339.9681256720796, -116.19682167330757, -0.0800000037997961, 0.12800000607967377, 1.0400000493973494, 0.0, 0.0, 0.0, 0.0, 0.0, 1.7632257492240171E9, 0.0, 2025-11-15 11:55:49.224
61.0, 2709.723943445366, 2791.2201033798046, 321.4780602911487, -147.9822313967161, -0.0800000037997961, 0.12800000607967377, 1.0400000493973494, 0.0, 0.0, 0.0, 0.0, 0.0, 1.7632257492240171E9, 0.0, 2025-11-15 11:55:49.224
62.0, 2554.1123161390424, 2622.1111771333963, 104.70784900942817, 75.50297025544569, -0.09600000455975533, 0.12800000607967377, 1.0400000493973494, 0.0, 0.0, 0.0, 0.0, 0.0, 1.763225749239664E9, 0.0, 2025-11-15 11:55:49.239
62.0, 2785.4232584484853, 2397.511485294439, -67.23031155345961, -45.38555591227487, -0.09600000455975533, 0.12800000607967377, 1.0400000493973494, 0.0, 0.0, 0.0, 0.0, 0.0, 1.763225749239664E9, 0.0, 2025-11-15 11:55:49.239
63.0, 2674.1013963674195, 2280.5797732798383, -183.477621876169, -144.65746033610776, -0.09600000455975533, 0.12800000607967377, 1.0400000493973494, 0.0, 0.0, 0.0, 0.0, 0.0, 1.7632257492403965E9, 0.0, 2025-11-15 11:55:49.240
63.0, 2431.279041994363, 2508.4032588806003, -0.5852943430654705, -5.85107348067686, -0.09600000455975533, 0.12800000607967377, 1.0400000493973494, 0.0, 0.0, 0.0, 0.0, 0.0, 1.7632257492403965E9, 0.0, 2025-11-15 11:55:49.240
64.0, 2439.3048672992736, 2537.3201653379947, 50.96174674620852, 44.47302032308653, -0.09600000455975533, 0.12800000607967377, 1.0400000493973494, 0.0, 0.0, 0.0, 0.0, 0.0, 1.76322574925402E9, 0.0, 2025-11-15 11:55:49.254
64.0, 2668.5027661337517, 2763.787937204819, -183.26444757869467, -152.32425524527207, -0.09600000455975533, 0.12800000607967377, 1.0400000493973494, 0.0, 0.0, 0.0, 0.0, 0.0, 1.76322574925402E9, 0.0, 2025-11-15 11:55:49.254
65.0, 2794.978702835273, 2868.5313152638264, -103.1408309279941, -86.73762972233817, -0.09600000455975533, 0.12800000607967377, 1.0400000493973494, 0.0, 0.0, 0.0, 0.0, 0.0, 1.7632257492697372E9, 0.0, 2025-11-15 11:55:49.269
65.0, 2550.159241885878, 2628.278272160329, 120.03021912788972, 93.99677553633228, -0.09600000455975533, 0.12800000607967377, 1.0400000493973494, 0.0, 0.0, 0.0, 0.0, 0.0, 1.7632257492697372E9, 0.0, 2025-11-15 11:55:49.269
66.0, 2693.586275136564, 2796.111892521847, 339.29494368005544, -104.16182361589745, -0.09600000455975533, 0.12800000607967377, 1.0400000493973494, 0.0, 0.0, 0.0, 0.0, 0.0, 1.7632257492703848E9, 0.0, 2025-11-15 11:55:49.270
66.0, 2701.3951862440445, 2792.289714767132, 321.50049969088286, -139.7507115942426, -0.09600000455975533, 0.12800000607967377, 1.0400000493973494, 0.0, 0.0, 0.0, 0.0, 0.0, 1.7632257492703848E9, 0.0, 2025-11-15 11:55:49.270
67.0, 2556.853662806563, 2626.756132878363, 107.9952210704796, 86.76006912207231, -0.09600000455975533, 0.12800000607967377, 1.0400000493973494, 0.0, 0.0, 0.0, 0.0, 0.0, 1.763225749300414E9, 0.0, 2025-11-15 11:55:49.300
