%OpenBCI Raw EXG Data
%Number of channels = 4
%Sample Rate = 200 Hz
%Board = OpenBCI_GUI$BoardGanglionBLE
Sample Index, EXG Channel 0, EXG Channel 1, EXG Channel 2, EXG Channel 3, Accel Channel 0, Accel Channel 1, Accel Channel 2, Other, Other, Other, Other, Other, Timestamp, Marker Channel, Timestamp (Formatted)
44.0, -21.80361674167216, 1.8587302779778838, 29.73968444764614, 20.5657098563388, 0.0, 0.0, 0.0, 0.0, 0.0, 0.0, 0.0, 0.0, 1.7632263279072292E9, 0.0, 2025-11-15 12:05:27.907
44.0, -234.23741402477026, -187.35776808019727, -137.00749497674406, -110.85811448656023, 0.0, 0.0, 0.0, 0.0, 0.0, 0.0, 0.0, 0.0, 1.7632263279072292E9, 0.0, 2025-11-15 12:05:27.907
0.0, -254.47962253494188, -162.47434372501448, -192.06069227447733, -164.16477850498632, 0.0, 0.0, 0.0, 0.0, 0.0, 0.0, 0.0, 0.0, 1.763226327932207E9, 0.0, 2025-11-15 12:05:27.932
1.0, -89.50141578959301, -47.60331658599898, -108.54124646401033, -88.18123110523447, 0.0, 0.19200000911951065, 0.0, 0.0, 0.0, 0.0, 0.0, 0.0, 1.7632263279457436E9, 0.0, 2025-11-15 12:05:27.945
1.0, -32.06777217006311, 62.7162523069419, 14.385525179561228, 19.296013821382076, 0.0, 0.19200000911951065, 0.0, 0.0, 0.0, 0.0, 0.0, 0.0, 1.7632263279457436E9, 0.0, 2025-11-15 12:05:27.945
2.0, -261.2151823551394, -142.50327796163037, -155.8285415037535, -117.44968815846369, -0.03200000151991844, 0.19200000911951065, 0.0, 0.0, 0.0, 0.0, 0.0, 0.0, 1.7632263279623685E9, 0.0, 2025-11-15 12:05:27.962
2.0, -221.17207352956757, -132.6710809781216, -164.69584429869428, -123.54572508623824, -0.03200000151991844, 0.19200000911951065, 0.0, 0.0, 0.0, 0.0, 0.0, 0.0, 1.7632263279623685E9, 0.0, 2025-11-15 12:05:27.962
3.0, -455.732988900505, 96.11729881120846, 25.13773755216971, 20.006594812963158, -0.03200000151991844, 0.19200000911951065, 0.0, 0.0, 0.0, 0.0, 0.0, 0.0, 1.7632263279631183E9, 0.0, 2025-11-15 12:05:27.963
3.0, -667.3066091937944, -73.6442399774678, -93.07302024727687, -68.87212763400748, -0.03200000151991844, 0.19200000911951065, 0.0, 0.0, 0.0, 0.0, 0.0, 0.0, 1.7632263279631183E9, 0.0, 2025-11-15 12:05:27.963
4.0, -723.0161589337513, -146.46383201470599, -170.38423213129863, -130.77495170058683, -0.03200000151991844, 0.19200000911951065, 0.0, 0.0, 0.0, 0.0, 0.0, 0.0, 1.763226327975489E9, 0.0, 2025-11-15 12:05:27.975
4.0, -525.8299337700009, 22.71428238088265, -39.09878408676013, -23.757714468520135, -0.03200000151991844, 0.19200000911951065, 0.0, 0.0, 0.0, 0.0, 0.0, 0.0, 1.763226327975489E9, 0.0, 2025-11-15 12:05:27.975
5.0, -569.874735548161, 2.855413616169244, -30.83360518468544, -14.875452073756605, -0.03200000151991844, 0.19200000911951065, 0.0, 0.0, 0.0, 0.0, 0.0, 0.0, 1.7632263279911335E9, 0.0, 2025-11-15 12:05:27.991
5.0, -761.0808606827632, -161.5431086360477, -181.33465920155868, -147.39132720371708, -0.03200000151991844, 0.19200000911951065, 0.0, 0.0, 0.0, 0.0, 0.0, 0.0, 1.7632263279911335E9, 0.0, 2025-11-15 12:05:27.991
6.0, -613.4034311324358, -47.5584377865307, -83.32310106279328, -56.67257397854701, -0.03200000151991844, 0.19200000911951065, 0.0, 0.0, 0.0, 0.0, 0.0, 0.0, 1.7632263279918647E9, 0.0, 2025-11-15 12:05:27.991
6.0, -475.7788526630029, 82.88553276797757, 23.727795268874615, 19.004301624838263, -0.03200000151991844, 0.19200000911951065, 0.0, 0.0, 0.0, 0.0, 0.0, 0.0, 1.7632263279918647E9, 0.0, 2025-11-15 12:05:27.991
7.0, -238.97773721860722, -127.91766813443974, -152.48507094336674, -119.51411293400452, -0.03200000151991844, 0.19200000911951065, 0.0, 0.0, 0.0, 0.0, 0.0, 0.0, 1.763226328005521E9, 0.0, 2025-11-15 12:05:28.005
7.0, -205.14660221943632, -116.55959196900949, -157.6498727821745, -121.49999981047586, -0.03200000151991844, 0.19200000911951065, 0.0, 0.0, 0.0, 0.0, 0.0, 0.0, 1.763226328005521E9, 0.0, 2025-11-15 12:05:28.005
8.0, -440.9454244757071, 104.94720260659233, 28.84023850830272, 27.826725620310754, -0.03200000151991844, 0.19200000911951065, 0.0, 0.0, 0.0, 0.0, 0.0, 0.0, 1.7632263280211709E9, 0.0, 2025-11-15 12:05:28.021
8.0, -657.6539274081588, -61.66534041939303, -88.15879170550033, -59.0100114508532, -0.03200000151991844, 0.19200000911951065, 0.0, 0.0, 0.0, 0.0, 0.0, 0.0, 1.7632263280211709E9, 0.0, 2025-11-15 12:05:28.021
9.0, -736.225485577248, -147.4960444024764, -174.8384529785253, -135.9360136394389, -0.03200000151991844, 0.19200000911951065, 0.0, 0.0, 0.0, 0.0, 0.0, 0.0, 1.7632263280218785E9, 0.0, 2025-11-15 12:05:28.021
9.0, -521.6449857195839, 31.076698681805283, -37.19143510935828, -26.207348939497024, -0.03200000151991844, 0.19200000911951065, 0.0, 0.0, 0.0, 0.0, 0.0, 0.0, 1.7632263280218785E9, 0.0, 2025-11-15 12:05:28.021
10.0, -567.2717651790008, 19.07161982404068, -16.838899550493807, -2.7095575178973377, -0.03200000151991844, 0.19200000911951065, 1.0240000486373901, 0.0, 0.0, 0.0, 0.0, 0.0, 1.763226328035584E9, 0.0, 2025-11-15 12:05:28.035
10.0, -740.2757972292602, -142.26392436446622, -162.53418212430552, -122.06472470378503, -0.03200000151991844, 0.19200000911951065, 1.0240000486373901, 0.0, 0.0, 0.0, 0.0, 0.0, 1.763226328035584E9, 0.0, 2025-11-15 12:05:28.035
11.0, -598.3166747111827, -36.7015082151629, -85.63435923540965, -72.30535579333082, -0.03200000151991844, 0.09600000455975533, 1.0240000486373901, 0.0, 0.0, 0.0, 0.0, 0.0, 1.7632263280511632E9, 0.0, 2025-11-15 12:05:28.051
11.0, -460.66591694206, 109.37150425417349, 54.6754674022086, 55.85727578820661, -0.03200000151991844, 0.09600000455975533, 1.0240000486373901, 0.0, 0.0, 0.0, 0.0, 0.0, 1.7632263280511632E9, 0.0, 2025-11-15 12:05:28.051
12.0, -235.06580186495557, -123.61678318539634, -140.61088858405128, -104.73028840916231, -0.01600000075995922, 0.09600000455975533, 1.0240000486373901, 0.0, 0.0, 0.0, 0.0, 0.0, 1.7632263280518706E9, 0.0, 2025-11-15 12:05:28.051
12.0, -205.5579912145622, -111.4770679292269, -148.9733048849739, -115.1833087853156, -0.01600000075995922, 0.09600000455975533, 1.0240000486373901, 0.0, 0.0, 0.0, 0.0, 0.0, 1.7632263280518706E9, 0.0, 2025-11-15 12:05:28.051
13.0, -425.267763861455, 122.20684090210125, 54.98213919857517, 48.94594067009166, -0.01600000075995922, 0.09600000455975533, 1.0240000486373901, 0.0, 0.0, 0.0, 0.0, 0.0, 1.7632263280655391E9, 0.0, 2025-11-15 12:05:28.065
13.0, -660.9749585688114, -63.35577519936487, -81.90193907963112, -56.45565978111699, -0.01600000075995922, 0.09600000455975533, 1.0240000486373901, 0.0, 0.0, 0.0, 0.0, 0.0, 1.7632263280655391E9, 0.0, 2025-11-15 12:05:28.065
14.0, -717.5185059988871, -124.46200057538226, -149.14534028293565, -107.28090017894283, -0.01600000075995922, 0.09600000455975533, 1.0240000486373901, 0.0, 0.0, 0.0, 0.0, 0.0, 1.763226328081164E9, 0.0, 2025-11-15 12:05:28.081
14.0, -505.5334967104718, 55.00083869835362, -5.82863408094272, 4.370073098223656, -0.01600000075995922, 0.09600000455975533, 1.0240000486373901, 0.0, 0.0, 0.0, 0.0, 0.0, 1.763226328081164E9, 0.0, 2025-11-15 12:05:28.081
15.0, -556.0034466125071, 28.447549012955278, -2.0737745254300535, 14.67723737610504, -0.01600000075995922, 0.09600000455975533, 1.0240000486373901, 0.0, 0.0, 0.0, 0.0, 0.0, 1.763226328081885E9, 0.0, 2025-11-15 12:05:28.081
15.0, -728.928940763697, -133.8566292640753, -151.08260845998302, -117.22903406107798, -0.01600000075995922, 0.09600000455975533, 1.0240000486373901, 0.0, 0.0, 0.0, 0.0, 0.0, 1.763226328081885E9, 0.0, 2025-11-15 12:05:28.081
16.0, -595.4444315452129, -34.75302033824846, -87.29113491578028, -64.29449008824304, -0.01600000075995922, 0.09600000455975533, 1.0240000486373901, 0.0, 0.0, 0.0, 0.0, 0.0, 1.7632263280954876E9, 0.0, 2025-11-15 12:05:28.095
16.0, -474.39508967939764, 100.96794905373827, 43.7063408321701, 47.32656398927793, -0.01600000075995922, 0.09600000455975533, 1.0240000486373901, 0.0, 0.0, 0.0, 0.0, 0.0, 1.7632263280954876E9, 0.0, 2025-11-15 12:05:28.095
17.0, -237.29852213850245, -119.484193734359, -141.01853767922148, -114.16979589732364, -0.01600000075995922, 0.09600000455975533, 1.0240000486373901, 0.0, 0.0, 0.0, 0.0, 0.0, 1.7632263281111538E9, 0.0, 2025-11-15 12:05:28.111
17.0, -181.53661379916593, -89.89784518489614, -122.76034609554335, -89.97264318400994, -0.01600000075995922, 0.09600000455975533, 1.0240000486373901, 0.0, 0.0, 0.0, 0.0, 0.0, 1.7632263281111538E9, 0.0, 2025-11-15 12:05:28.111
18.0, 46.77679869579151, 104.77890710858628, 33.11494415765628, 29.98464789474383, -0.01600000075995922, 0.09600000455975533, 1.0240000486373901, 0.0, 0.0, 0.0, 0.0, 0.0, 1.763226328111853E9, 0.0, 2025-11-15 12:05:28.111
18.0, -183.60103857470676, -75.55532885482535, -94.14263163460419, -66.34021536400542, -0.01600000075995922, 0.09600000455975533, 1.0240000486373901, 0.0, 0.0, 0.0, 0.0, 0.0, 1.763226328111853E9, 0.0, 2025-11-15 12:05:28.111
19.0, -245.59362024022266, -144.77713713468984, -169.34453994361684, -129.96339341020212, -0.01600000075995922, 0.09600000455975533, 1.0240000486373901, 0.0, 0.0, 0.0, 0.0, 0.0, 1.7632263281255207E9, 0.0, 2025-11-15 12:05:28.125
19.0, -16.382631755899638, 44.86944971838966, -18.843485926743597, -8.181031153071672, -0.01600000075995922, 0.09600000455975533, 1.0240000486373901, 0.0, 0.0, 0.0, 0.0, 0.0, 1.7632263281255207E9, 0.0, 2025-11-15 12:05:28.125
20.0, -79.47100410843268, 10.439930726308376, -26.184909539762884, -10.851319721434265, -0.01600000075995922, 0.09600000455975533, 0.576000027358532, 0.0, 0.0, 0.0, 0.0, 0.0, 1.7632263281412768E9, 0.0, 2025-11-15 12:05:28.141
20.0, -254.6927968324162, -152.04750264855102, -170.38423213129863, -134.35403595818207, -0.01600000075995922, 0.09600000455975533, 0.576000027358532, 0.0, 0.0, 0.0, 0.0, 0.0, 1.7632263281412768E9, 0.0, 2025-11-15 12:05:28.141
21.0, -133.003932074178, -59.45131964562461, -109.31166585488245, -86.45339732570574, -0.01600000075995922, 0.144000006839633, 0.576000027358532, 0.0, 0.0, 0.0, 0.0, 0.0, 1.7632263281418834E9, 0.0, 2025-11-15 12:05:28.141
21.0, 24.644070758018643, 96.47632920695469, 37.99551359983161, 42.685348144266754, -0.01600000075995922, 0.144000006839633, 0.576000027358532, 0.0, 0.0, 0.0, 0.0, 0.0, 1.7632263281418834E9, 0.0, 2025-11-15 12:05:28.141
22.0, 233.74748713057488, -142.07318946672603, -159.0934741650708, -129.25281241862103, -0.03200000151991844, 0.144000006839633, 0.576000027358532, 0.0, 0.0, 0.0, 0.0, 0.0, 1.7632263281554773E9, 0.0, 2025-11-15 12:05:28.155
22.0, 290.683724055998, -121.64959580870345, -157.89296627929434, -126.17861465504393, -0.03200000151991844, 0.144000006839633, 0.576000027358532, 0.0, 0.0, 0.0, 0.0, 0.0, 1.7632263281554773E9, 0.0, 2025-11-15 12:05:28.155
23.0, 517.8115882650018, 86.34868012694642, 24.77870715642348, 15.829126562457532, -0.03200000151991844, 0.144000006839633, 0.576000027358532, 0.0, 0.0, 0.0, 0.0, 0.0, 1.763226328171186E9, 0.0, 2025-11-15 12:05:28.171
23.0, 298.27946086600423, -88.48416300164536, -104.98460160614923, -77.5748748308979, -0.03200000151991844, 0.144000006839633, 0.576000027358532, 0.0, 0.0, 0.0, 0.0, 0.0, 1.763226328171186E9, 0.0, 2025-11-15 12:05:28.171
24.0, 255.8615155685693, -149.51559037854895, -169.97658303612843, -134.09598286123946, -0.03200000151991844, 0.144000006839633, 0.576000027358532, 0.0, 0.0, 0.0, 0.0, 0.0, 1.763226328171857E9, 0.0, 2025-11-15 12:05:28.171
24.0, 481.28772529773414, 40.14595607435331, -32.03037317050621, -21.337999197188765, -0.03200000151991844, 0.144000006839633, 0.576000027358532, 0.0, 0.0, 0.0, 0.0, 0.0, 1.763226328171857E9, 0.0, 2025-11-15 12:05:28.171
25.0, 381.2641009828076, -5.41724508581683, -41.55963825760409, -35.92734892433509, -0.03200000151991844, 0.144000006839633, 0.576000027358532, 0.0, 0.0, 0.0, 0.0, 0.0, 1.763226328185565E9, 0.0, 2025-11-15 12:05:28.185
25.0, 219.16935710329562, -164.168518404942, -186.5106807402335, -149.2388377818279, -0.03200000151991844, 0.144000006839633, 0.576000027358532, 0.0, 0.0, 0.0, 0.0, 0.0, 1.763226328185565E9, 0.0, 2025-11-15 12:05:28.185
26.0, 347.5825619818643, -70.02027692040429, -120.56128492159769, -101.81316644372419, -0.03200000151991844, 0.144000006839633, 0.576000027358532, 0.0, 0.0, 0.0, 0.0, 0.0, 1.7632263282011583E9, 0.0, 2025-11-15 12:05:28.201
26.0, 503.046463239938, 78.62578671844676, 19.733582116197795, 21.49507499532774, -0.03200000151991844, 0.144000006839633, 0.576000027358532, 0.0, 0.0, 0.0, 0.0, 0.0, 1.7632263282011583E9, 0.0, 2025-11-15 12:05:28.201
27.0, 747.0693254987709, -128.50857232743874, -146.7929432108067, -115.51241998141631, -0.03200000151991844, 0.144000006839633, 0.576000027358532, 0.0, 0.0, 0.0, 0.0, 0.0, 1.7632263282018576E9, 0.0, 2025-11-15 12:05:28.201
27.0, 766.5392446680926, -125.98413985734805, -165.4625237896107, -127.61847613798454, -0.03200000151991844, 0.144000006839633, 0.576000027358532, 0.0, 0.0, 0.0, 0.0, 0.0, 1.7632263282018576E9, 0.0, 2025-11-15 12:05:28.201
28.0, 1008.9371203961782, 86.71519032260403, 17.306387044955045, 12.612812600564212, -0.03200000151991844, 0.144000006839633, 0.576000027358532, 0.0, 0.0, 0.0, 0.0, 0.0, 1.7632263282155166E9, 0.0, 2025-11-15 12:05:28.215
28.0, 797.554235000629, -84.07856085384265, -105.01452080579475, -78.90253931516781, -0.03200000151991844, 0.144000006839633, 0.576000027358532, 0.0, 0.0, 0.0, 0.0, 0.0, 1.7632263282155166E9, 0.0, 2025-11-15 12:05:28.215
29.0, 724.1362589704804, -169.2136434451677, -194.0764983505942, -161.59172733547166, -0.03200000151991844, 0.144000006839633, 0.576000027358532, 0.0, 0.0, 0.0, 0.0, 0.0, 1.7632263282311487E9, 0.0, 2025-11-15 12:05:28.231
29.0, 931.9737192080356, 16.786540951114148, -43.21641393797472, -33.26080025592819, -0.03200000151991844, 0.144000006839633, 0.576000027358532, 0.0, 0.0, 0.0, 0.0, 0.0, 1.7632263282311487E9, 0.0, 2025-11-15 12:05:28.231
30.0, 905.1997754252516, 16.995975348632783, -17.87111193826422, -1.5763678313232958, -0.03200000151991844, 0.144000006839633, 0.800000037997961, 0.0, 0.0, 0.0, 0.0, 0.0, 1.7632263282318583E9, 0.0, 2025-11-15 12:05:28.231
30.0, 729.4768361072056, -153.77907632803544, -176.52140795858577, -143.85712174559012, -0.03200000151991844, 0.144000006839633, 0.800000037997961, 0.0, 0.0, 0.0, 0.0, 0.0, 1.7632263282318583E9, 0.0, 2025-11-15 12:05:28.231
31.0, 839.2391599067487, -67.76137734716758, -117.68530185567215, -93.16651774616912, -0.03200000151991844, 0.1600000075995922, 0.800000037997961, 0.0, 0.0, 0.0, 0.0, 0.0, 1.7632263282455337E9, 0.0, 2025-11-15 12:05:28.245
31.0, 991.2698330054991, 77.3542207335122, 17.16053094668314, 19.14641782315448, -0.03200000151991844, 0.1600000075995922, 0.800000037997961, 0.0, 0.0, 0.0, 0.0, 0.0, 1.7632263282455337E9, 0.0, 2025-11-15 12:05:28.245
32.0, 1213.2721643252298, -149.5342898783274, -170.38423213129863, -132.73465927736834, -0.03200000151991844, 0.1600000075995922, 0.800000037997961, 0.0, 0.0, 0.0, 0.0, 0.0, 1.7632263282611394E9, 0.0, 2025-11-15 12:05:28.261
32.0, 1251.4677625726908, -131.54163119150326, -166.88742567272857, -130.75625220080838, -0.03200000151991844, 0.1600000075995922, 0.800000037997961, 0.0, 0.0, 0.0, 0.0, 0.0, 1.7632263282611394E9, 0.0, 2025-11-15 12:05:28.261
33.0, 1011.7532650628127, 90.46257007820532, 26.899230431299657, 22.149557487573475, -0.03200000151991844, 0.1600000075995922, 0.800000037997961, 0.0, 0.0, 0.0, 0.0, 0.0, 1.763226328261844E9, 0.0, 2025-11-15 12:05:28.261
33.0, 851.042284166906, -60.95475942781195, -91.78275476256385, -65.9363061687909, -0.03200000151991844, 0.1600000075995922, 0.800000037997961, 0.0, 0.0, 0.0, 0.0, 0.0, 1.763226328261844E9, 0.0, 2025-11-15 12:05:28.261
34.0, 698.7311185714789, -169.5427546412684, -182.75582118472084, -144.87437453353778, -0.03200000151991844, 0.1600000075995922, 0.800000037997961, 0.0, 0.0, 0.0, 0.0, 0.0, 1.7632263282754824E9, 0.0, 2025-11-15 12:05:28.275
34.0, 464.1552436007187, 34.89887643652037, -24.31495956191793, -11.06823391886428, -0.03200000151991844, 0.1600000075995922, 0.800000037997961, 0.0, 0.0, 0.0, 0.0, 0.0, 1.7632263282754824E9, 0.0, 2025-11-15 12:05:28.275
35.0, 403.1649551233277, 6.393358974251896, -27.2171219275333, -16.158237758558244, -0.03200000151991844, 0.1600000075995922, 0.800000037997961, 0.0, 0.0, 0.0, 0.0, 0.0, 1.7632263282911372E9, 0.0, 2025-11-15 12:05:28.291
35.0, 225.57954562734812, -164.9127584961243, -189.39414360607043, -153.18817213503644, -0.03200000151991844, 0.1600000075995922, 0.800000037997961, 0.0, 0.0, 0.0, 0.0, 0.0, 1.7632263282911372E9, 0.0, 2025-11-15 12:05:28.291
36.0, 337.55589020065963, -71.20956510631368, -121.28308561304584, -100.2124892626889, -0.03200000151991844, 0.1600000075995922, 0.800000037997961, 0.0, 0.0, 0.0, 0.0, 0.0, 1.7632263282918532E9, 0.0, 2025-11-15 12:05:28.291
36.0, 521.1924578249454, 94.05661393562332, 32.654936463106424, 30.182862592395395, -0.03200000151991844, 0.1600000075995922, 0.800000037997961, 0.0, 0.0, 0.0, 0.0, 0.0, 1.7632263282918532E9, 0.0, 2025-11-15 12:05:28.291
37.0, 723.960483672563, -141.92733336845413, -161.37481313804165, -133.46767966868356, -0.03200000151991844, 0.1600000075995922, 0.800000037997961, 0.0, 0.0, 0.0, 0.0, 0.0, 1.763226328305468E9, 0.0, 2025-11-15 12:05:28.305
37.0, 758.6480557615869, -142.81368965795264, -178.7354287323542, -143.40085395099595, -0.03200000151991844, 0.1600000075995922, 0.800000037997961, 0.0, 0.0, 0.0, 0.0, 0.0, 1.763226328305468E9, 0.0, 2025-11-15 12:05:28.305
38.0, 535.018867961131, 96.34543270850554, 24.071866064798087, 20.238468610215932, -0.03200000151991844, 0.1600000075995922, 0.800000037997961, 0.0, 0.0, 0.0, 0.0, 0.0, 1.7632263283212724E9, 0.0, 2025-11-15 12:05:28.321
38.0, 296.8433392830193, -85.36134653864428, -107.01910718204454, -90.42143117869273, -0.03200000151991844, 0.1600000075995922, 0.800000037997961, 0.0, 0.0, 0.0, 0.0, 0.0, 1.7632263283212724E9, 0.0, 2025-11-15 12:05:28.321
39.0, 232.43852214608341, -167.04450147086754, -191.35011128289625, -156.49050379591063, -0.03200000151991844, 0.1600000075995922, 0.800000037997961, 0.0, 0.0, 0.0, 0.0, 0.0, 1.763226328321915E9, 0.0, 2025-11-15 12:05:28.321
39.0, 452.7335891360417, 18.978122325148433, -44.278545525390655, -23.53706037113443, -0.03200000151991844, 0.1600000075995922, 0.800000037997961, 0.0, 0.0, 0.0, 0.0, 0.0, 1.763226328321915E9, 0.0, 2025-11-15 12:05:28.321
40.0, 415.58516287617385, 9.000069243367761, -27.63599072257057, -19.16885722288862, -0.03200000151991844, 0.1600000075995922, 0.9120000433176756, 0.0, 0.0, 0.0, 0.0, 0.0, 1.7632263283354688E9, 0.0, 2025-11-15 12:05:28.335
40.0, 219.86497849505395, -167.82988046156242, -185.54578655166551, -146.17585971811786, -0.03200000151991844, 0.1600000075995922, 0.9120000433176756, 0.0, 0.0, 0.0, 0.0, 0.0, 1.7632263283354688E9, 0.0, 2025-11-15 12:05:28.335
41.0, 365.64253886789083, -62.45819920999929, -115.62087708013132, -96.83909950265661, -0.03200000151991844, 0.17600000835955143, 0.9120000433176756, 0.0, 0.0, 0.0, 0.0, 0.0, 1.7632263283512292E9, 0.0, 2025-11-15 12:05:28.351
41.0, 503.2783370371908, 81.77852238109335, 24.976921854075044, 17.661677540745586, -0.03200000151991844, 0.17600000835955143, 0.9120000433176756, 0.0, 0.0, 0.0, 0.0, 0.0, 1.7632263283512292E9, 0.0, 2025-11-15 12:05:28.351
42.0, 736.623784922529, -139.69461309490725, -164.71080389851704, -141.72537877084687, -0.03200000151991844, 0.17600000835955143, 0.9120000433176756, 0.0, 0.0, 0.0, 0.0, 0.0, 1.763226328351923E9, 0.0, 2025-11-15 12:05:28.351
42.0, 748.7522804788314, -138.29963041143492, -167.22775656869635, -141.3813079749234, -0.03200000151991844, 0.17600000835955143, 0.9120000433176756, 0.0, 0.0, 0.0, 0.0, 0.0, 1.763226328351923E9, 0.0, 2025-11-15 12:05:28.351
43.0, 536.4213304445148, 95.05142732383683, 22.609565182123333, 18.24136203387752, -0.03200000151991844, 0.17600000835955143, 0.9120000433176756, 0.0, 0.0, 0.0, 0.0, 0.0, 1.7632263283654718E9, 0.0, 2025-11-15 12:05:28.365
43.0, 343.99225802440196, -77.6122738304548, -105.08557890495285, -89.56499408883974, -0.03200000151991844, 0.17600000835955143, 0.9120000433176756, 0.0, 0.0, 0.0, 0.0, 0.0, 1.7632263283654718E9, 0.0, 2025-11-15 12:05:28.365
44.0, 187.50362417846918, -178.04354724055156, -192.9657480637543, -149.5380297782831, -0.03200000151991844, 0.17600000835955143, 0.9120000433176756, 0.0, 0.0, 0.0, 0.0, 0.0, 1.7632263283812723E9, 0.0, 2025-11-15 12:05:28.381
44.0, -53.949926810804754, 10.436190826352686, -48.287718277890235, -39.60367058077827, -0.03200000151991844, 0.17600000835955143, 0.9120000433176756, 0.0, 0.0, 0.0, 0.0, 0.0, 1.7632263283812723E9, 0.0, 2025-11-15 12:05:28.381
45.0, -68.55049623781815, 14.108772582840174, -25.014320853631943, -14.019014983903617, -0.03200000151991844, 0.17600000835955143, 0.9120000433176756, 0.0, 0.0, 0.0, 0.0, 0.0, 1.7632263283819206E9, 0.0, 2025-11-15 12:05:28.381
45.0, -257.08633280405775, -164.8043013974093, -187.58029212756082, -159.983570354525, -0.03200000151991844, 0.17600000835955143, 0.9120000433176756, 0.0, 0.0, 0.0, 0.0, 0.0, 1.7632263283819206E9, 0.0, 2025-11-15 12:05:28.381
46.0, -158.10240067681298, -83.92148505570367, -132.65986127825454, -112.39708331832662, -0.03200000151991844, 0.17600000835955143, 0.9120000433176756, 0.0, 0.0, 0.0, 0.0, 0.0, 1.7632263283955085E9, 0.0, 2025-11-15 12:05:28.395
46.0, 16.67434395244345, 84.33661395078525, 24.875944555271417, 26.988988030236214, -0.03200000151991844, 0.17600000835955143, 0.9120000433176756, 0.0, 0.0, 0.0, 0.0, 0.0, 1.7632263283955085E9, 0.0, 2025-11-15 12:05:28.395
47.0, 241.0814309436828, -146.84530181018636, -166.85376657312736, -140.21819908870384, -0.03200000151991844, 0.17600000835955143, 0.9120000433176756, 0.0, 0.0, 0.0, 0.0, 0.0, 1.763226328411198E9, 0.0, 2025-11-15 12:05:28.411
47.0, 287.1046397984028, -126.67976124910638, -167.77752186218277, -138.2697112117894, -0.03200000151991844, 0.17600000835955143, 0.9120000433176756, 0.0, 0.0, 0.0, 0.0, 0.0, 1.763226328411198E9, 0.0, 2025-11-15 12:05:28.411
48.0, 518.8400607528165, 77.55617533111945, 8.917791444342583, 2.7058176179416478, -0.03200000151991844, 0.17600000835955143, 0.9120000433176756, 0.0, 0.0, 0.0, 0.0, 0.0, 1.763226328411903E9, 0.0, 2025-11-15 12:05:28.411
48.0, 315.01551316771656, -74.04814917268232, -97.4337435956113, -67.76511724712327, -0.03200000151991844, 0.17600000835955143, 0.9120000433176756, 0.0, 0.0, 0.0, 0.0, 0.0, 1.763226328411903E9, 0.0, 2025-11-15 12:05:28.411
49.0, 225.29905313067138, -169.692350639496, -196.72434751922265, -160.71285084588453, -0.03200000151991844, 0.17600000835955143, 0.9120000433176756, 0.0, 0.0, 0.0, 0.0, 0.0, 1.7632263284254987E9, 0.0, 2025-11-15 12:05:28.425
49.0, 441.59616706799716, 12.605332800652832, -53.31040391838178, -45.026525516528636, -0.03200000151991844, 0.17600000835955143, 0.9120000433176756, 0.0, 0.0, 0.0, 0.0, 0.0, 1.7632263284254987E9, 0.0, 2025-11-15 12:05:28.425
50.0, 411.0935430293903, 7.081500566098839, -32.83071176102385, -28.507387412246317, -0.03200000151991844, 0.17600000835955143, 0.9760000463575125, 0.0, 0.0, 0.0, 0.0, 0.0, 1.76322632844119E9, 0.0, 2025-11-15 12:05:28.441
50.0, 223.34682535380125, -158.60354727087542, -176.38677156018093, -142.3424622635357, -0.03200000151991844, 0.17600000835955143, 0.9760000463575125, 0.0, 0.0, 0.0, 0.0, 0.0, 1.76322632844119E9, 0.0, 2025-11-15 12:05:28.441
51.0, 350.1743126511574, -69.41441312758252, -118.7399536431767, -98.52205448271707, -0.03200000151991844, 0.17600000835955143, 0.9760000463575125, 0.0, 0.0, 0.0, 0.0, 0.0, 1.7632263284419055E9, 0.0, 2025-11-15 12:05:28.441
51.0, 522.4789834097028, 90.41769127873704, 35.037252734880894, 37.026879511307925, -0.03200000151991844, 0.17600000835955143, 0.9760000463575125, 0.0, 0.0, 0.0, 0.0, 0.0, 1.7632263284419055E9, 0.0, 2025-11-15 12:05:28.441
52.0, 725.0413147597574, -150.78341646352783, -168.67135795159265, -137.85084241675213, -0.03200000151991844, 0.17600000835955143, 0.9760000463575125, 0.0, 0.0, 0.0, 0.0, 0.0, 1.7632263284555233E9, 0.0, 2025-11-15 12:05:28.455
52.0, 757.8813762706704, -134.95615985104814, -171.2818081206642, -138.9354134039022, -0.03200000151991844, 0.17600000835955143, 0.9760000463575125, 0.0, 0.0, 0.0, 0.0, 0.0, 1.7632263284555233E9, 0.0, 2025-11-15 12:05:28.455
53.0, 532.9394835857674, 96.09859931143001, 22.654443981591612, 21.94386299001053, -0.03200000151991844, 0.17600000835955143, 0.9760000463575125, 0.0, 0.0, 0.0, 0.0, 0.0, 1.763226328471216E9, 0.0, 2025-11-15 12:05:28.471
53.0, 315.90186945721507, -71.92014609789476, -97.60577899357304, -80.13670630054548, -0.03200000151991844, 0.17600000835955143, 0.9760000463575125, 0.0, 0.0, 0.0, 0.0, 0.0, 1.763226328471216E9, 0.0, 2025-11-15 12:05:28.471
54.0, 228.64626359101385, -162.74361652182415, -190.05984579818323, -155.71634450508282, -0.03200000151991844, 0.17600000835955143, 0.9760000463575125, 0.0, 0.0, 0.0, 0.0, 0.0, 1.7632263284719172E9, 0.0, 2025-11-15 12:05:28.471
54.0, 466.20096887648106, 26.540200035553426, -39.71212767949328, -46.87403609463945, -0.03200000151991844, 0.17600000835955143, 0.9760000463575125, 0.0, 0.0, 0.0, 0.0, 0.0, 1.7632263284719172E9, 0.0, 2025-11-15 12:05:28.471
55.0, 457.96944907400757, 28.00624081818387, -14.527641377877444, -17.022154648322612, -0.03200000151991844, 0.17600000835955143, 0.9760000463575125, 0.0, 0.0, 0.0, 0.0, 0.0, 1.7632263284855297E9, 0.0, 2025-11-15 12:05:28.485
55.0, 652.453596519772, -184.38267766544595, -193.49681385746226, -151.80440915143117, -0.03200000151991844, 0.17600000835955143, 0.9760000463575125, 0.0, 0.0, 0.0, 0.0, 0.0, 1.7632263284855297E9, 0.0, 2025-11-15 12:05:28.485
56.0, 817.3719648658298, -81.15021918853745, -125.60640996182337, -110.2952595432289, -0.03200000151991844, 0.17600000835955143, 0.9760000463575125, 0.0, 0.0, 0.0, 0.0, 0.0, 1.76322632850125E9, 0.0, 2025-11-15 12:05:28.501
56.0, 997.2200138350017, 85.89241233235225, 24.41219696076587, 21.50255479523912, -0.03200000151991844, 0.17600000835955143, 0.9760000463575125, 0.0, 0.0, 0.0, 0.0, 0.0, 1.76322632850125E9, 0.0, 2025-11-15 12:05:28.501
57.0, 1227.8615140523762, -139.866648492869, -160.4996765484102, -132.53270467976108, -0.03200000151991844, 0.17600000835955143, 0.9760000463575125, 0.0, 0.0, 0.0, 0.0, 0.0, 1.7632263285019176E9, 0.0, 2025-11-15 12:05:28.501
57.0, 1241.5233685905114, -139.92648689216003, -174.60657918127254, -144.2385915410705, -0.03200000151991844, 0.17600000835955143, 0.9760000463575125, 0.0, 0.0, 0.0, 0.0, 0.0, 1.7632263285019176E9, 0.0, 2025-11-15 12:05:28.501
58.0, 1019.6407140693627, 102.587325734552, 36.94086181232706, 28.929996107239276, -0.03200000151991844, 0.17600000835955143, 0.9760000463575125, 0.0, 0.0, 0.0, 0.0, 0.0, 1.7632263285155346E9, 0.0, 2025-11-15 12:05:28.515
58.0, 805.2584289093502, -66.32151586422697, -84.3179144510068, -72.4624315914698, -0.03200000151991844, 0.17600000835955143, 0.9760000463575125, 0.0, 0.0, 0.0, 0.0, 0.0, 1.7632263285155346E9, 0.0, 2025-11-15 12:05:28.515
59.0, 734.791233944241, -146.93131950916722, -170.9564368245192, -149.54924947815016, -0.03200000151991844, 0.17600000835955143, 0.9760000463575125, 0.0, 0.0, 0.0, 0.0, 0.0, 1.7632263285312097E9, 0.0, 2025-11-15 12:05:28.531
59.0, 928.7723648459651, 4.878699492197484, -54.94100029906258, -57.110142273362726, -0.03200000151991844, 0.17600000835955143, 0.9760000463575125, 0.0, 0.0, 0.0, 0.0, 0.0, 1.7632263285312097E9, 0.0, 2025-11-15 12:05:28.531
60.0, 906.665816207882, 6.602793371770531, -23.443562872242182, -26.74215463316068, -0.03200000151991844, 0.17600000835955143, 1.008000047877431, 0.0, 0.0, 0.0, 0.0, 0.0, 1.7632263285319011E9, 0.0, 2025-11-15 12:05:28.531
60.0, 711.2149046235718, -168.22256995690987, -180.34732561325654, -158.88029986759648, -0.03200000151991844, 0.17600000835955143, 1.008000047877431, 0.0, 0.0, 0.0, 0.0, 0.0, 1.7632263285319011E9, 0.0, 2025-11-15 12:05:28.531
61.0, 830.5251930099912, -82.30958817480132, -125.99909945717081, -111.69398212665692, -0.03200000151991844, 0.17600000835955143, 1.008000047877431, 0.0, 0.0, 0.0, 0.0, 0.0, 1.763226328545542E9, 0.0, 2025-11-15 12:05:28.545
61.0, 999.6060700067319, 82.89675246784464, 27.22086182748899, 21.51377449510619, -0.03200000151991844, 0.17600000835955143, 1.008000047877431, 0.0, 0.0, 0.0, 0.0, 0.0, 1.763226328545542E9, 0.0, 2025-11-15 12:05:28.545
62.0, 1221.3241689298302, -145.92902632104233, -162.96427061920986, -141.94977276818827, -0.03200000151991844, 0.17600000835955143, 1.008000047877431, 0.0, 0.0, 0.0, 0.0, 0.0, 1.7632263285611968E9, 0.0, 2025-11-15 12:05:28.561
62.0, 1243.6850307649001, -142.0170909673907, -180.26504781423137, -154.80380891589448, -0.03200000151991844, 0.17600000835955143, 1.008000047877431, 0.0, 0.0, 0.0, 0.0, 0.0, 1.7632263285611968E9, 0.0, 2025-11-15 12:05:28.561
63.0, 1009.5616836887784, 87.45943041378632, 10.892458620946854, -2.571181219536811, -0.03200000151991844, 0.17600000835955143, 1.008000047877431, 0.0, 0.0, 0.0, 0.0, 0.0, 1.7632263285619044E9, 0.0, 2025-11-15 12:05:28.561
63.0, 798.04790179478, -82.64617917081341, -110.29899944318458, -98.90726417815313, -0.03200000151991844, 0.17600000835955143, 1.008000047877431, 0.0, 0.0, 0.0, 0.0, 0.0, 1.7632263285619044E9, 0.0, 2025-11-15 12:05:28.561
64.0, 722.88713238528, -160.63805284677073, -191.08083848608658, -159.38144646165892, -0.03200000151991844, 0.17600000835955143, 1.008000047877431, 0.0, 0.0, 0.0, 0.0, 0.0, 1.7632263285755482E9, 0.0, 2025-11-15 12:05:28.575
64.0, 941.4431458958425, 17.57565984176472, -46.687041096854955, -46.10735660372302, -0.03200000151991844, 0.17600000835955143, 1.008000047877431, 0.0, 0.0, 0.0, 0.0, 0.0, 1.7632263285755482E9, 0.0, 2025-11-15 12:05:28.575
65.0, 916.2549196942709, 15.376598667819053, -23.56323967082426, -19.808380115311593, -0.03200000151991844, 0.17600000835955143, 1.008000047877431, 0.0, 0.0, 0.0, 0.0, 0.0, 1.7632263285912075E9, 0.0, 2025-11-15 12:05:28.591
65.0, 718.4291716380976, -161.92831833148375, -183.79925327235833, -152.41027294425294, -0.03200000151991844, 0.17600000835955143, 1.008000047877431, 0.0, 0.0, 0.0, 0.0, 0.0, 1.7632263285912075E9, 0.0, 2025-11-15 12:05:28.591
66.0, 817.7235154616646, -80.73883019341156, -128.31783742969856, -111.54438612842932, -0.03200000151991844, 0.17600000835955143, 1.008000047877431, 0.0, 0.0, 0.0, 0.0, 0.0, 1.7632263285918891E9, 0.0, 2025-11-15 12:05:28.591
66.0, 1006.6333420234732, 91.60323956469074, 31.835898372810334, 31.069218881893903, -0.03200000151991844, 0.17600000835955143, 1.008000047877431, 0.0, 0.0, 0.0, 0.0, 0.0, 1.7632263285918891E9, 0.0, 2025-11-15 12:05:28.591
67.0, 1211.5031916461885, -145.78317022277042, -169.43803744250908, -144.44428603863344, -0.03200000151991844, 0.17600000835955143, 1.008000047877431, 0.0, 0.0, 0.0, 0.0, 0.0, 1.7632263286055515E9, 0.0, 2025-11-15 12:05:28.605
67.0, 1244.6200057538226, -133.89028836367652, -171.9886492122896, -145.30072312848642, -0.03200000151991844, 0.17600000835955143, 1.008000047877431, 0.0, 0.0, 0.0, 0.0, 0.0, 1.7632263286055515E9, 0.0, 2025-11-15 12:05:28.605
68.0, 1016.5552966059186, 91.07965357089415, 21.94760288996622, 11.554420913103968, -0.03200000151991844, 0.17600000835955143, 1.008000047877431, 0.0, 0.0, 0.0, 0.0, 0.0, 1.7632263286211915E9, 0.0, 2025-11-15 12:05:28.621
68.0, 797.6926112989895, -85.06589444214478, -104.2889802143909, -89.95768358418718, -0.03200000151991844, 0.17600000835955143, 1.008000047877431, 0.0, 0.0, 0.0, 0.0, 0.0, 1.7632263286211915E9, 0.0, 2025-11-15 12:05:28.621
69.0, 719.1434925296344, -167.48954956559464, -193.35095775919035, -168.31232755584642, -0.03200000151991844, 0.17600000835955143, 1.008000047877431, 0.0, 0.0, 0.0, 0.0, 0.0, 1.763226328621898E9, 0.0, 2025-11-15 12:05:28.621
69.0, 940.2239385102876, 17.90851093782112, -44.5590380220674, -48.80756437173113, -0.03200000151991844, 0.17600000835955143, 1.008000047877431, 0.0, 0.0, 0.0, 0.0, 0.0, 1.763226328621898E9, 0.0, 2025-11-15 12:05:28.621
70.0, 904.5415530330501, 7.653705259319395, -27.643470522481948, -22.67314348137006, -0.03200000151991844, 0.17600000835955143, 1.0240000486373901, 0.0, 0.0, 0.0, 0.0, 0.0, 1.7632263286355708E9, 0.0, 2025-11-15 12:05:28.635
70.0, 707.4525652681477, -165.14837219333276, -186.98938793456182, -158.62224677065387, -0.03200000151991844, 0.17600000835955143, 1.0240000486373901, 0.0, 0.0, 0.0, 0.0, 0.0, 1.7632263286355708E9, 0.0, 2025-11-15 12:05:28.635
71.0, 831.9014761936851, -75.08784136036411, -119.93298172904179, -106.08039229316637, -0.03200000151991844, 0.17600000835955143, 1.0240000486373901, 0.0, 0.0, 0.0, 0.0, 0.0, 1.7632263286511836E9, 0.0, 2025-11-15 12:05:28.651
71.0, 1016.8507487024181, 93.20391674572602, 31.19263558043167, 25.410750248935074, -0.03200000151991844, 0.17600000835955143, 1.0240000486373901, 0.0, 0.0, 0.0, 0.0, 0.0, 1.7632263286511836E9, 0.0, 2025-11-15 12:05:28.651
72.0, 1201.5774971637875, 334.25355853978544, -167.7251632628031, -141.8263560696505, -0.03200000151991844, 0.17600000835955143, 1.0240000486373901, 0.0, 0.0, 0.0, 0.0, 0.0, 1.7632263286519096E9, 0.0, 2025-11-15 12:05:28.651
72.0, 1239.7693555112928, 343.41257353127, -177.12353185145184, -155.25259691057727, -0.03200000151991844, 0.17600000835955143, 1.0240000486373901, 0.0, 0.0, 0.0, 0.0, 0.0, 1.7632263286519096E9, 0.0, 2025-11-15 12:05:28.651
73.0, 1012.8976744492538, 571.9915189230815, 14.69593687588349, 4.665525194723159, -0.03200000151991844, 0.17600000835955143, 1.0240000486373901, 0.0, 0.0, 0.0, 0.0, 0.0, 1.7632263286657152E9, 0.0, 2025-11-15 12:05:28.665
73.0, 799.0988136823289, 407.6303956704214, -101.78324724407867, -86.49453622521833, -0.03200000151991844, 0.17600000835955143, 1.0240000486373901, 0.0, 0.0, 0.0, 0.0, 0.0, 1.7632263286657152E9, 0.0, 2025-11-15 12:05:28.665
74.0, 721.1331193060614, 329.784378092736, -186.3648246419616, -157.61995358252898, -0.03200000151991844, 0.17600000835955143, 1.0240000486373901, 0.0, 0.0, 0.0, 0.0, 0.0, 1.7632263286811872E9, 0.0, 2025-11-15 12:05:28.681
74.0, 942.4117799843661, 505.63447400927544, -43.95691412920132, -46.283131901640445, -0.03200000151991844, 0.17600000835955143, 1.0240000486373901, 0.0, 0.0, 0.0, 0.0, 0.0, 1.7632263286811872E9, 0.0, 2025-11-15 12:05:28.681
75.0, 913.7417069240473, 509.3631542650983, -17.93095033755526, -16.117098859045655, -0.03200000151991844, 0.17600000835955143, 1.0240000486373901, 0.0, 0.0, 0.0, 0.0, 0.0, 1.7632263286819212E9, 0.0, 2025-11-15 12:05:28.681
75.0, 700.5524498498999, 317.6970214359462, -192.90216976450756, -166.06838758243248, -0.03200000151991844, 0.17600000835955143, 1.0240000486373901, 0.0, 0.0, 0.0, 0.0, 0.0, 1.7632263286819212E9, 0.0, 2025-11-15 12:05:28.681
76.0, 823.1388905975036, 406.47850648406893, -132.25221218308434, -118.33978434791788, -0.03200000151991844, 0.17600000835955143, 1.0240000486373901, 0.0, 0.0, 0.0, 0.0, 0.0, 1.7632263286955647E9, 0.0, 2025-11-15 12:05:28.695
76.0, 1003.813457456883, 576.8758282652125, 33.27949975570664, 19.718622516375035, -0.03200000151991844, 0.17600000835955143, 1.0240000486373901, 0.0, 0.0, 0.0, 0.0, 0.0, 1.7632263286955647E9, 0.0, 2025-11-15 12:05:28.695
77.0, 1230.8609138168395, 352.048002528958, -150.1625930708833, -129.4921660157852, -0.03200000151991844, 0.17600000835955143, 1.0240000486373901, 0.0, 0.0, 0.0, 0.0, 0.0, 1.7632263287112415E9, 0.0, 2025-11-15 12:05:28.711
77.0, 1240.659451700747, 346.7859632913023, -169.89804513705894, -145.4951979261823, -0.03200000151991844, 0.17600000835955143, 1.0240000486373901, 0.0, 0.0, 0.0, 0.0, 0.0, 1.7632263287112415E9, 0.0, 2025-11-15 12:05:28.711
78.0, 1018.4327263836749, 584.1761129787192, 30.897183483932167, 13.181277393829077, -0.03200000151991844, 0.17600000835955143, 1.0240000486373901, 0.0, 0.0, 0.0, 0.0, 0.0, 1.7632263287119153E9, 0.0, 2025-11-15 12:05:28.711
78.0, 806.8217070908286, 419.6766134276986, -86.71893022255972, -73.19545198278502, -0.03200000151991844, 0.17600000835955143, 1.0240000486373901, 0.0, 0.0, 0.0, 0.0, 0.0, 1.7632263287119153E9, 0.0, 2025-11-15 12:05:28.711
79.0, 722.5393216894008, 321.4892799910158, -187.13150413287804, -157.74711018102244, -0.03200000151991844, 0.17600000835955143, 1.0240000486373901, 0.0, 0.0, 0.0, 0.0, 0.0, 1.7632263287255068E9, 0.0, 2025-11-15 12:05:28.725
79.0, 938.4474860313348, 512.0895413327962, -41.24922656128183, -42.266479349229485, -0.03200000151991844, 0.17600000835955143, 1.0240000486373901, 0.0, 0.0, 0.0, 0.0, 0.0, 1.7632263287255068E9, 0.0, 2025-11-15 12:05:28.725
80.0, 925.9562201793306, 519.9695105394349, -5.387325886171311, -5.8548133806325495, -0.03200000151991844, 0.17600000835955143, 1.0240000486373901, 0.0, 0.0, 0.0, 0.0, 0.0, 1.7632263287413225E9, 0.0, 2025-11-15 12:05:28.741
80.0, 726.4175979434513, 331.88246196787804, -172.33272000821307, -142.72767195897177, -0.03200000151991844, 0.17600000835955143, 1.0240000486373901, 0.0, 0.0, 0.0, 0.0, 0.0, 1.7632263287413225E9, 0.0, 2025-11-15 12:05:28.741
81.0, 842.6088097668253, 430.14459340367466, -106.12153119267896, -91.7266562632285, -0.03200000151991844, 0.17600000835955143, 1.0240000486373901, 0.0, 0.0, 0.0, 0.0, 0.0, 1.7632263287419136E9, 0.0, 2025-11-15 12:05:28.741
81.0, 1023.3207756257616, 599.9996296912432, 53.76667171297595, 43.493166534695774, -0.03200000151991844, 0.17600000835955143, 1.0240000486373901, 0.0, 0.0, 0.0, 0.0, 0.0, 1.7632263287419136E9, 0.0, 2025-11-15 12:05:28.741
82.0, 1232.831841093488, 370.30619411263615, -134.69810675410554, -112.44944191770628, -0.03200000151991844, 0.17600000835955143, 1.0240000486373901, 0.0, 0.0, 0.0, 0.0, 0.0, 1.7632263287555187E9, 0.0, 2025-11-15 12:05:28.755
82.0, 1265.7953193029389, 386.0287335263565, -136.13048843713477, -115.12347038602456, -0.03200000151991844, 0.17600000835955143, 1.0240000486373901, 0.0, 0.0, 0.0, 0.0, 0.0, 1.7632263287555187E9, 0.0, 2025-11-15 12:05:28.755
83.0, 1046.56799375033, 625.0681790942326, 69.91929962160066, 48.257799078244716, -0.03200000151991844, 0.17600000835955143, 1.0240000486373901, 0.0, 0.0, 0.0, 0.0, 0.0, 1.7632263287712271E9, 0.0, 2025-11-15 12:05:28.771
83.0, 825.8390983655117, 444.26271573640406, -64.57872248487547, -56.23500568373129, -0.03200000151991844, 0.17600000835955143, 1.0240000486373901, 0.0, 0.0, 0.0, 0.0, 0.0, 1.7632263287712271E9, 0.0, 2025-11-15 12:05:28.771
84.0, 744.500014229212, 354.4377986006439, -155.798622304108, -133.2283260715194, -0.03200000151991844, 0.17600000835955143, 1.0240000486373901, 0.0, 0.0, 0.0, 0.0, 0.0, 1.7632263287719064E9, 0.0, 2025-11-15 12:05:28.771
84.0, 945.3102024500258, 526.697590559721, -26.226048439275473, -36.06946512265131, -0.03200000151991844, 0.17600000835955143, 1.0240000486373901, 0.0, 0.0, 0.0, 0.0, 0.0, 1.7632263287719064E9, 0.0, 2025-11-15 12:05:28.771
85.0, 936.9777053487487, 535.1647240594029, 13.439330490771681, 8.177291253115982, -0.03200000151991844, 0.17600000835955143, 1.0240000486373901, 0.0, 0.0, 0.0, 0.0, 0.0, 1.763226328785534E9, 0.0, 2025-11-15 12:05:28.785
85.0, 728.5119419186376, 344.32510912045836, -159.08599436515942, -141.33642917545512, -0.03200000151991844, 0.17600000835955143, 1.0240000486373901, 0.0, 0.0, 0.0, 0.0, 0.0, 1.763226328785534E9, 0.0, 2025-11-15 12:05:28.785
86.0, 842.1114030727185, 435.45899124071, -97.89749119011685, -92.12308565853164, -0.03200000151991844, 0.17600000835955143, 1.0240000486373901, 0.0, 0.0, 0.0, 0.0, 0.0, 1.763226328801212E9, 0.0, 2025-11-15 12:05:28.801
86.0, 1016.1252081110142, 596.3083484349772, 50.42694105254486, 27.23582142731175, -0.03200000151991844, 0.17600000835955143, 1.0240000486373901, 0.0, 0.0, 0.0, 0.0, 0.0, 1.763226328801212E9, 0.0, 2025-11-15 12:05:28.801
87.0, 1228.044769150205, 360.4739971291274, -146.59846841311082, -133.13856847258285, -0.03200000151991844, 0.17600000835955143, 1.0240000486373901, 0.0, 0.0, 0.0, 0.0, 0.0, 1.763226328801908E9, 0.0, 2025-11-15 12:05:28.801
87.0, 1251.2471084753051, 367.37411254737526, -158.2033779756166, -141.15317407762632, -0.03200000151991844, 0.17600000835955143, 1.0240000486373901, 0.0, 0.0, 0.0, 0.0, 0.0, 1.763226328801908E9, 0.0, 2025-11-15 12:05:28.801
88.0, 1029.383153453935, 600.6915111830458, 42.281438949052244, 26.600038434844464, -0.03200000151991844, 0.17600000835955143, 1.0240000486373901, 0.0, 0.0, 0.0, 0.0, 0.0, 1.763226328815548E9, 0.0, 2025-11-15 12:05:28.815
88.0, 808.0895331758074, 423.03130368795246, -83.95140425534919, -80.99688329035416, -0.03200000151991844, 0.17600000835955143, 1.0240000486373901, 0.0, 0.0, 0.0, 0.0, 0.0, 1.763226328815548E9, 0.0, 2025-11-15 12:05:28.815
89.0, 735.6514109340496, 345.0880487114191, -171.5099420179613, -153.10963423596695, -0.03200000151991844, 0.17600000835955143, 1.0240000486373901, 0.0, 0.0, 0.0, 0.0, 0.0, 1.763226328831247E9, 0.0, 2025-11-15 12:05:28.831
89.0, 936.9889250486158, 512.2204378312454, -36.667849115561694, -40.10107727488503, -0.03200000151991844, 0.17600000835955143, 1.0240000486373901, 0.0, 0.0, 0.0, 0.0, 0.0, 1.763226328831247E9, 0.0, 2025-11-15 12:05:28.831
90.0, 922.1789212240838, 515.6050472911447, -10.772781822364777, -7.45175066171214, -0.03200000151991844, 0.17600000835955143, 1.0240000486373901, 0.0, 0.0, 0.0, 0.0, 0.0, 1.7632263288318968E9, 0.0, 2025-11-15 12:05:28.831
90.0, 711.5327961198054, 326.4222080325708, -179.96959571773186, -161.7974218330346, -0.03200000151991844, 0.17600000835955143, 1.0240000486373901, 0.0, 0.0, 0.0, 0.0, 0.0, 1.7632263288318968E9, 0.0, 2025-11-15 12:05:28.831
91.0, 836.497813239228, 423.7231851797551, -110.98340113507584, -101.43169664824381, -0.03200000151991844, 0.17600000835955143, 1.0240000486373901, 0.0, 0.0, 0.0, 0.0, 0.0, 1.7632263288455036E9, 0.0, 2025-11-15 12:05:28.845
91.0, 1010.2161661810242, 587.9571518339217, 42.266479349229485, 25.49676794791594, -0.03200000151991844, 0.17600000835955143, 1.0240000486373901, 0.0, 0.0, 0.0, 0.0, 0.0, 1.7632263288455036E9, 0.0, 2025-11-15 12:05:28.845
92.0, 1227.8951731519774, 353.14753311593086, -148.96582508506253, -129.90729491086677, -0.03200000151991844, 0.17600000835955143, 1.0240000486373901, 0.0, 0.0, 0.0, 0.0, 0.0, 1.7632263288612185E9, 0.0, 2025-11-15 12:05:28.861
92.0, 1246.0224682372063, 356.22547077946365, -165.14837219333276, -144.42932643881068, -0.03200000151991844, 0.17600000835955143, 1.0240000486373901, 0.0, 0.0, 0.0, 0.0, 0.0, 1.7632263288612185E9, 0.0, 2025-11-15 12:05:28.861
93.0, 1021.0992750520818, 586.9436389459297, 29.348864902276546, 18.458276231307536, -0.03200000151991844, 0.17600000835955143, 1.0240000486373901, 0.0, 0.0, 0.0, 0.0, 0.0, 1.7632263288618948E9, 0.0, 2025-11-15 12:05:28.861
93.0, 811.9865089296363, 426.5729889459908, -79.62434000661597, -64.33188908779994, -0.03200000151991844, 0.17600000835955143, 1.0240000486373901, 0.0, 0.0, 0.0, 0.0, 0.0, 1.7632263288618948E9, 0.0, 2025-11-15 12:05:28.861
94.0, 732.8427460673265, 340.65626726392657, -172.12328561069444, -152.0923814480193, -0.03200000151991844, 0.17600000835955143, 1.0240000486373901, 0.0, 0.0, 0.0, 0.0, 0.0, 1.763226328875589E9, 0.0, 2025-11-15 12:05:28.875
94.0, 928.4619531496428, 504.63592072110623, -48.80756437173113, -57.558930268045515, -0.03200000151991844, 0.17600000835955143, 1.0240000486373901, 0.0, 0.0, 0.0, 0.0, 0.0, 1.763226328875589E9, 0.0, 2025-11-15 12:05:28.875
95.0, 918.9887865618803, 511.5061169397086, -11.86483260942623, -17.07825314765796, -0.03200000151991844, 0.17600000835955143, 1.0240000486373901, 0.0, 0.0, 0.0, 0.0, 0.0, 1.763226328891214E9, 0.0, 2025-11-15 12:05:28.891
95.0, 715.6541658709757, 333.7075331462547, -171.18457072181627, -148.57687548967078, -0.03200000151991844, 0.17600000835955143, 1.0240000486373901, 0.0, 0.0, 0.0, 0.0, 0.0, 1.763226328891214E9, 0.0, 2025-11-15 12:05:28.891
96.0, 838.9736270098947, 422.5413767937571, -114.18849539710209, -105.25761430291459, -0.03200000151991844, 0.17600000835955143, 1.0240000486373901, 0.0, 0.0, 0.0, 0.0, 0.0, 1.7632263288918896E9, 0.0, 2025-11-15 12:05:28.891
96.0, 1026.4660314884968, 600.2090640887618, 48.54577137483284, 33.97512114746496, -0.03200000151991844, 0.17600000835955143, 1.0240000486373901, 0.0, 0.0, 0.0, 0.0, 0.0, 1.7632263288918896E9, 0.0, 2025-11-15 12:05:28.891
97.0, 1215.9499326935038, 843.1922341599129, -151.58749495400116, -134.17826066026464, -0.03200000151991844, 0.17600000835955143, 1.0240000486373901, 0.0, 0.0, 0.0, 0.0, 0.0, 1.7632263289055555E9, 0.0, 2025-11-15 12:05:28.905
97.0, 1248.8834917033091, 852.586862848606, -153.65939952945337, -144.3096496402286, -0.03200000151991844, 0.17600000835955143, 1.0240000486373901, 0.0, 0.0, 0.0, 0.0, 0.0, 1.7632263289055555E9, 0.0, 2025-11-15 12:05:28.905
98.0, 1018.0961353876628, 1077.4408678845502, 31.5516659761779, 12.081746806856245, -0.03200000151991844, 0.17600000835955143, 1.0240000486373901, 0.0, 0.0, 0.0, 0.0, 0.0, 1.7632263289211812E9, 0.0, 2025-11-15 12:05:28.921
98.0, 818.43035655329, 919.8788827513345, -82.8331741685979, -67.45470555080101, -0.03200000151991844, 0.17600000835955143, 1.0240000486373901, 0.0, 0.0, 0.0, 0.0, 0.0, 1.7632263289211812E9, 0.0, 2025-11-15 12:05:28.921
99.0, 738.6246313988231, 832.8401910825633, -172.37011900776997, -148.80500938696787, -0.03200000151991844, 0.17600000835955143, 1.0240000486373901, 0.0, 0.0, 0.0, 0.0, 0.0, 1.7632263289218843E9, 0.0, 2025-11-15 12:05:28.921
99.0, 928.7087865467183, 995.4248618562706, -47.58461708622053, -54.380015305709094, -0.03200000151991844, 0.17600000835955143, 1.0240000486373901, 0.0, 0.0, 0.0, 0.0, 0.0, 1.7632263289218843E9, 0.0, 2025-11-15 12:05:28.921
100.0, 924.5948965954594, 1016.2224455098622, -1.9129588273353875, -5.787495181430131, -0.03200000151991844, 0.17600000835955143, 1.0240000486373901, 0.0, 0.0, 0.0, 0.0, 0.0, 1.7632263289362068E9, 0.0, 2025-11-15 12:05:28.936
100.0, 717.1276864535175, 820.782753625419, -174.2475487855263, -152.74312404030934, -0.03200000151991844, 0.17600000835955143, 1.0240000486373901, 0.0, 0.0, 0.0, 0.0, 0.0, 1.7632263289362068E9, 0.0, 2025-11-15 12:05:28.936
0.0, -149.22013828204945, -65.90638696914539, -109.96614834712818, -102.85472858138382, -0.03200000151991844, 0.17600000835955143, 1.0240000486373901, 0.0, 0.0, 0.0, 0.0, 0.0, 1.7632263289369009E9, 0.0, 2025-11-15 12:05:28.936
1.0, 29.296506302896887, 97.59829919366166, 39.454074582550675, 31.239384329877794, -0.03200000151991844, 0.17600000835955143, 1.0240000486373901, 0.0, 0.0, 0.0, 0.0, 0.0, 1.763226328950534E9, 0.0, 2025-11-15 12:05:28.950
1.0, 246.69128087721765, -133.99874546239153, -146.80790281062946, -124.6134665235877, -0.03200000151991844, 0.17600000835955143, 1.0240000486373901, 0.0, 0.0, 0.0, 0.0, 0.0, 1.763226328950534E9, 0.0, 2025-11-15 12:05:28.950
2.0, 269.7627237038687, -130.9694264982827, -160.2453633514233, -138.16312406305224, -0.03200000151991844, 0.17600000835955143, 1.0240000486373901, 0.0, 0.0, 0.0, 0.0, 0.0, 1.763226328966189E9, 0.0, 2025-11-15 12:05:28.966
2.0, 37.13159671006724, 100.34338576113805, 29.251627503428608, 15.935713711194694, -0.03200000151991844, 0.17600000835955143, 1.0240000486373901, 0.0, 0.0, 0.0, 0.0, 0.0, 1.763226328966189E9, 0.0, 2025-11-15 12:05:28.966
3.0, -158.6072871708311, -61.957052615936846, -79.78515570471063, -66.89185060746968, -0.03200000151991844, 0.17600000835955143, 1.0240000486373901, 0.0, 0.0, 0.0, 0.0, 0.0, 1.7632263289669054E9, 0.0, 2025-11-15 12:05:28.966
3.0, -255.96436281735078, -159.07851456524804, -179.83121941937134, -144.67054998595268, -0.03200000151991844, 0.17600000835955143, 1.0240000486373901, 0.0, 0.0, 0.0, 0.0, 0.0, 1.7632263289669054E9, 0.0, 2025-11-15 12:05:28.966
4.0, -44.244886425789446, 20.062693312298506, -40.699461267795414, -38.408772544935346, -0.03200000151991844, 0.17600000835955143, 1.0240000486373901, 0.0, 0.0, 0.0, 0.0, 0.0, 1.7632263289805117E9, 0.0, 2025-11-15 12:05:28.980
4.0, -59.07358975009993, 28.208195415791124, -8.614859547931701, -6.013759128749371, -0.03200000151991844, 0.17600000835955143, 1.0240000486373901, 0.0, 0.0, 0.0, 0.0, 0.0, 1.7632263289805117E9, 0.0, 2025-11-15 12:05:28.980
5.0, -260.1081719682552, -151.84554805094376, -172.85630600200966, -151.7726200018078, -0.03200000151991844, 0.17600000835955143, 1.0240000486373901, 0.0, 0.0, 0.0, 0.0, 0.0, 1.763226328996232E9, 0.0, 2025-11-15 12:05:28.996
5.0, -148.0495495959185, -69.75100412359461, -117.91717565292493, -107.11821453087032, -0.03200000151991844, 0.17600000835955143, 1.0240000486373901, 0.0, 0.0, 0.0, 0.0, 0.0, 1.763226328996232E9, 0.0, 2025-11-15 12:05:28.996
6.0, 41.30158516066149, 111.73512102616951, 51.39557514106855, 34.758630188181996, -0.03200000151991844, 0.17600000835955143, 1.0240000486373901, 0.0, 0.0, 0.0, 0.0, 0.0, 1.7632263289968896E9, 0.0, 2025-11-15 12:05:28.996
6.0, 265.1551669584587, -116.7428470668383, -134.63078855490312, -115.28989593405277, -0.03200000151991844, 0.17600000835955143, 1.0240000486373901, 0.0, 0.0, 0.0, 0.0, 0.0, 1.7632263289968896E9, 0.0, 2025-11-15 12:05:28.996
7.0, 263.6068483768031, -135.02347805025056, -167.3549131671898, -142.2171756150201, -0.03200000151991844, 0.17600000835955143, 1.0240000486373901, 0.0, 0.0, 0.0, 0.0, 0.0, 1.763226329010497E9, 0.0, 2025-11-15 12:05:29.010
7.0, 43.26503263739869, 95.98266241280362, 37.65518270386383, 18.220792584121227, -0.03200000151991844, 0.17600000835955143, 1.0240000486373901, 0.0, 0.0, 0.0, 0.0, 0.0, 1.763226329010497E9, 0.0, 2025-11-15 12:05:29.010
8.0, -163.4654172132723, -59.22692564828321, -81.25867628725246, -71.76868014968932, -0.03200000151991844, 0.17600000835955143, 1.0240000486373901, 0.0, 0.0, 0.0, 0.0, 0.0, 1.763226329026228E9, 0.0, 2025-11-15 12:05:29.026
8.0, -259.6219849740155, -157.5750747830607, -178.7316888323985, -155.95756805222481, -0.03200000151991844, 0.17600000835955143, 1.0240000486373901, 0.0, 0.0, 0.0, 0.0, 0.0, 1.763226329026228E9, 0.0, 2025-11-15 12:05:29.026
9.0, -48.325117277447134, 22.112158488016576, -37.774859502445906, -41.258576311171055, -0.03200000151991844, 0.17600000835955143, 1.0240000486373901, 0.0, 0.0, 0.0, 0.0, 0.0, 1.763226329026902E9, 0.0, 2025-11-15 12:05:29.026
9.0, -56.99420537473634, 31.910696371924132, -5.4546440853737295, -7.3451635129749775, -0.03200000151991844, 0.17600000835955143, 1.0240000486373901, 0.0, 0.0, 0.0, 0.0, 0.0, 1.763226329026902E9, 0.0, 2025-11-15 12:05:29.026
10.0, -273.0070869154297, -170.283254832495, -184.1059250687249, -165.41951494012028, -0.03200000151991844, 0.17600000835955143, 1.0240000486373901, 0.0, 0.0, 0.0, 0.0, 0.0, 1.7632263290405526E9, 0.0, 2025-11-15 12:05:29.040
10.0, -150.3084491691552, -72.69056548876688, -119.43183513497934, -110.30460929311812, -0.03200000151991844, 0.17600000835955143, 1.0240000486373901, 0.0, 0.0, 0.0, 0.0, 0.0, 1.7632263290405526E9, 0.0, 2025-11-15 12:05:29.040
11.0, 33.859184248838574, 99.41963047208264, 42.700307744089514, 28.647633660584688, -0.03200000151991844, 0.17600000835955143, 1.0240000486373901, 0.0, 0.0, 0.0, 0.0, 0.0, 1.7632263290562232E9, 0.0, 2025-11-15 12:05:29.056
11.0, 241.69477453641593, -137.35343572264537, -147.96727179689333, -128.30474777985364, -0.03200000151991844, 0.17600000835955143, 1.0240000486373901, 0.0, 0.0, 0.0, 0.0, 0.0, 1.7632263290562232E9, 0.0, 2025-11-15 12:05:29.056
12.0, 269.7515040040016, -129.79135801224038, -161.22521713981405, -140.67633683327585, -0.03200000151991844, 0.17600000835955143, 1.0240000486373901, 0.0, 0.0, 0.0, 0.0, 0.0, 1.76322632905693E9, 0.0, 2025-11-15 12:05:29.056
12.0, 33.436575553845614, 93.90701793739572, 28.668203110340983, 12.274351654574275, -0.03200000151991844, 0.17600000835955143, 1.0240000486373901, 0.0, 0.0, 0.0, 0.0, 0.0, 1.76322632905693E9, 0.0, 2025-11-15 12:05:29.056
13.0, -183.04379348130897, -74.76994986413047, -93.97433613659814, -81.12964973878115, -0.03200000151991844, 0.17600000835955143, 1.0240000486373901, 0.0, 0.0, 0.0, 0.0, 0.0, 1.7632263290705428E9, 0.0, 2025-11-15 12:05:29.070
13.0, -264.91020351136103, -165.3241474912502, -189.0762521098368, -163.20923406630754, -0.03200000151991844, 0.17600000835955143, 1.0240000486373901, 0.0, 0.0, 0.0, 0.0, 0.0, 1.7632263290705428E9, 0.0, 2025-11-15 12:05:29.070
14.0, -49.076837168540806, 9.553574436809868, -53.05235082143918, -53.47682946640998, -0.03200000151991844, 0.17600000835955143, 1.0240000486373901, 0.0, 0.0, 0.0, 0.0, 0.0, 1.763226329086226E9, 0.0, 2025-11-15 12:05:29.086
14.0, -59.01375135080889, 23.439822972286493, -18.024447836447507, -20.255298160016537, -0.03200000151991844, 0.17600000835955143, 1.0240000486373901, 0.0, 0.0, 0.0, 0.0, 0.0, 1.763226329086226E9, 0.0, 2025-11-15 12:05:29.086
15.0, -281.13388951914385, -175.3994379718788, -188.2946130190976, -167.55499781481922, -0.03200000151991844, 0.17600000835955143, 1.0240000486373901, 0.0, 0.0, 0.0, 0.0, 0.0, 1.7632263290869308E9, 0.0, 2025-11-15 12:05:29.086
15.0, -163.08020751783624, -87.95309720793739, -135.10201594932005, -121.74122335761786, -0.03200000151991844, 0.17600000835955143, 1.0240000486373901, 0.0, 0.0, 0.0, 0.0, 0.0, 1.7632263290869308E9, 0.0, 2025-11-15 12:05:29.086
16.0, 23.97462866595015, 87.97553660767153, 33.58243165211752, 27.103054978884757, -0.03200000151991844, 0.17600000835955143, 1.0240000486373901, 0.0, 0.0, 0.0, 0.0, 0.0, 1.7632263291005092E9, 0.0, 2025-11-15 12:05:29.100
16.0, 244.35384340491146, -141.9722121679224, -152.58978814212605, -129.4641167661175, -0.03200000151991844, 0.17600000835955143, 1.0240000486373901, 0.0, 0.0, 0.0, 0.0, 0.0, 1.7632263291005092E9, 0.0, 2025-11-15 12:05:29.100
17.0, 254.98637897893786, -144.17875314177945, -176.53636755840853, -145.22405517939478, -0.03200000151991844, 0.17600000835955143, 1.0240000486373901, 0.0, 0.0, 0.0, 0.0, 0.0, 1.7632263291162703E9, 0.0, 2025-11-15 12:05:29.116
17.0, 22.815259679686278, 78.37147352145985, 9.669511335436255, -1.0546517875045538, -0.03200000151991844, 0.17600000835955143, 1.0240000486373901, 0.0, 0.0, 0.0, 0.0, 0.0, 1.7632263291162703E9, 0.0, 2025-11-15 12:05:29.116
18.0, -174.05681388778612, -80.85850699199364, -101.94032304221764, -88.51221225131303, -0.03200000151991844, 0.17600000835955143, 1.0240000486373901, 0.0, 0.0, 0.0, 0.0, 0.0, 1.763226329116946E9, 0.0, 2025-11-15 12:05:29.116
18.0, -277.5248860619031, -173.55566729372367, -195.28074613632634, -165.87578273471445, -0.03200000151991844, 0.17600000835955143, 1.0240000486373901, 0.0, 0.0, 0.0, 0.0, 0.0, 1.763226329116946E9, 0.0, 2025-11-15 12:05:29.116
19.0, -59.675713642966, 4.7702423934824765, -59.567256544250995, -59.412050696089864, -0.03200000151991844, 0.17600000835955143, 1.0240000486373901, 0.0, 0.0, 0.0, 0.0, 0.0, 1.7632263291305256E9, 0.0, 2025-11-15 12:05:29.130
19.0, -66.28037696471438, 19.11275872355327, -19.733582116197795, -25.476198498159647, -0.03200000151991844, 0.17600000835955143, 1.0240000486373901, 0.0, 0.0, 0.0, 0.0, 0.0, 1.7632263291305256E9, 0.0, 2025-11-15 12:05:29.130
20.0, -266.7651938893832, -162.8745130202733, -177.01881465269253, -157.49840683396906, -0.03200000151991844, 0.17600000835955143, 1.0240000486373901, 0.0, 0.0, 0.0, 0.0, 0.0, 1.763226329146286E9, 0.0, 2025-11-15 12:05:29.146
20.0, -163.58509401185438, -81.62892638286576, -125.82332415925339, -114.99444383755326, -0.03200000151991844, 0.17600000835955143, 1.0240000486373901, 0.0, 0.0, 0.0, 0.0, 0.0, 1.763226329146286E9, 0.0, 2025-11-15 12:05:29.146
21.0, 26.79825313249603, 92.22032305737957, 33.59365135198459, 29.077722155489028, -0.03200000151991844, 0.17600000835955143, 1.0240000486373901, 0.0, 0.0, 0.0, 0.0, 0.0, 1.7632263291469615E9, 0.0, 2025-11-15 12:05:29.146
21.0, 241.1936279423535, -143.99175814399496, -157.49279698403552, -131.03113484755158, -0.03200000151991844, 0.17600000835955143, 1.0240000486373901, 0.0, 0.0, 0.0, 0.0, 0.0, 1.7632263291469615E9, 0.0, 2025-11-15 12:05:29.146
22.0, 250.55833743140101, -150.49170426698402, -180.30618671374395, -158.06687162723392, -0.03200000151991844, 0.17600000835955143, 1.0240000486373901, 0.0, 0.0, 0.0, 0.0, 0.0, 1.7632263291605315E9, 0.0, 2025-11-15 12:05:29.160
22.0, 32.48664096510038, 91.68551736371592, 20.560100006405264, 10.277245078235865, -0.03200000151991844, 0.17600000835955143, 1.0240000486373901, 0.0, 0.0, 0.0, 0.0, 0.0, 1.7632263291605315E9, 0.0, 2025-11-15 12:05:29.160
23.0, -183.92640987085178, -80.54435539571568, -100.13395136361942, -94.10336268506944, -0.03200000151991844, 0.17600000835955143, 1.0240000486373901, 0.0, 0.0, 0.0, 0.0, 0.0, 1.7632263291762455E9, 0.0, 2025-11-15 12:05:29.176
23.0, -260.27646746626124, -163.48411671305075, -182.85305858356878, -157.13189663831145, -0.03200000151991844, 0.17600000835955143, 1.0240000486373901, 0.0, 0.0, 0.0, 0.0, 0.0, 1.7632263291762455E9, 0.0, 2025-11-15 12:05:29.176
24.0, -63.09024230251089, 7.780861857812852, -52.345509729813784, -52.05192758329213, -0.03200000151991844, 0.17600000835955143, 1.0240000486373901, 0.0, 0.0, 0.0, 0.0, 0.0, 1.763226329176941E9, 0.0, 2025-11-15 12:05:29.176
24.0, -72.07348199607804, 15.724409363698214, -17.1754905465059, -15.038137721829116, -0.03200000151991844, 0.17600000835955143, 1.0240000486373901, 0.0, 0.0, 0.0, 0.0, 0.0, 1.763226329176941E9, 0.0, 2025-11-15 12:05:29.176
25.0, -278.1980680539273, -172.104586110916, -184.08722556894645, -157.4423083346337, -0.03200000151991844, 0.17600000835955143, 1.0240000486373901, 0.0, 0.0, 0.0, 0.0, 0.0, 1.7632263291905408E9, 0.0, 2025-11-15 12:05:29.190
25.0, -160.0583683536388, -79.97963050240651, -127.2295265425928, -110.05777589604259, -0.03200000151991844, 0.17600000835955143, 1.0240000486373901, 0.0, 0.0, 0.0, 0.0, 0.0, 1.7632263291905408E9, 0.0, 2025-11-15 12:05:29.190
26.0, 20.216029210481793, 81.40827228548005, 24.427156560588628, 16.16010770853609, -0.03200000151991844, 0.17600000835955143, 1.0240000486373901, 0.0, 0.0, 0.0, 0.0, 0.0, 1.7632263292062776E9, 0.0, 2025-11-15 12:05:29.206
26.0, 242.296898429282, -146.88270080974326, -163.84688700875267, -136.0650401879102, -0.03200000151991844, 0.17600000835955143, 1.0240000486373901, 0.0, 0.0, 0.0, 0.0, 0.0, 1.7632263292062776E9, 0.0, 2025-11-15 12:05:29.206
27.0, 260.9702189080417, -145.5288570257835, -178.3576988368295, -149.52120022848248, -0.03200000151991844, 0.17600000835955143, 1.0240000486373901, 0.0, 0.0, 0.0, 0.0, 0.0, 1.763226329206946E9, 0.0, 2025-11-15 12:05:29.206
27.0, 20.593759106006473, 83.53627536026761, 14.26210848102346, 1.043432087637484, -0.03200000151991844, 0.17600000835955143, 1.0240000486373901, 0.0, 0.0, 0.0, 0.0, 0.0, 1.763226329206946E9, 0.0, 2025-11-15 12:05:29.206
28.0, -165.6121197878383, -58.8230164530687, -80.54061549576, -69.48734117671847, -0.03200000151991844, 0.17600000835955143, 1.0240000486373901, 0.0, 0.0, 0.0, 0.0, 0.0, 1.7632263292205632E9, 0.0, 2025-11-15 12:05:29.220
28.0, -266.4772215927951, -155.9482183023356, -181.34587890142575, -157.80507863033563, -0.03200000151991844, 0.17600000835955143, 1.0240000486373901, 0.0, 0.0, 0.0, 0.0, 0.0, 1.7632263292205632E9, 0.0, 2025-11-15 12:05:29.220
29.0, -68.11666784295812, 5.42098498577252, -51.97899953415617, -54.961569748818874, -0.03200000151991844, 0.17600000835955143, 1.0240000486373901, 0.0, 0.0, 0.0, 0.0, 0.0, 1.763226329236248E9, 0.0, 2025-11-15 12:05:29.236
29.0, -57.37567517021671, 26.502801035996526, -10.174397829454392, -8.321277401410043, -0.03200000151991844, 0.17600000835955143, 1.0240000486373901, 0.0, 0.0, 0.0, 0.0, 0.0, 1.763226329236248E9, 0.0, 2025-11-15 12:05:29.236
30.0, -263.5974986269139, -159.23185046343133, -178.38387813651934, -153.93428217619658, -0.03200000151991844, 0.17600000835955143, 1.0240000486373901, 0.0, 0.0, 0.0, 0.0, 0.0, 1.76322632923694E9, 0.0, 2025-11-15 12:05:29.236
30.0, -163.0577681181021, -90.63834537612274, -133.3442629701458, -108.8647478101775, -0.03200000151991844, 0.17600000835955143, 1.0240000486373901, 0.0, 0.0, 0.0, 0.0, 0.0, 1.76322632923694E9, 0.0, 2025-11-15 12:05:29.236
31.0, 28.32413231441751, 82.44048467325047, 20.69099650485441, 13.515998439863324, -0.03200000151991844, 0.17600000835955143, 1.0240000486373901, 0.0, 0.0, 0.0, 0.0, 0.0, 1.7632263292505264E9, 0.0, 2025-11-15 12:05:29.250
31.0, 253.32212349865586, -137.39831452211365, -158.59232757100835, -131.4350440427661, -0.03200000151991844, 0.17600000835955143, 1.0240000486373901, 0.0, 0.0, 0.0, 0.0, 0.0, 1.7632263292505264E9, 0.0, 2025-11-15 12:05:29.250
32.0, 250.11328933667392, -143.39711405104026, -176.05018056416884, -152.16530949715525, -0.03200000151991844, 0.17600000835955143, 1.0240000486373901, 0.0, 0.0, 0.0, 0.0, 0.0, 1.763226329266228E9, 0.0, 2025-11-15 12:05:29.266
32.0, 25.451889148447663, 90.67574437567964, 21.760607892181724, 9.394628688693047, -0.03200000151991844, 0.17600000835955143, 1.0240000486373901, 0.0, 0.0, 0.0, 0.0, 0.0, 1.763226329266228E9, 0.0, 2025-11-15 12:05:29.266
33.0, -158.69704476976767, -59.49619844509289, -78.40513262106106, -61.49891487136483, -0.03200000151991844, 0.17600000835955143, 1.0240000486373901, 0.0, 0.0, 0.0, 0.0, 0.0, 1.7632263292669306E9, 0.0, 2025-11-15 12:05:29.266
33.0, -262.8495186357759, -163.3195611150004, -184.92870305897668, -153.19004208501428, -0.03200000151991844, 0.17600000835955143, 1.0240000486373901, 0.0, 0.0, 0.0, 0.0, 0.0, 1.7632263292669306E9, 0.0, 2025-11-15 12:05:29.266
34.0, -59.129688249435276, 3.2817622111178935, -59.00253165094182, -46.63281254749745, -0.03200000151991844, 0.17600000835955143, 1.0240000486373901, 0.0, 0.0, 0.0, 0.0, 0.0, 1.7632263292806172E9, 0.0, 2025-11-15 12:05:29.280
34.0, -57.592589367646724, 26.00165444193408, -12.923224296886474, -6.604663321748376, -0.03200000151991844, 0.17600000835955143, 1.0240000486373901, 0.0, 0.0, 0.0, 0.0, 0.0, 1.7632263292806172E9, 0.0, 2025-11-15 12:05:29.280
35.0, -271.2680334360339, -170.60114632872865, -183.56363957514986, -146.75741416122764, -0.03200000151991844, 0.17600000835955143, 1.0240000486373901, 0.0, 0.0, 0.0, 0.0, 0.0, 1.7632263292962887E9, 0.0, 2025-11-15 12:05:29.296
35.0, -163.27094241557643, -84.88637924427167, -126.5226854509674, -100.97729880362749, -0.03200000151991844, 0.17600000835955143, 1.0240000486373901, 0.0, 0.0, 0.0, 0.0, 0.0, 1.7632263292962887E9, 0.0, 2025-11-15 12:05:29.296
36.0, 24.273820662405342, 92.24276245711371, 31.431989177595824, 25.105948402546346, -0.03200000151991844, 0.17600000835955143, 1.0240000486373901, 0.0, 0.0, 0.0, 0.0, 0.0, 1.7632263292969344E9, 0.0, 2025-11-15 12:05:29.296
36.0, 235.05645211506635, -142.06196976685897, -157.67231218190864, -130.45893015433103, -0.03200000151991844, 0.17600000835955143, 1.0240000486373901, 0.0, 0.0, 0.0, 0.0, 0.0, 1.7632263292969344E9, 0.0, 2025-11-15 12:05:29.296
37.0, 246.14525548368692, -149.22387818200514, -176.2184760621749, -151.64172350335866, -0.03200000151991844, 0.17600000835955143, 1.0240000486373901, 0.0, 0.0, 0.0, 0.0, 0.0, 1.7632263293105478E9, 0.0, 2025-11-15 12:05:29.310
37.0, 25.1414774521254, 83.55497486004606, 16.191896858159453, 13.613235838711262, -0.03200000151991844, 0.17600000835955143, 1.0240000486373901, 0.0, 0.0, 0.0, 0.0, 0.0, 1.7632263293105478E9, 0.0, 2025-11-15 12:05:29.310
38.0, -166.5096957772039, -70.91037310985848, -90.44387057842687, -69.95482867117971, -0.03200000151991844, 0.17600000835955143, 1.0240000486373901, 0.0, 0.0, 0.0, 0.0, 0.0, 1.76322632932631E9, 0.0, 2025-11-15 12:05:29.326
38.0, -265.1345975087024, -165.74301628628746, -185.2166753555648, -153.38451688271016, -0.03200000151991844, 0.17600000835955143, 1.0240000486373901, 0.0, 0.0, 0.0, 0.0, 0.0, 1.76322632932631E9, 0.0, 2025-11-15 12:05:29.326
39.0, -58.329349658917636, 5.880992680322379, -54.40619460539892, -45.05083486624062, -0.03200000151991844, 0.17600000835955143, 1.0240000486373901, 0.0, 0.0, 0.0, 0.0, 0.0, 1.763226329326964E9, 0.0, 2025-11-15 12:05:29.326
39.0, -43.433328135404736, 36.49207381764427, -2.1523124244995415, 3.0704578636214137, -0.03200000151991844, 0.17600000835955143, 1.0240000486373901, 0.0, 0.0, 0.0, 0.0, 0.0, 1.763226329326964E9, 0.0, 2025-11-15 12:05:29.326
40.0, -272.45732162194327, -164.6547053991817, -175.2498419736512, -145.01836068183184, -0.03200000151991844, 0.17600000835955143, 1.0240000486373901, 0.0, 0.0, 0.0, 0.0, 0.0, 1.7632263293405433E9, 0.0, 2025-11-15 12:05:29.340
40.0, -164.96511709550396, -86.55437462450936, -127.4875796395354, -108.85352811031044, -0.03200000151991844, 0.17600000835955143, 1.0240000486373901, 0.0, 0.0, 0.0, 0.0, 0.0, 1.7632263293405433E9, 0.0, 2025-11-15 12:05:29.340
41.0, 42.217860649805516, 98.1742437868379, 44.05041162809357, 31.35158132854849, -0.03200000151991844, 0.17600000835955143, 1.0240000486373901, 0.0, 0.0, 0.0, 0.0, 0.0, 1.7632263293562136E9, 0.0, 2025-11-15 12:05:29.356
41.0, 238.594397473149, -135.92853383952752, -150.65251996507868, -117.75449000485241, -0.03200000151991844, 0.17600000835955143, 1.0240000486373901, 0.0, 0.0, 0.0, 0.0, 0.0, 1.7632263293562136E9, 0.0, 2025-11-15 12:05:29.356
42.0, 242.46519392728806, -156.73733719298616, -183.07745258091018, -146.87709095980972, -0.03200000151991844, 0.17600000835955143, 1.0240000486373901, 0.0, 0.0, 0.0, 0.0, 0.0, 1.7632263293569207E9, 0.0, 2025-11-15 12:05:29.356
42.0, 18.26006153365597, 75.08036156045273, 9.172104641329497, 2.206540973857045, -0.03200000151991844, 0.17600000835955143, 1.0240000486373901, 0.0, 0.0, 0.0, 0.0, 0.0, 1.7632263293569207E9, 0.0, 2025-11-15 12:05:29.356
43.0, -165.83277388522401, -63.65122729586437, -85.53338193660602, -68.43268938921392, -0.03200000151991844, 0.17600000835955143, 1.0240000486373901, 0.0, 0.0, 0.0, 0.0, 0.0, 1.7632263293705416E9, 0.0, 2025-11-15 12:05:29.370
43.0, -264.4015771173872, -167.4671101658605, -195.10123093845323, -153.2611001841724, -0.03200000151991844, 0.17600000835955143, 1.0240000486373901, 0.0, 0.0, 0.0, 0.0, 0.0, 1.7632263293705416E9, 0.0, 2025-11-15 12:05:29.370
44.0, -69.14514033077285, -2.5562216197140515, -56.803470476996154, -43.259422787465155, -0.03200000151991844, 0.17600000835955143, 1.0240000486373901, 0.0, 0.0, 0.0, 0.0, 0.0, 1.7632263293862247E9, 0.0, 2025-11-15 12:05:29.386
44.0, -42.83494414249435, 35.98718732362613, -2.376706421840936, 1.3800230836495757, -0.03200000151991844, 0.17600000835955143, 1.0240000486373901, 0.0, 0.0, 0.0, 0.0, 0.0, 1.7632263293862247E9, 0.0, 2025-11-15 12:05:29.386
45.0, -272.16934932535514, -161.82360113272443, -177.15719095105305, -147.18750265613198, -0.03200000151991844, 0.17600000835955143, 1.0240000486373901, 0.0, 0.0, 0.0, 0.0, 0.0, 1.7632263293869228E9, 0.0, 2025-11-15 12:05:29.386
45.0, -169.81202743807808, -84.5759675479494, -124.54053847445175, -108.69271241221577, -0.03200000151991844, 0.17600000835955143, 1.0240000486373901, 0.0, 0.0, 0.0, 0.0, 0.0, 1.7632263293869228E9, 0.0, 2025-11-15 12:05:29.386
46.0, 37.54298570519313, 101.92536344239488, 47.857629782985896, 47.272335439920425, -0.03200000151991844, 0.17600000835955143, 1.0240000486373901, 0.0, 0.0, 0.0, 0.0, 0.0, 1.7632263294005425E9, 0.0, 2025-11-15 12:05:29.400
46.0, 236.26817970070988, 344.89357391372323, -157.61995358252898, -122.75847614556551, -0.03200000151991844, 0.17600000835955143, 1.0240000486373901, 0.0, 0.0, 0.0, 0.0, 0.0, 1.7632263294005425E9, 0.0, 2025-11-15 12:05:29.400
47.0, 242.24453982990235, 337.40255430247635, -173.985755788628, -148.97517483495176, -0.03200000151991844, 0.17600000835955143, 1.0240000486373901, 0.0, 0.0, 0.0, 0.0, 0.0, 1.7632263294162097E9, 0.0, 2025-11-15 12:05:29.416
47.0, 22.123378187883645, 565.5140121998265, 16.29661405691877, 9.495605987496674, -0.03200000151991844, 0.17600000835955143, 1.0240000486373901, 0.0, 0.0, 0.0, 0.0, 0.0, 1.7632263294162097E9, 0.0, 2025-11-15 12:05:29.416
48.0, -161.43465153733268, 431.19176539126784, -74.32864166935906, -56.21817613393068, -0.03200000151991844, 0.17600000835955143, 1.0240000486373901, 0.0, 0.0, 0.0, 0.0, 0.0, 1.7632263294169369E9, 0.0, 2025-11-15 12:05:29.416
48.0, -269.94036895176396, 321.8857093863189, -177.51622134679928, -143.11849150434136, -0.03200000151991844, 0.17600000835955143, 1.0240000486373901, 0.0, 0.0, 0.0, 0.0, 0.0, 1.7632263294169369E9, 0.0, 2025-11-15 12:05:29.416
49.0, -65.31548277614638, 491.0900030815974, -54.64180830260739, -52.23518268112093, -0.03200000151991844, 0.17600000835955143, 1.0240000486373901, 0.0, 0.0, 0.0, 0.0, 0.0, 1.763226329430546E9, 0.0, 2025-11-15 12:05:29.430
49.0, -49.27505186619237, 526.4694566624239, -2.1036937250755727, 4.873089642263949, -0.03200000151991844, 0.17600000835955143, 1.0240000486373901, 0.0, 0.0, 0.0, 0.0, 0.0, 1.763226329430546E9, 0.0, 2025-11-15 12:05:29.430
50.0, -267.7375678778626, 329.193473899737, -176.27831446146592, -144.46111558843404, -0.03200000151991844, 0.17600000835955143, 1.0240000486373901, 0.0, 0.0, 0.0, 0.0, 0.0, 1.7632263294462185E9, 0.0, 2025-11-15 12:05:29.446
50.0, -165.75049608619884, 404.7394530046731, -126.07015755632892, -107.81009602267295, -0.03200000151991844, 0.17600000835955143, 1.0240000486373901, 0.0, 0.0, 0.0, 0.0, 0.0, 1.7632263294462185E9, 0.0, 2025-11-15 12:05:29.446
51.0, 31.731181174051017, 596.7646162295714, 44.21122732618824, 39.56440163124353, -0.03200000151991844, 0.17600000835955143, 1.0240000486373901, 0.0, 0.0, 0.0, 0.0, 0.0, 1.7632263294469225E9, 0.0, 2025-11-15 12:05:29.446
51.0, 245.70394728891551, 352.6800456214696, -155.07682161265984, -121.88333955593407, -0.03200000151991844, 0.17600000835955143, 1.0240000486373901, 0.0, 0.0, 0.0, 0.0, 0.0, 1.7632263294469225E9, 0.0, 2025-11-15 12:05:29.446
52.0, 260.14744091778994, 347.47784478310496, -175.18626367440447, -137.9574295654893, -0.03200000151991844, 0.17600000835955143, 1.0240000486373901, 0.0, 0.0, 0.0, 0.0, 0.0, 1.7632263294605596E9, 0.0, 2025-11-15 12:05:29.460
52.0, 21.88776449067518, 569.5418844521046, 16.094659459311515, 7.318984213285148, -0.03200000151991844, 0.17600000835955143, 1.0240000486373901, 0.0, 0.0, 0.0, 0.0, 0.0, 1.7632263294605596E9, 0.0, 2025-11-15 12:05:29.460
53.0, -159.77039605705068, 426.3598146485165, -81.77478248113766, -69.50230077654123, -0.03200000151991844, 0.17600000835955143, 1.0240000486373901, 0.0, 0.0, 0.0, 0.0, 0.0, 1.7632263294762545E9, 0.0, 2025-11-15 12:05:29.476
53.0, -257.5799995982088, 331.72538616973907, -177.62841834546998, -146.49936106428504, -0.03200000151991844, 0.17600000835955143, 1.0240000486373901, 0.0, 0.0, 0.0, 0.0, 0.0, 1.7632263294762545E9, 0.0, 2025-11-15 12:05:29.476
54.0, -62.70129270711914, 493.65931435115635, -54.58570980327204, -47.20501724071801, -0.03200000151991844, 0.17600000835955143, 1.0240000486373901, 0.0, 0.0, 0.0, 0.0, 0.0, 1.7632263294769328E9, 0.0, 2025-11-15 12:05:29.476
54.0, -38.90056938910857, 534.0277944728732, -0.7199307414703071, 7.954767205752432, -0.03200000151991844, 0.17600000835955143, 1.0240000486373901, 0.0, 0.0, 0.0, 0.0, 0.0, 1.7632263294769328E9, 0.0, 2025-11-15 12:05:29.476
55.0, -266.8175524887629, 329.3804688975215, -180.45204281201586, -151.72400130238384, -0.03200000151991844, 0.17600000835955143, 1.0240000486373901, 0.0, 0.0, 0.0, 0.0, 0.0, 1.763226329490562E9, 0.0, 2025-11-15 12:05:29.490
55.0, -166.92108477232978, 399.83644416276366, -132.77953807683662, -113.28530955780298, -0.03200000151991844, 0.17600000835955143, 1.0240000486373901, 0.0, 0.0, 0.0, 0.0, 0.0, 1.763226329490562E9, 0.0, 2025-11-15 12:05:29.490
56.0, 38.71357439132407, 593.5744815673679, 44.50293952273205, 36.411665968596935, -0.03200000151991844, 0.17600000835955143, 1.0240000486373901, 0.0, 0.0, 0.0, 0.0, 0.0, 1.7632263295062497E9, 0.0, 2025-11-15 12:05:29.506
56.0, 261.84909539762884, 368.0323349395767, -136.79993052920327, -114.12304714787751, -0.03200000151991844, 0.17600000835955143, 1.0240000486373901, 0.0, 0.0, 0.0, 0.0, 0.0, 1.7632263295062497E9, 0.0, 2025-11-15 12:05:29.506
57.0, 263.6405074764043, 353.6785989096388, -164.8753594965674, -135.99772198870778, -0.03200000151991844, 0.17600000835955143, 1.0240000486373901, 0.0, 0.0, 0.0, 0.0, 0.0, 1.7632263295069356E9, 0.0, 2025-11-15 12:05:29.506
57.0, 35.16440933337435, 586.8987601464614, 31.12157748127356, 29.02910345606506, -0.03200000151991844, 0.17600000835955143, 1.0240000486373901, 0.0, 0.0, 0.0, 0.0, 0.0, 1.7632263295069356E9, 0.0, 2025-11-15 12:05:29.506
58.0, -153.95485162595287, 431.7340508848429, -80.66777209425345, -62.75178135652095, -0.03200000151991844, 0.17600000835955143, 1.0240000486373901, 0.0, 0.0, 0.0, 0.0, 0.0, 1.7632263295205643E9, 0.0, 2025-11-15 12:05:29.520
58.0, -250.5452477815561, 340.6039086645469, -171.9512502127327, -137.04489397630095, -0.03200000151991844, 0.17600000835955143, 1.0240000486373901, 0.0, 0.0, 0.0, 0.0, 0.0, 1.7632263295205643E9, 0.0, 2025-11-15 12:05:29.520
59.0, -61.186633225064725, 489.57908349949867, -52.5998229268007, -52.27632158063352, -0.03200000151991844, 0.17600000835955143, 1.0240000486373901, 0.0, 0.0, 0.0, 0.0, 0.0, 1.7632263295362165E9, 0.0, 2025-11-15 12:05:29.536
59.0, -40.624663268681616, 532.3747586924583, 0.7386302412487566, 0.35529049579054117, -0.03200000151991844, 0.17600000835955143, 1.0240000486373901, 0.0, 0.0, 0.0, 0.0, 0.0, 1.7632263295362165E9, 0.0, 2025-11-15 12:05:29.536
60.0, -266.7651938893832, 333.99924534279853, -172.3177604083903, -148.93777583539486, -0.03200000151991844, 0.17600000835955143, 1.0240000486373901, 0.0, 0.0, 0.0, 0.0, 0.0, 1.7632263295369146E9, 0.0, 2025-11-15 12:05:29.536
60.0, -167.90467846067622, 408.87578235566616, -125.71112716058269, -109.7174450000748, -0.03200000151991844, 0.17600000835955143, 1.0240000486373901, 0.0, 0.0, 0.0, 0.0, 0.0, 1.7632263295369146E9, 0.0, 2025-11-15 12:05:29.536
61.0, 42.55445164581761, 601.1141198780388, 50.756052248645574, 36.2396305706352, -0.03200000151991844, 0.17600000835955143, 1.0240000486373901, 0.0, 0.0, 0.0, 0.0, 0.0, 1.763226329550558E9, 0.0, 2025-11-15 12:05:29.550
61.0, 257.204139652662, 369.00096902810037, -134.29793745884672, -115.30859543383121, -0.03200000151991844, 0.17600000835955143, 1.0240000486373901, 0.0, 0.0, 0.0, 0.0, 0.0, 1.763226329550558E9, 0.0, 2025-11-15 12:05:29.550
62.0, 248.7444859528914, 346.5802687937394, -169.1687646456994, -142.9950748058036, -0.03200000151991844, 0.17600000835955143, 1.0240000486373901, 0.0, 0.0, 0.0, 0.0, 0.0, 1.763226329566214E9, 0.0, 2025-11-15 12:05:29.566
62.0, 21.86906499089673, 571.6324885273352, 15.11480567092076, 7.9098884062841535, -0.03200000151991844, 0.17600000835955143, 1.0240000486373901, 0.0, 0.0, 0.0, 0.0, 0.0, 1.763226329566214E9, 0.0, 2025-11-15 12:05:29.566
63.0, -152.91515943827108, 439.9431312875822, -75.89939965074882, -60.09645238798112, -0.03200000151991844, 0.17600000835955143, 1.0240000486373901, 0.0, 0.0, 0.0, 0.0, 0.0, 1.7632263295669065E9, 0.0, 2025-11-15 12:05:29.566
63.0, -257.53138089878485, 333.5691568478942, -174.78983427910134, -148.78070003725588, -0.03200000151991844, 0.17600000835955143, 1.0240000486373901, 0.0, 0.0, 0.0, 0.0, 0.0, 1.7632263295669065E9, 0.0, 2025-11-15 12:05:29.566
64.0, -72.61576748965308, 484.3320038616657, -61.78127731801942, -62.68446315731853, -0.03200000151991844, 0.17600000835955143, 1.0240000486373901, 0.0, 0.0, 0.0, 0.0, 0.0, 1.76322632958058E9, 0.0, 2025-11-15 12:05:29.580
64.0, -35.044732534792274, 541.2233619876206, 6.8197075692005455, 3.6800615563988686, -0.03200000151991844, 0.17600000835955143, 1.0240000486373901, 0.0, 0.0, 0.0, 0.0, 0.0, 1.76322632958058E9, 0.0, 2025-11-15 12:05:29.580
65.0, -273.0669253147207, 326.95701372623444, -173.12557879881933, -153.3321582833305, -0.03200000151991844, 0.17600000835955143, 1.0240000486373901, 0.0, 0.0, 0.0, 0.0, 0.0, 1.7632263295962052E9, 0.0, 2025-11-15 12:05:29.596
65.0, -169.16128484578803, 404.294404909946, -128.36271622916684, -114.9794842377305, -0.03200000151991844, 0.17600000835955143, 1.0240000486373901, 0.0, 0.0, 0.0, 0.0, 0.0, 1.7632263295962052E9, 0.0, 2025-11-15 12:05:29.596
66.0, 39.454074582550675, 599.3526269989088, 52.07249703304842, 35.89555977471173, -0.03200000151991844, 0.17600000835955143, 1.0240000486373901, 0.0, 0.0, 0.0, 0.0, 0.0, 1.7632263295969093E9, 0.0, 2025-11-15 12:05:29.596
66.0, 261.3816079031676, 365.5041625695303, -138.54646380851045, -116.15007292386144, -0.03200000151991844, 0.17600000835955143, 1.0240000486373901, 0.0, 0.0, 0.0, 0.0, 0.0, 1.7632263295969093E9, 0.0, 2025-11-15 12:05:29.596
67.0, 250.0497110374272, 342.00263124797493, -176.72336255619302, -152.2588069960475, -0.03200000151991844, 0.17600000835955143, 1.0240000486373901, 0.0, 0.0, 0.0, 0.0, 0.0, 1.7632263296105728E9, 0.0, 2025-11-15 12:05:29.610
67.0, 26.7720738328062, 572.7282792143524, 13.921777585055679, 2.0756444754078984, -0.03200000151991844, 0.17600000835955143, 1.0240000486373901, 0.0, 0.0, 0.0, 0.0, 0.0, 1.7632263296105728E9, 0.0, 2025-11-15 12:05:29.610
68.0, -155.40967270871624, 427.9866711292416, -87.15275861741975, -72.46056164149195, -0.03200000151991844, 0.17600000835955143, 1.0240000486373901, 0.0, 0.0, 0.0, 0.0, 0.0, 1.7632263296262088E9, 0.0, 2025-11-15 12:05:29.626
68.0, -268.30977257108316, 325.84252353943884, -182.43044988857582, -161.46270078700036, -0.03200000151991844, 0.17600000835955143, 1.0240000486373901, 0.0, 0.0, 0.0, 0.0, 0.0, 1.7632263296262088E9, 0.0, 2025-11-15 12:05:29.626
69.0, -61.7513581183739, 495.43576683010906, -50.51295875152573, -53.42073096707463, -0.03200000151991844, 0.17600000835955143, 1.0240000486373901, 0.0, 0.0, 0.0, 0.0, 0.0, 1.7632263296269157E9, 0.0, 2025-11-15 12:05:29.626
69.0, -42.7414466436021, 529.3043008288369, 1.0303424377925694, -8.799984595738351, -0.03200000151991844, 0.17600000835955143, 1.0240000486373901, 0.0, 0.0, 0.0, 0.0, 0.0, 1.7632263296269157E9, 0.0, 2025-11-15 12:05:29.626
70.0, -265.3253324064426, 330.5996762830764, -175.27602127334103, -149.53241992834955, -0.03200000151991844, 0.17600000835955143, 1.0400000493973494, 0.0, 0.0, 0.0, 0.0, 0.0, 1.7632263296405594E9, 0.0, 2025-11-15 12:05:29.640
70.0, -171.37156571960077, 395.6776754120365, -130.4159213048406, -118.04246230144054, -0.03200000151991844, 0.17600000835955143, 1.0400000493973494, 0.0, 0.0, 0.0, 0.0, 0.0, 1.7632263296405594E9, 0.0, 2025-11-15 12:05:29.640
71.0, 32.168749468866736, 584.6510802730918, 38.586417792830616, 28.50551746226847, -0.03200000151991844, 0.17600000835955143, 1.0400000493973494, 0.0, 0.0, 0.0, 0.0, 0.0, 1.7632263296562047E9, 0.0, 2025-11-15 12:05:29.656
71.0, 253.453019997105, 360.1635854328051, -139.21216600062326, -121.66642535850406, -0.03200000151991844, 0.17600000835955143, 1.0400000493973494, 0.0, 0.0, 0.0, 0.0, 0.0, 1.7632263296562047E9, 0.0, 2025-11-15 12:05:29.656
72.0, 252.70130010601133, 343.48363163042814, -179.06080002849922, -156.49237374588847, -0.03200000151991844, 0.17600000835955143, 1.0400000493973494, 0.0, 0.0, 0.0, 0.0, 0.0, 1.7632263296569097E9, 0.0, 2025-11-15 12:05:29.656
72.0, 29.857491296250373, 576.1989063732326, 16.476129254791886, -0.8526971898972988, -0.03200000151991844, 0.17600000835955143, 1.0400000493973494, 0.0, 0.0, 0.0, 0.0, 0.0, 1.7632263296569097E9, 0.0, 2025-11-15 12:05:29.656
73.0, -149.39591357996687, 445.16403162572533, -70.51394371455535, -67.70714879781008, -0.03200000151991844, 0.17600000835955143, 1.0400000493973494, 0.0, 0.0, 0.0, 0.0, 0.0, 1.7632263296705468E9, 0.0, 2025-11-15 12:05:29.670
73.0, -255.75866831978783, 336.40774091426283, -177.6620774450712, -154.1437165737152, -0.03200000151991844, 0.17600000835955143, 1.0400000493973494, 0.0, 0.0, 0.0, 0.0, 0.0, 1.7632263296705468E9, 0.0, 2025-11-15 12:05:29.670
74.0, -64.14863398997113, 492.7093797624111, -58.59862245572731, -55.24580214545131, -0.03200000151991844, 0.17600000835955143, 1.0400000493973494, 0.0, 0.0, 0.0, 0.0, 0.0, 1.7632263296862814E9, 0.0, 2025-11-15 12:05:29.686
74.0, -40.79669866664335, 525.9757898682728, 0.005609849933534861, -2.9208618653938174, -0.03200000151991844, 0.17600000835955143, 1.0400000493973494, 0.0, 0.0, 0.0, 0.0, 0.0, 1.7632263296862814E9, 0.0, 2025-11-15 12:05:29.686
75.0, -259.4387298761867, 330.8614692799747, -173.82494009053335, -147.26604055520147, -0.03200000151991844, 0.17600000835955143, 1.0400000493973494, 0.0, 0.0, 0.0, 0.0, 0.0, 1.7632263296869128E9, 0.0, 2025-11-15 12:05:29.686
75.0, -171.19953032163903, 399.5933506656438, -137.345955922734, -111.9426854737103, -0.03200000151991844, 0.17600000835955143, 1.0400000493973494, 0.0, 0.0, 0.0, 0.0, 0.0, 1.7632263296869128E9, 0.0, 2025-11-15 12:05:29.686
76.0, 40.43018847098574, 587.4747047396377, 38.47048089420423, 24.89277410507202, -0.03200000151991844, 0.17600000835955143, 1.0400000493973494, 0.0, 0.0, 0.0, 0.0, 0.0, 1.7632263297005503E9, 0.0, 2025-11-15 12:05:29.700
76.0, 254.39547478593886, 360.1673253327608, -140.0125045911409, -121.281215663068, -0.03200000151991844, 0.17600000835955143, 1.0400000493973494, 0.0, 0.0, 0.0, 0.0, 0.0, 1.7632263297005503E9, 0.0, 2025-11-15 12:05:29.700
77.0, 253.01919160224497, 344.11193482298404, -172.63191200466827, -148.42914944142103, -0.03200000151991844, 0.17600000835955143, 1.0400000493973494, 0.0, 0.0, 0.0, 0.0, 0.0, 1.7632263297162197E9, 0.0, 2025-11-15 12:05:29.716
77.0, 24.056906464975327, 568.3937351657078, 14.29576758062467, 2.980700264684856, -0.03200000151991844, 0.17600000835955143, 1.0400000493973494, 0.0, 0.0, 0.0, 0.0, 0.0, 1.7632263297162197E9, 0.0, 2025-11-15 12:05:29.716
78.0, -154.3475411213003, 433.3459477657452, -78.34155432181433, -68.07365899346769, -0.03200000151991844, 0.17600000835955143, 1.0400000493973494, 0.0, 0.0, 0.0, 0.0, 0.0, 1.7632263297169116E9, 0.0, 2025-11-15 12:05:29.716
78.0, -256.57396651012823, 333.40086134988815, -179.94341641804203, -148.1823160443455, -0.03200000151991844, 0.17600000835955143, 1.0400000493973494, 0.0, 0.0, 0.0, 0.0, 0.0, 1.7632263297169116E9, 0.0, 2025-11-15 12:05:29.716
79.0, -64.99011148000136, 486.0560977412388, -60.801423529628664, -57.1007925234735, -0.03200000151991844, 0.17600000835955143, 1.0400000493973494, 0.0, 0.0, 0.0, 0.0, 0.0, 1.7632263297305753E9, 0.0, 2025-11-15 12:05:29.730
79.0, -35.403762930538505, 530.7628618115559, 3.8502270043827593, 0.6507425922900438, -0.03200000151991844, 0.17600000835955143, 1.0400000493973494, 0.0, 0.0, 0.0, 0.0, 0.0, 1.7632263297305753E9, 0.0, 2025-11-15 12:05:29.730
80.0, -263.97148862248287, 335.29699062742293, -174.61405898118392, -148.39549034181982, -0.03200000151991844, 0.17600000835955143, 1.0240000486373901, 0.0, 0.0, 0.0, 0.0, 0.0, 1.763226329746196E9, 0.0, 2025-11-15 12:05:29.746
80.0, -164.89405899634585, 403.29211172182113, -127.89896863466129, -118.5772679951042, -0.03200000151991844, 0.17600000835955143, 1.0240000486373901, 0.0, 0.0, 0.0, 0.0, 0.0, 1.763226329746196E9, 0.0, 2025-11-15 12:05:29.746
81.0, 43.61284333327785, 595.3995527457446, 44.641315821092576, 35.32709498144686, -0.03200000151991844, 0.17600000835955143, 1.0240000486373901, 0.0, 0.0, 0.0, 0.0, 0.0, 1.7632263297469003E9, 0.0, 2025-11-15 12:05:29.746
81.0, 256.80397035740316, 360.93774472363293, -142.18912636535242, -120.86234686803073, -0.03200000151991844, 0.17600000835955143, 1.0240000486373901, 0.0, 0.0, 0.0, 0.0, 0.0, 1.7632263297469003E9, 0.0, 2025-11-15 12:05:29.746
82.0, 274.51239664759487, 351.74133073259145, -169.00046914769337, -149.6969755263999, -0.03200000151991844, 0.17600000835955143, 1.0240000486373901, 0.0, 0.0, 0.0, 0.0, 0.0, 1.7632263297605832E9, 0.0, 2025-11-15 12:05:29.760
82.0, 30.45587528916076, 575.1629540855065, 16.498568654526025, 6.518645622767508, -0.03200000151991844, 0.17600000835955143, 1.0240000486373901, 0.0, 0.0, 0.0, 0.0, 0.0, 1.7632263297605832E9, 0.0, 2025-11-15 12:05:29.760
83.0, -143.569149449002, 440.85192697681487, -75.41695255646482, -62.209495862945914, -0.03200000151991844, 0.17600000835955143, 1.0240000486373901, 0.0, 0.0, 0.0, 0.0, 0.0, 1.7632263297762027E9, 0.0, 2025-11-15 12:05:29.776
83.0, -266.04713309789076, 322.6748282769695, -189.74943410186097, -157.4497881345451, -0.03200000151991844, 0.17600000835955143, 1.0240000486373901, 0.0, 0.0, 0.0, 0.0, 0.0, 1.7632263297762027E9, 0.0, 2025-11-15 12:05:29.776
84.0, -64.47400528611615, 492.88889496028423, -52.771858324762434, -46.99558284319937, -0.03200000151991844, 0.17600000835955143, 1.0240000486373901, 0.0, 0.0, 0.0, 0.0, 0.0, 1.7632263297769113E9, 0.0, 2025-11-15 12:05:29.776
84.0, -32.45298186549917, 536.4587294440717, 2.5188226201571524, -2.741346667520702, -0.03200000151991844, 0.17600000835955143, 1.0240000486373901, 0.0, 0.0, 0.0, 0.0, 0.0, 1.7632263297769113E9, 0.0, 2025-11-15 12:05:29.776
85.0, -262.8906575352885, 329.76567859295756, -177.07865305198357, -140.38462463673204, -0.03200000151991844, 0.17600000835955143, 1.0240000486373901, 0.0, 0.0, 0.0, 0.0, 0.0, 1.7632263297905407E9, 0.0, 2025-11-15 12:05:29.790
85.0, -162.6837781225331, 405.5958900945261, -128.76662542438135, -106.39641383942217, -0.03200000151991844, 0.17600000835955143, 1.0240000486373901, 0.0, 0.0, 0.0, 0.0, 0.0, 1.7632263297905407E9, 0.0, 2025-11-15 12:05:29.790
86.0, 47.19192759087309, 598.4924500091001, 46.21581370243803, 35.73474407661706, -0.03200000151991844, 0.17600000835955143, 1.0240000486373901, 0.0, 0.0, 0.0, 0.0, 0.0, 1.763226329806193E9, 0.0, 2025-11-15 12:05:29.806
86.0, 264.25759096909314, 371.8470328943804, -137.29359732335433, -115.52550963126123, -0.03200000151991844, 0.17600000835955143, 1.0240000486373901, 0.0, 0.0, 0.0, 0.0, 0.0, 1.763226329806193E9, 0.0, 2025-11-15 12:05:29.806
87.0, 263.59562867693603, 347.5302033824846, -171.18457072181627, -150.71422831434757, -0.03200000151991844, 0.17600000835955143, 1.0240000486373901, 0.0, 0.0, 0.0, 0.0, 0.0, 1.7632263298069017E9, 0.0, 2025-11-15 12:05:29.806
87.0, 25.448149248491973, 565.4803531002253, 10.899938420858234, 0.4113889951258898, -0.03200000151991844, 0.17600000835955143, 1.0240000486373901, 0.0, 0.0, 0.0, 0.0, 0.0, 1.7632263298069017E9, 0.0, 2025-11-15 12:05:29.806
88.0, -143.5728893489577, 439.5093028927222, -74.60539426608011, -57.5084416186437, -0.03200000151991844, 0.17600000835955143, 1.0240000486373901, 0.0, 0.0, 0.0, 0.0, 0.0, 1.763226329820558E9, 0.0, 2025-11-15 12:05:29.820
88.0, -256.56648671021685, 326.9270945265889, -179.5133279231377, -152.05311249848455, -0.03200000151991844, 0.17600000835955143, 1.0240000486373901, 0.0, 0.0, 0.0, 0.0, 0.0, 1.763226329820558E9, 0.0, 2025-11-15 12:05:29.820
89.0, -75.57028845464811, 479.4177753198892, -67.5332434498705, -64.18790293950588, -0.03200000151991844, 0.17600000835955143, 1.0240000486373901, 0.0, 0.0, 0.0, 0.0, 0.0, 1.7632263298362527E9, 0.0, 2025-11-15 12:05:29.836
89.0, -34.80163903767243, 527.1426386544481, -3.6071335072629154, -0.17203539796173573, -0.03200000151991844, 0.17600000835955143, 1.0240000486373901, 0.0, 0.0, 0.0, 0.0, 0.0, 1.7632263298362527E9, 0.0, 2025-11-15 12:05:29.836
90.0, -264.9550823108293, 327.73491291701794, -180.87465150700882, -152.928249088116, -0.03200000151991844, 0.17600000835955143, 1.0240000486373901, 0.0, 0.0, 0.0, 0.0, 0.0, 1.763226329837038E9, 0.0, 2025-11-15 12:05:29.837
90.0, -168.94063074840233, 393.7329274350777, -140.77918408205733, -120.69405137002468, -0.03200000151991844, 0.17600000835955143, 1.0240000486373901, 0.0, 0.0, 0.0, 0.0, 0.0, 1.763226329837038E9, 0.0, 2025-11-15 12:05:29.837
91.0, 40.9649941646494, 590.2384908068925, 40.83035776624456, 31.890126922167838, -0.03200000151991844, 0.17600000835955143, 1.0240000486373901, 0.0, 0.0, 0.0, 0.0, 0.0, 1.763226329850538E9, 0.0, 2025-11-15 12:05:29.850
91.0, 257.48089224938303, 358.93689824733883, -147.2043322059326, -122.43310484942049, -0.03200000151991844, 0.17600000835955143, 1.0240000486373901, 0.0, 0.0, 0.0, 0.0, 0.0, 1.763226329850538E9, 0.0, 2025-11-15 12:05:29.850
92.0, 246.36590958107263, 337.93735999614, -185.45228905277327, -148.22719484381378, -0.03200000151991844, 0.17600000835955143, 1.0240000486373901, 0.0, 0.0, 0.0, 0.0, 0.0, 1.7632263298662658E9, 0.0, 2025-11-15 12:05:29.866
92.0, 22.074759488459677, 558.4830002831295, 3.4089188096113503, 2.662808768451214, -0.03200000151991844, 0.17600000835955143, 1.0240000486373901, 0.0, 0.0, 0.0, 0.0, 0.0, 1.7632263298662658E9, 0.0, 2025-11-15 12:05:29.866
93.0, -148.92094628559425, 434.26222325488925, -80.88468629168347, -54.78579445090145, -0.03200000151991844, 0.17600000835955143, 1.0240000486373901, 0.0, 0.0, 0.0, 0.0, 0.0, 1.7632263298669665E9, 0.0, 2025-11-15 12:05:29.866
93.0, -250.93045747699216, 322.0315654845908, -191.93727557593957, -153.1788223851472, -0.03200000151991844, 0.17600000835955143, 1.0240000486373901, 0.0, 0.0, 0.0, 0.0, 0.0, 1.7632263298669665E9, 0.0, 2025-11-15 12:05:29.866
94.0, -75.47679095575586, 477.9592143371701, -69.36205452820286, -55.309380444698036, -0.03200000151991844, 0.17600000835955143, 1.0240000486373901, 0.0, 0.0, 0.0, 0.0, 0.0, 1.7632263298805835E9, 0.0, 2025-11-15 12:05:29.880
94.0, -38.84821078972891, 523.271842200309, -3.5173759083263576, -3.388349359855056, -0.03200000151991844, 0.17600000835955143, 1.0240000486373901, 0.0, 0.0, 0.0, 0.0, 0.0, 1.7632263298805835E9, 0.0, 2025-11-15 12:05:29.880
95.0, -266.12941089691594, 321.62391638942063, -184.89504395937547, -153.1115041859448, -0.03200000151991844, 0.17600000835955143, 1.0240000486373901, 0.0, 0.0, 0.0, 0.0, 0.0, 1.7632263298962653E9, 0.0, 2025-11-15 12:05:29.896
95.0, -171.3640859196894, 400.9322348497808, -135.09079624945298, -109.44817220326513, -0.03200000151991844, 0.17600000835955143, 1.0240000486373901, 0.0, 0.0, 0.0, 0.0, 0.0, 1.7632263298962653E9, 0.0, 2025-11-15 12:05:29.896
96.0, 33.15982295712456, 589.785962912254, 38.00299339974299, 32.46607151534408, -0.03200000151991844, 0.17600000835955143, 1.0240000486373901, 0.0, 0.0, 0.0, 0.0, 0.0, 1.7632263298969707E9, 0.0, 2025-11-15 12:05:29.896
96.0, 255.85403576865792, 356.438645076938, -150.60016136569902, -123.51019603665918, -0.03200000151991844, 0.17600000835955143, 1.0240000486373901, 0.0, 0.0, 0.0, 0.0, 0.0, 1.7632263298969707E9, 0.0, 2025-11-15 12:05:29.896
97.0, 257.9820388434455, 343.1993992337957, -178.5484337345697, -147.2884799549356, -0.03200000151991844, 0.17600000835955143, 1.0240000486373901, 0.0, 0.0, 0.0, 0.0, 0.0, 1.7632263299105453E9, 0.0, 2025-11-15 12:05:29.910
97.0, 29.692935698200017, 574.4897720934823, 14.041454383637756, 7.405001912266016, -0.03200000151991844, 0.17600000835955143, 1.0240000486373901, 0.0, 0.0, 0.0, 0.0, 0.0, 1.7632263299105453E9, 0.0, 2025-11-15 12:05:29.910
98.0, -139.1560675012879, 441.9851166633889, -72.50731039093807, -61.723308868706226, -0.03200000151991844, 0.17600000835955143, 1.0240000486373901, 0.0, 0.0, 0.0, 0.0, 0.0, 1.763226329926319E9, 0.0, 2025-11-15 12:05:29.926
98.0, -254.40482453582808, 327.66385481785983, -186.86597123602405, -153.85948417708278, -0.03200000151991844, 0.17600000835955143, 1.0240000486373901, 0.0, 0.0, 0.0, 0.0, 0.0, 1.763226329926319E9, 0.0, 2025-11-15 12:05:29.926
99.0, -62.95560590410605, 488.51321201212704, -64.07009609090164, -54.86433234997094, -0.03200000151991844, 0.17600000835955143, 1.0240000486373901, 0.0, 0.0, 0.0, 0.0, 0.0, 1.7632263299269829E9, 0.0, 2025-11-15 12:05:29.926
99.0, -23.20420927507803, 545.5466863363981, 6.845886868890375, 8.710226996801794, -0.03200000151991844, 0.17600000835955143, 1.0240000486373901, 0.0, 0.0, 0.0, 0.0, 0.0, 1.7632263299269829E9, 0.0, 2025-11-15 12:05:29.926
100.0, -263.04399343347177, 330.36406258586794, -176.16237756283954, -139.28135414980352, -0.03200000151991844, 0.17600000835955143, 1.0240000486373901, 0.0, 0.0, 0.0, 0.0, 0.0, 1.7632263299412332E9, 0.0, 2025-11-15 12:05:29.941
100.0, -169.7334895390086, 395.8833699095994, -137.1552210249938, -109.17141960654408, -0.03200000151991844, 0.17600000835955143, 1.0240000486373901, 0.0, 0.0, 0.0, 0.0, 0.0, 1.7632263299412332E9, 0.0, 2025-11-15 12:05:29.941
0.0, 39.52700263168663, 95.96209296304733, 32.413712915964425, 31.871427422389388, -0.03200000151991844, 0.17600000835955143, 1.0240000486373901, 0.0, 0.0, 0.0, 0.0, 0.0, 1.76322632994194E9, 0.0, 2025-11-15 12:05:29.941
1.0, 264.4090569172986, -128.32718717958778, -140.04055384080857, -105.72323184739798, -0.03200000151991844, 0.17600000835955143, 1.0240000486373901, 0.0, 0.0, 0.0, 0.0, 0.0, 1.7632263299555929E9, 0.0, 2025-11-15 12:05:29.955
1.0, 253.21927624987438, -151.69408210273832, -187.1221543829888, -152.1428700974211, -0.03200000151991844, 0.17600000835955143, 1.0240000486373901, 0.0, 0.0, 0.0, 0.0, 0.0, 1.7632263299555929E9, 0.0, 2025-11-15 12:05:29.955
2.0, 34.08170829620212, 82.52837232220918, 14.159261232241988, 8.957060393877327, -0.03200000151991844, 0.17600000835955143, 1.0240000486373901, 0.0, 0.0, 0.0, 0.0, 0.0, 1.7632263299712892E9, 0.0, 2025-11-15 12:05:29.971
2.0, -147.41563655342907, -51.41614459082484, -77.97691407613456, -58.27138120960444, -0.03200000151991844, 0.17600000835955143, 1.0240000486373901, 0.0, 0.0, 0.0, 0.0, 0.0, 1.7632263299712892E9, 0.0, 2025-11-15 12:05:29.971
3.0, -259.242385128513, -168.98737949784845, -194.59073459450155, -158.76623291894794, -0.03200000151991844, 0.17600000835955143, 1.0240000486373901, 0.0, 0.0, 0.0, 0.0, 0.0, 1.7632263299719567E9, 0.0, 2025-11-15 12:05:29.971
3.0, -65.59784522280097, -6.559784522280097, -66.55899951141328, -54.87181214988232, -0.03200000151991844, 0.17600000835955143, 1.0240000486373901, 0.0, 0.0, 0.0, 0.0, 0.0, 1.7632263299719567E9, 0.0, 2025-11-15 12:05:29.971
4.0, -22.53289723303169, 47.702423934824765, 6.185794526711106, 4.989026540890336, -0.03200000151991844, 0.17600000835955143, 1.0240000486373901, 0.0, 0.0, 0.0, 0.0, 0.0, 1.7632263299855843E9, 0.0, 2025-11-15 12:05:29.985
4.0, -266.3182758446783, -163.68420136068016, -180.3791147628799, -146.60033836308867, -0.03200000151991844, 0.17600000835955143, 1.0240000486373901, 0.0, 0.0, 0.0, 0.0, 0.0, 1.7632263299855843E9, 0.0, 2025-11-15 12:05:29.985
5.0, -173.68095394223928, -96.26502485945821, -141.86936491914093, -118.96247769054025, -0.03200000151991844, 0.17600000835955143, 1.0240000486373901, 0.0, 0.0, 0.0, 0.0, 0.0, 1.7632263300012417E9, 0.0, 2025-11-15 12:05:30.001
5.0, 50.062300806865096, 102.97814527992159, 37.32794145774096, 30.98507113289088, -0.03200000151991844, 0.17600000835955143, 1.0240000486373901, 0.0, 0.0, 0.0, 0.0, 0.0, 1.7632263300012417E9, 0.0, 2025-11-15 12:05:30.001
6.0, 273.56807190878317, -128.9143514726311, -148.32443224266171, -119.47110408451408, -0.03200000151991844, 0.17600000835955143, 1.0240000486373901, 0.0, 0.0, 0.0, 0.0, 0.0, 1.7632263300019498E9, 0.0, 2025-11-15 12:05:30.001
6.0, 249.15026509808376, -154.31201207172126, -187.9374525733292, -157.43108863476664, -0.03200000151991844, 0.17600000835955143, 1.0240000486373901, 0.0, 0.0, 0.0, 0.0, 0.0, 1.7632263300019498E9, 0.0, 2025-11-15 12:05:30.001
7.0, 37.08110806066543, 82.25535962544382, 10.789611372165382, 10.142608679831028, -0.03200000151991844, 0.17600000835955143, 1.0240000486373901, 0.0, 0.0, 0.0, 0.0, 0.0, 1.7632263300156407E9, 0.0, 2025-11-15 12:05:30.015
7.0, -151.52578660473228, -63.017314253374934, -90.14280863199383, -69.8501114724204, -0.03200000151991844, 0.17600000835955143, 1.0240000486373901, 0.0, 0.0, 0.0, 0.0, 0.0, 1.7632263300156407E9, 0.0, 2025-11-15 12:05:30.015
8.0, -264.5418233657256, -176.96084620337933, -201.77882230933756, -168.99485929775983, -0.03200000151991844, 0.17600000835955143, 1.0240000486373901, 0.0, 0.0, 0.0, 0.0, 0.0, 1.7632263300312552E9, 0.0, 2025-11-15 12:05:30.031
8.0, -78.19008837360889, -20.756444754078984, -77.87219687737525, -66.59639851097018, -0.03200000151991844, 0.17600000835955143, 1.0240000486373901, 0.0, 0.0, 0.0, 0.0, 0.0, 1.7632263300312552E9, 0.0, 2025-11-15 12:05:30.031
9.0, -34.88578678667545, 37.93006535060704, -8.07444400433451, -3.2873720610514283, -0.03200000151991844, 0.17600000835955143, 1.0240000486373901, 0.0, 0.0, 0.0, 0.0, 0.0, 1.7632263300319524E9, 0.0, 2025-11-15 12:05:30.031
9.0, -270.11427429970354, -178.16509398911148, -189.00706396065652, -155.38162345904857, -0.03200000151991844, 0.17600000835955143, 1.0240000486373901, 0.0, 0.0, 0.0, 0.0, 0.0, 1.7632263300319524E9, 0.0, 2025-11-15 12:05:30.031
10.0, -168.24687930662185, -102.52187748532742, -144.67802978586406, -116.32958812173456, -0.03200000151991844, 0.17600000835955143, 1.0240000486373901, 0.0, 0.0, 0.0, 0.0, 0.0, 1.76322633004558E9, 0.0, 2025-11-15 12:05:30.045
10.0, 51.38622539117932, 99.68703331891447, 43.04250859003514, 39.97205072641373, -0.03200000151991844, 0.17600000835955143, 1.0240000486373901, 0.0, 0.0, 0.0, 0.0, 0.0, 1.76322633004558E9, 0.0, 2025-11-15 12:05:30.045
11.0, 248.1741512096487, -138.94476315379143, -155.5536588570103, -122.37700635008514, -0.03200000151991844, 0.17600000835955143, 1.0240000486373901, 0.0, 0.0, 0.0, 0.0, 0.0, 1.7632263300612886E9, 0.0, 2025-11-15 12:05:30.061
11.0, 251.01647517597303, -155.40032295882702, -183.80486312229186, -150.6319505153224, -0.03200000151991844, 0.17600000835955143, 1.0240000486373901, 0.0, 0.0, 0.0, 0.0, 0.0, 1.7632263300612886E9, 0.0, 2025-11-15 12:05:30.061
12.0, 30.57368213776499, 81.38770283572376, 10.987826069816947, 3.455667559057474, -0.03200000151991844, 0.17600000835955143, 1.0240000486373901, 0.0, 0.0, 0.0, 0.0, 0.0, 1.7632263300619583E9, 0.0, 2025-11-15 12:05:30.061
12.0, -148.32443224266171, -58.29382060933858, -84.31978440098464, -69.89125037193298, -0.03200000151991844, 0.17600000835955143, 1.0240000486373901, 0.0, 0.0, 0.0, 0.0, 0.0, 1.7632263300619583E9, 0.0, 2025-11-15 12:05:30.061
13.0, -261.3741281032562, -176.91970730386674, -198.82430134434253, -161.3018850889057, -0.03200000151991844, 0.17600000835955143, 1.0240000486373901, 0.0, 0.0, 0.0, 0.0, 0.0, 1.763226330075595E9, 0.0, 2025-11-15 12:05:30.075
13.0, -77.33739118371159, -19.234305472113192, -77.75999987870455, -64.86856473144144, -0.03200000151991844, 0.17600000835955143, 1.0240000486373901, 0.0, 0.0, 0.0, 0.0, 0.0, 1.763226330075595E9, 0.0, 2025-11-15 12:05:30.075
14.0, -31.299222729168832, 35.50661017931998, -14.144301632419229, -10.501639075577259, -0.03200000151991844, 0.17600000835955143, 1.0240000486373901, 0.0, 0.0, 0.0, 0.0, 0.0, 1.763226330091267E9, 0.0, 2025-11-15 12:05:30.091
14.0, -267.238291233778, -172.18499395996332, -193.36404740903527, -158.69891471974552, -0.03200000151991844, 0.17600000835955143, 1.0240000486373901, 0.0, 0.0, 0.0, 0.0, 0.0, 1.763226330091267E9, 0.0, 2025-11-15 12:05:30.091
15.0, -171.47067306842655, -99.17840692494065, -149.71193512622267, -120.83242766838521, -0.03200000151991844, 0.17600000835955143, 1.0240000486373901, 0.0, 0.0, 0.0, 0.0, 0.0, 1.7632263300919664E9, 0.0, 2025-11-15 12:05:30.091
15.0, 52.84852627385408, 103.92060006875545, 37.40647935681045, 29.100161555223167, -0.03200000151991844, 0.17600000835955143, 1.0240000486373901, 0.0, 0.0, 0.0, 0.0, 0.0, 1.7632263300919664E9, 0.0, 2025-11-15 12:05:30.091
16.0, 276.548772173468, -124.4302114257589, -143.8851709952578, -121.77114255726337, -0.03200000151991844, 0.17600000835955143, 1.0240000486373901, 0.0, 0.0, 0.0, 0.0, 0.0, 1.763226330105625E9, 0.0, 2025-11-15 12:05:30.105
16.0, 256.34583261283115, -149.1472102329135, -177.79484389349818, -146.37968426570296, -0.03200000151991844, 0.17600000835955143, 1.0240000486373901, 0.0, 0.0, 0.0, 0.0, 0.0, 1.763226330105625E9, 0.0, 2025-11-15 12:05:30.105
17.0, 17.588749491609633, 74.1472565215081, 2.7189072677865624, 0.4787071943283081, -0.03200000151991844, 0.17600000835955143, 1.0240000486373901, 0.0, 0.0, 0.0, 0.0, 0.0, 1.7632263301212573E9, 0.0, 2025-11-15 12:05:30.121
17.0, -137.34782587271184, -49.04130811896175, -71.69014225061983, -53.6189456647262, -0.03200000151991844, 0.17600000835955143, 1.0240000486373901, 0.0, 0.0, 0.0, 0.0, 0.0, 1.7632263301212573E9, 0.0, 2025-11-15 12:05:30.121
18.0, -267.9413924254477, -171.1228623725474, -197.74721015710384, -157.69288163166493, -0.03200000151991844, 0.17600000835955143, 1.0240000486373901, 0.0, 0.0, 0.0, 0.0, 0.0, 1.7632263301219513E9, 0.0, 2025-11-15 12:05:30.121
18.0, -72.24738734401762, -5.744486331939697, -73.39179673045874, -57.49722191877663, -0.03200000151991844, 0.17600000835955143, 1.0240000486373901, 0.0, 0.0, 0.0, 0.0, 0.0, 1.7632263301219513E9, 0.0, 2025-11-15 12:05:30.121
19.0, -29.302116152830422, 46.01946895476431, -1.9036090774461627, 3.0816775634884834, -0.03200000151991844, 0.17600000835955143, 1.0240000486373901, 0.0, 0.0, 0.0, 0.0, 0.0, 1.76322633013562E9, 0.0, 2025-11-15 12:05:30.135
19.0, -255.63338167127222, -160.86805669404566, -179.92658686824143, -147.3670178540051, -0.03200000151991844, 0.17600000835955143, 1.0240000486373901, 0.0, 0.0, 0.0, 0.0, 0.0, 1.76322633013562E9, 0.0, 2025-11-15 12:05:30.135
20.0, -173.17232754826546, -103.51295097358525, -150.2916196193546, -120.78006906900555, -0.03200000151991844, 0.17600000835955143, 1.0240000486373901, 0.0, 0.0, 0.0, 0.0, 0.0, 1.7632263301512597E9, 0.0, 2025-11-15 12:05:30.151
20.0, 40.37222002167255, 90.96184672228992, 26.755244283005595, 22.375821434892714, -0.03200000151991844, 0.17600000835955143, 1.0240000486373901, 0.0, 0.0, 0.0, 0.0, 0.0, 1.7632263301512597E9, 0.0, 2025-11-15 12:05:30.151
21.0, 256.0316810165532, -134.85331260226667, -153.82208517752588, -119.34020758606493, -0.03200000151991844, 0.17600000835955143, 1.0240000486373901, 0.0, 0.0, 0.0, 0.0, 0.0, 1.7632263301519525E9, 0.0, 2025-11-15 12:05:30.151
21.0, 244.43799115391448, -160.38186969980597, -194.91984579060227, -149.89145032409579, -0.03200000151991844, 0.17600000835955143, 1.0240000486373901, 0.0, 0.0, 0.0, 0.0, 0.0, 1.7632263301519525E9, 0.0, 2025-11-15 12:05:30.151
22.0, 22.626394731923938, 71.21143505629152, -1.0808310871943831, 2.045725275762379, -0.03200000151991844, 0.17600000835955143, 1.0240000486373901, 0.0, 0.0, 0.0, 0.0, 0.0, 1.7632263301655903E9, 0.0, 2025-11-15 12:05:30.165
22.0, -145.94211597088724, -53.43569056689739, -78.10033077467233, -62.29551356192678, -0.03200000151991844, 0.17600000835955143, 1.0240000486373901, 0.0, 0.0, 0.0, 0.0, 0.0, 1.7632263301655903E9, 0.0, 2025-11-15 12:05:30.165
23.0, -264.77743706293404, -175.24797202367336, -201.41979191359133, -156.19692164938897, -0.03200000151991844, 0.17600000835955143, 1.0240000486373901, 0.0, 0.0, 0.0, 0.0, 0.0, 1.763226330181239E9, 0.0, 2025-11-15 12:05:30.181
23.0, -78.00683327578008, -13.789011136628687, -82.25535962544382, -60.23482868634164, -0.03200000151991844, 0.17600000835955143, 1.0240000486373901, 0.0, 0.0, 0.0, 0.0, 0.0, 1.763226330181239E9, 0.0, 2025-11-15 12:05:30.181
24.0, -36.2022315710783, 37.97120425011963, -11.395475164987147, -2.1915813740342855, -0.03200000151991844, 0.17600000835955143, 1.0240000486373901, 0.0, 0.0, 0.0, 0.0, 0.0, 1.763226330181945E9, 0.0, 2025-11-15 12:05:30.181
24.0, -266.5314501421526, -171.8259635642171, -199.0524352416396, -159.24494011327624, -0.03200000151991844, 0.17600000835955143, 1.0240000486373901, 0.0, 0.0, 0.0, 0.0, 0.0, 1.763226330181945E9, 0.0, 2025-11-15 12:05:30.181
25.0, -180.36415516305715, -104.26467086467892, -155.84537105355412, -123.2783222394064, -0.03200000151991844, 0.17600000835955143, 1.0240000486373901, 0.0, 0.0, 0.0, 0.0, 0.0, 1.7632263301955993E9, 0.0, 2025-11-15 12:05:30.195
25.0, 47.335913739167154, 97.09902254957706, 27.589241973124444, 28.61397456098348, -0.03200000151991844, 0.17600000835955143, 1.0240000486373901, 0.0, 0.0, 0.0, 0.0, 0.0, 1.7632263301955993E9, 0.0, 2025-11-15 12:05:30.195
26.0, 260.1380911679007, -130.53372815344483, -154.0352594750002, -112.34285476896912, -0.03200000151991844, 0.17600000835955143, 1.0240000486373901, 0.0, 0.0, 0.0, 0.0, 0.0, 1.7632263302112498E9, 0.0, 2025-11-15 12:05:30.211
26.0, 255.79980721930042, -149.87649072427303, -186.06002279557288, -138.5819928580895, -0.03200000151991844, 0.17600000835955143, 1.0240000486373901, 0.0, 0.0, 0.0, 0.0, 0.0, 1.7632263302112498E9, 0.0, 2025-11-15 12:05:30.211
27.0, 29.100161555223167, 83.28757201321423, 1.6754751801490784, 11.65352826192975, -0.03200000151991844, 0.17600000835955143, 1.0240000486373901, 0.0, 0.0, 0.0, 0.0, 0.0, 1.7632263302119691E9, 0.0, 2025-11-15 12:05:30.211
27.0, -142.02270081732422, -54.531481253914535, -87.56975746247917, -61.723308868706226, -0.03200000151991844, 0.17600000835955143, 1.0240000486373901, 0.0, 0.0, 0.0, 0.0, 0.0, 1.7632263302119691E9, 0.0, 2025-11-15 12:05:30.211
28.0, -266.89048053789884, -174.4139743335545, -207.09322014637291, -158.8896496174857, -0.03200000151991844, 0.17600000835955143, 1.0240000486373901, 0.0, 0.0, 0.0, 0.0, 0.0, 1.7632263302255833E9, 0.0, 2025-11-15 12:05:30.225
28.0, -74.4053096184507, -16.84450940042734, -81.47372053470463, -55.784347739070654, -0.03200000151991844, 0.17600000835955143, 1.0240000486373901, 0.0, 0.0, 0.0, 0.0, 0.0, 1.7632263302255833E9, 0.0, 2025-11-15 12:05:30.225
29.0, -25.29294340033084, 41.32963441032916, -7.65931510925293, 7.692974208854139, -0.03200000151991844, 0.17600000835955143, 1.0240000486373901, 0.0, 0.0, 0.0, 0.0, 0.0, 1.7632263302412264E9, 0.0, 2025-11-15 12:05:30.241
29.0, -269.91979950200766, -167.20718711894006, -198.4615310486406, -147.13514405675232, -0.03200000151991844, 0.17600000835955143, 1.0240000486373901, 0.0, 0.0, 0.0, 0.0, 0.0, 1.7632263302412264E9, 0.0, 2025-11-15 12:05:30.241
30.0, -174.83284312859178, -100.30411681160331, -157.46474773436785, -113.72661775257438, -0.03200000151991844, 0.17600000835955143, 1.0240000486373901, 0.0, 0.0, 0.0, 0.0, 0.0, 1.7632263302419395E9, 0.0, 2025-11-15 12:05:30.241
30.0, 36.59118116647005, 89.70150043722242, 13.474859540350735, 27.697699071839452, -0.03200000151991844, 0.17600000835955143, 1.0240000486373901, 0.0, 0.0, 0.0, 0.0, 0.0, 1.7632263302419395E9, 0.0, 2025-11-15 12:05:30.241
31.0, 259.1133585800417, -138.22296246234328, -163.6355826612562, -118.39401289727539, -0.03200000151991844, 0.17600000835955143, 1.0240000486373901, 0.0, 0.0, 0.0, 0.0, 0.0, 1.7632263302555797E9, 0.0, 2025-11-15 12:05:30.255
31.0, 248.1367522100918, -161.0737511916086, -195.19285848736763, -147.56523255165666, -0.03200000151991844, 0.17600000835955143, 1.0240000486373901, 0.0, 0.0, 0.0, 0.0, 0.0, 1.7632263302555797E9, 0.0, 2025-11-15 12:05:30.255
32.0, 20.10570216178894, 62.6956828571856, -12.734359349124134, -2.9657406648620963, -0.03200000151991844, 0.17600000835955143, 1.0240000486373901, 0.0, 0.0, 0.0, 0.0, 0.0, 1.7632263302712245E9, 0.0, 2025-11-15 12:05:30.271
32.0, -144.56209288723767, -61.48769517149776, -91.18624071963131, -56.25557513348758, -0.03200000151991844, 0.17600000835955143, 1.0240000486373901, 0.0, 0.0, 0.0, 0.0, 0.0, 1.7632263302712245E9, 0.0, 2025-11-15 12:05:30.271
33.0, -264.7998764626682, -181.6020620483905, -208.99682922381908, -161.46644068695605, -0.03200000151991844, 0.17600000835955143, 1.0240000486373901, 0.0, 0.0, 0.0, 0.0, 0.0, 1.7632263302719362E9, 0.0, 2025-11-15 12:05:30.271
33.0, -82.89862241782248, -29.76586374733597, -92.06511720921844, -61.8803846668452, -0.03200000151991844, 0.17600000835955143, 1.0240000486373901, 0.0, 0.0, 0.0, 0.0, 0.0, 1.7632263302719362E9, 0.0, 2025-11-15 12:05:30.271
34.0, -25.838968793861568, 43.04250859003514, -7.816390907391906, 13.452420140616596, -0.03200000151991844, 0.17600000835955143, 1.0240000486373901, 0.0, 0.0, 0.0, 0.0, 0.0, 1.7632263302856016E9, 0.0, 2025-11-15 12:05:30.285
34.0, -263.801323174499, -170.5618773791939, -193.644539905712, -145.94585587084293, -0.03200000151991844, 0.17600000835955143, 1.0240000486373901, 0.0, 0.0, 0.0, 0.0, 0.0, 1.7632263302856016E9, 0.0, 2025-11-15 12:05:30.285
35.0, -185.25594430509955, -117.42911870870739, -162.91752186976373, -124.9874565191567, -0.03200000151991844, 0.17600000835955143, 1.0240000486373901, 0.0, 0.0, 0.0, 0.0, 0.0, 1.76322633030123E9, 0.0, 2025-11-15 12:05:30.301
35.0, 43.18088488839567, 86.70210067275912, 14.828703324310482, 25.34904189966619, -0.03200000151991844, 0.17600000835955143, 1.0240000486373901, 0.0, 0.0, 0.0, 0.0, 0.0, 1.76322633030123E9, 0.0, 2025-11-15 12:05:30.301
36.0, 263.2870869305916, -133.7724815150723, -157.13937643822283, -110.30460929311812, -0.03200000151991844, 0.17600000835955143, 1.0240000486373901, 0.0, 0.0, 0.0, 0.0, 0.0, 1.7632263303019452E9, 0.0, 2025-11-15 12:05:30.301
36.0, 246.86518622515723, -164.0768908560276, -200.74660992156714, -150.4000767180696, -0.03200000151991844, 0.17600000835955143, 1.0240000486373901, 0.0, 0.0, 0.0, 0.0, 0.0, 1.7632263303019452E9, 0.0, 2025-11-15 12:05:30.301
37.0, 17.588749491609633, 60.541500482708216, -18.0450172862038, -4.0428318521007895, -0.03200000151991844, 0.17600000835955143, 1.0240000486373901, 0.0, 0.0, 0.0, 0.0, 0.0, 1.7632263303155646E9, 0.0, 2025-11-15 12:05:30.315
37.0, -142.46400901209563, -51.318907191976905, -86.87039617076516, -50.451250402256846, -0.03200000151991844, 0.17600000835955143, 1.0240000486373901, 0.0, 0.0, 0.0, 0.0, 0.0, 1.7632263303155646E9, 0.0, 2025-11-15 12:05:30.315
38.0, -260.7533047106117, -177.88086159247905, -205.5785606643185, -153.98290087562054, -0.03200000151991844, 0.17600000835955143, 1.0240000486373901, 0.0, 0.0, 0.0, 0.0, 0.0, 1.763226330331237E9, 0.0, 2025-11-15 12:05:30.331
38.0, -79.14376286230981, -21.930773340165615, -89.14799524378031, -63.18560975138098, -0.03200000151991844, 0.17600000835955143, 1.0240000486373901, 0.0, 0.0, 0.0, 0.0, 0.0, 1.763226330331237E9, 0.0, 2025-11-15 12:05:30.331
39.0, -27.72013847157359, 40.102947224862874, -14.86610232386738, 7.614436309784651, -0.03200000151991844, 0.17600000835955143, 1.0240000486373901, 0.0, 0.0, 0.0, 0.0, 0.0, 1.7632263303319428E9, 0.0, 2025-11-15 12:05:30.331
39.0, -261.2993301041424, -167.20718711894006, -190.89945333823562, -139.31127334944904, -0.03200000151991844, 0.17600000835955143, 1.0240000486373901, 0.0, 0.0, 0.0, 0.0, 0.0, 1.7632263303319428E9, 0.0, 2025-11-15 12:05:30.331
40.0, -169.95601358637214, -101.40738729853183, -158.24264692515135, -112.71310486458242, -0.03200000151991844, 0.17600000835955143, 1.0240000486373901, 0.0, 0.0, 0.0, 0.0, 0.0, 1.7632263303456457E9, 0.0, 2025-11-15 12:05:30.345
40.0, 66.49542121216655, 107.37626762781292, 30.902793333865702, 43.78300878126174, -0.03200000151991844, 0.17600000835955143, 1.0240000486373901, 0.0, 0.0, 0.0, 0.0, 0.0, 1.7632263303456457E9, 0.0, 2025-11-15 12:05:30.345
41.0, 264.5923120151274, -129.44541726633906, -150.42251611780375, -108.13920721877366, -0.03200000151991844, 0.17600000835955143, 1.0240000486373901, 0.0, 0.0, 0.0, 0.0, 0.0, 1.7632263303612552E9, 0.0, 2025-11-15 12:05:30.361
41.0, 257.86797189479694, -153.39573658257723, -190.2000920465216, -137.82279316708446, -0.03200000151991844, 0.17600000835955143, 1.0240000486373901, 0.0, 0.0, 0.0, 0.0, 0.0, 1.7632263303612552E9, 0.0, 2025-11-15 12:05:30.361
42.0, 23.494051521643996, 66.93298950698227, -7.330203913152218, 5.265779137611389, -0.03200000151991844, 0.17600000835955143, 1.0240000486373901, 0.0, 0.0, 0.0, 0.0, 0.0, 1.7632263303619392E9, 0.0, 2025-11-15 12:05:30.361
42.0, -124.25443612784147, -45.73897645808756, -80.23955354932696, -44.58334737177938, -0.03200000151991844, 0.17600000835955143, 1.0240000486373901, 0.0, 0.0, 0.0, 0.0, 0.0, 1.7632263303619392E9, 0.0, 2025-11-15 12:05:30.361
43.0, -263.59562867693603, -176.7140128063038, -211.78305469080806, -150.94984201155603, -0.03200000151991844, 0.17600000835955143, 1.0240000486373901, 0.0, 0.0, 0.0, 0.0, 0.0, 1.763226330375579E9, 0.0, 2025-11-15 12:05:30.375
43.0, -77.09055778663605, -25.861408193595707, -95.47590596880764, -67.14616380445659, -0.03200000151991844, 0.17600000835955143, 1.0240000486373901, 0.0, 0.0, 0.0, 0.0, 0.0, 1.763226330375579E9, 0.0, 2025-11-15 12:05:30.375
44.0, -20.677906855009496, 42.21973059978336, -6.04741822835058, 14.05080413352698, -0.03200000151991844, 0.17600000835955143, 1.0240000486373901, 0.0, 0.0, 0.0, 0.0, 0.0, 1.7632263303912275E9, 0.0, 2025-11-15 12:05:30.391
44.0, -259.0441704308614, -167.08751032035798, -191.62125402968377, -137.52734107058495, -0.03200000151991844, 0.17600000835955143, 1.0240000486373901, 0.0, 0.0, 0.0, 0.0, 0.0, 1.7632263303912275E9, 0.0, 2025-11-15 12:05:30.391
45.0, -179.92658686824143, -106.422593139112, -158.9607077166438, -114.4970371434465, -0.03200000151991844, 0.17600000835955143, 1.0240000486373901, 0.0, 0.0, 0.0, 0.0, 0.0, 1.7632263303919456E9, 0.0, 2025-11-15 12:05:30.391
45.0, 39.34000763390213, 86.4851864753291, 19.084709473885596, 22.753551330417395, -0.03200000151991844, 0.17600000835955143, 1.0240000486373901, 0.0, 0.0, 0.0, 0.0, 0.0, 1.7632263303919456E9, 0.0, 2025-11-15 12:05:30.391
46.0, 266.13315079687163, -138.61191205773503, -155.6284568561241, -105.03135035559535, -0.03200000151991844, 0.17600000835955143, 1.0240000486373901, 0.0, 0.0, 0.0, 0.0, 0.0, 1.7632263304055855E9, 0.0, 2025-11-15 12:05:30.405
46.0, 254.13181183906272, -157.4797073341906, -194.14568649977446, -133.77996131498367, -0.03200000151991844, 0.17600000835955143, 1.0240000486373901, 0.0, 0.0, 0.0, 0.0, 0.0, 1.7632263304055855E9, 0.0, 2025-11-15 12:05:30.405
47.0, 17.887941488064826, 59.763601291924715, -17.865502088330686, -0.5497652934864163, -0.03200000151991844, 0.17600000835955143, 1.0240000486373901, 0.0, 0.0, 0.0, 0.0, 0.0, 1.7632263304212444E9, 0.0, 2025-11-15 12:05:30.421
47.0, -133.79492091480643, -57.6206386173144, -91.57519031502306, -53.43569056689739, -0.03200000151991844, 0.17600000835955143, 1.0240000486373901, 0.0, 0.0, 0.0, 0.0, 0.0, 1.7632263304212444E9, 0.0, 2025-11-15 12:05:30.421
48.0, -263.1655401820317, -177.10296240169555, -209.27358182054013, -150.7778066135943, -0.03200000151991844, 0.17600000835955143, 1.0240000486373901, 0.0, 0.0, 0.0, 0.0, 0.0, 1.7632263304219468E9, 0.0, 2025-11-15 12:05:30.421
48.0, -89.29759124200791, -36.882893363013864, -99.91890711616725, -71.76120034977794, -0.03200000151991844, 0.17600000835955143, 1.0240000486373901, 0.0, 0.0, 0.0, 0.0, 0.0, 1.7632263304219468E9, 0.0, 2025-11-15 12:05:30.421
49.0, -21.635321243666112, 43.33796068653464, -10.09025008045137, 12.03873795736581, -0.03200000151991844, 0.17600000835955143, 1.0240000486373901, 0.0, 0.0, 0.0, 0.0, 0.0, 1.763226330435556E9, 0.0, 2025-11-15 12:05:30.435
49.0, 221.36654832726344, -170.22154648322612, -198.18851835187525, -137.96116946544498, -0.03200000151991844, 0.17600000835955143, 1.0240000486373901, 0.0, 0.0, 0.0, 0.0, 0.0, 1.763226330435556E9, 0.0, 2025-11-15 12:05:30.435
50.0, 308.62589409342036, -112.35781436879188, -160.56512479763478, -113.77149655204266, -0.03200000151991844, 0.17600000835955143, 1.0240000486373901, 0.0, 0.0, 0.0, 0.0, 0.0, 1.7632263304512975E9, 0.0, 2025-11-15 12:05:30.451
50.0, 531.12376215728, 89.91467473469675, 19.413820669986308, 32.99713730905205, -0.03200000151991844, 0.17600000835955143, 1.0240000486373901, 0.0, 0.0, 0.0, 0.0, 0.0, 1.7632263304512975E9, 0.0, 2025-11-15 12:05:30.451
51.0, 754.1882250644267, -130.21957655716687, -149.18834913242608, -97.1551210489124, -0.03200000151991844, 0.17600000835955143, 1.0240000486373901, 0.0, 0.0, 0.0, 0.0, 0.0, 1.7632263304519408E9, 0.0, 2025-11-15 12:05:30.451
51.0, 734.1049623023719, -164.36112325266004, -200.30156182684004, -149.74933412577957, -0.03200000151991844, 0.17600000835955143, 1.0240000486373901, 0.0, 0.0, 0.0, 0.0, 0.0, 1.7632263304519408E9, 0.0, 2025-11-15 12:05:30.451
52.0, 505.1052781655453, 61.21094257477671, -19.68309346679598, -8.182901103049517, -0.03200000151991844, 0.17600000835955143, 1.0240000486373901, 0.0, 0.0, 0.0, 0.0, 0.0, 1.7632263304655712E9, 0.0, 2025-11-15 12:05:30.465
52.0, 356.27595942886546, -53.48804916627705, -83.36610991228372, -46.26630235183984, -0.03200000151991844, 0.17600000835955143, 1.0240000486373901, 0.0, 0.0, 0.0, 0.0, 0.0, 1.7632263304655712E9, 0.0, 2025-11-15 12:05:30.465
53.0, 233.71195808099583, -171.38839526940137, -202.99802969489247, -148.07759884558618, -0.03200000151991844, 0.17600000835955143, 1.0240000486373901, 0.0, 0.0, 0.0, 0.0, 0.0, 1.7632263304812255E9, 0.0, 2025-11-15 12:05:30.481
53.0, 419.2147357831709, -20.19171986076981, -89.12555584404618, -64.93962283059955, -0.03200000151991844, 0.17600000835955143, 1.0240000486373901, 0.0, 0.0, 0.0, 0.0, 0.0, 1.7632263304812255E9, 0.0, 2025-11-15 12:05:30.481
54.0, 462.3208226724528, 41.93923810310662, -7.891188906505704, 6.462547123432159, -0.03200000151991844, 0.17600000835955143, 1.0240000486373901, 0.0, 0.0, 0.0, 0.0, 0.0, 1.7632263304819324E9, 0.0, 2025-11-15 12:05:30.481
54.0, 230.63028051750734, -173.62111554294825, -191.71475152857602, -145.16795668005943, -0.03200000151991844, 0.17600000835955143, 1.0240000486373901, 0.0, 0.0, 0.0, 0.0, 0.0, 1.7632263304819324E9, 0.0, 2025-11-15 12:05:30.481
55.0, 311.5317963589914, -111.08624838385731, -163.0446784682572, -120.26396287512034, -0.03200000151991844, 0.17600000835955143, 1.0240000486373901, 0.0, 0.0, 0.0, 0.0, 0.0, 1.7632263304956036E9, 0.0, 2025-11-15 12:05:30.495
55.0, 541.7824770309962, 97.95171973947436, 21.949472839944065, 33.28884950559586, -0.03200000151991844, 0.17600000835955143, 1.0240000486373901, 0.0, 0.0, 0.0, 0.0, 0.0, 1.7632263304956036E9, 0.0, 2025-11-15 12:05:30.495
56.0, 758.05528161861, -125.42502481397241, -149.1060713334009, -105.00517105590552, -0.03200000151991844, 0.17600000835955143, 1.0240000486373901, 0.0, 0.0, 0.0, 0.0, 0.0, 1.7632263305112875E9, 0.0, 2025-11-15 12:05:30.511
56.0, 747.4377056444064, -150.35145801864564, -185.97026519663632, -134.55412060581148, -0.03200000151991844, 0.17600000835955143, 1.0240000486373901, 0.0, 0.0, 0.0, 0.0, 0.0, 1.7632263305112875E9, 0.0, 2025-11-15 12:05:30.511
57.0, 992.3039153432474, 59.815959891304374, -20.681646754965186, -5.751966131851077, -0.03200000151991844, 0.17600000835955143, 1.0240000486373901, 0.0, 0.0, 0.0, 0.0, 0.0, 1.7632263305119877E9, 0.0, 2025-11-15 12:05:30.511
57.0, 846.507655470632, -48.132512429729104, -84.0766909038648, -43.84658708050847, -0.03200000151991844, 0.17600000835955143, 1.0240000486373901, 0.0, 0.0, 0.0, 0.0, 0.0, 1.7632263305119877E9, 0.0, 2025-11-15 12:05:30.511
58.0, 711.0821381751448, -179.94902626797557, -210.1374987103045, -151.91847610007972, -0.03200000151991844, 0.17600000835955143, 1.0240000486373901, 0.0, 0.0, 0.0, 0.0, 0.0, 1.7632263305255942E9, 0.0, 2025-11-15 12:05:30.525
58.0, 891.4014145387337, -34.13406689558178, -101.76267779432237, -69.76409377343953, -0.03200000151991844, 0.17600000835955143, 1.0240000486373901, 0.0, 0.0, 0.0, 0.0, 0.0, 1.7632263305255942E9, 0.0, 2025-11-15 12:05:30.525
59.0, 971.8878014851362, 55.83296643849462, -0.17951519787311554, 14.623008826747537, -0.03200000151991844, 0.17600000835955143, 1.0240000486373901, 0.0, 0.0, 0.0, 0.0, 0.0, 1.7632263305412827E9, 0.0, 2025-11-15 12:05:30.541
59.0, 1204.7657618760131, -171.7100266655907, -195.51822978351265, -146.48814136441797, -0.03200000151991844, 0.17600000835955143, 1.0240000486373901, 0.0, 0.0, 0.0, 0.0, 0.0, 1.7632263305412827E9, 0.0, 2025-11-15 12:05:30.541
60.0, 1284.9043381265365, -118.13969970028847, -167.62979581393301, -121.70008445810527, -0.03200000151991844, 0.17600000835955143, 1.0240000486373901, 0.0, 0.0, 0.0, 0.0, 0.0, 1.763226330541988E9, 0.0, 2025-11-15 12:05:30.541
60.0, 1529.2843608311377, 107.32390902843326, 31.276783329434693, 39.71773752942681, -0.03200000151991844, 0.17600000835955143, 1.0240000486373901, 0.0, 0.0, 0.0, 0.0, 0.0, 1.763226330541988E9, 0.0, 2025-11-15 12:05:30.541
61.0, 1745.456188119948, -125.08843381796032, -152.20644839666784, -100.46119260974228, -0.03200000151991844, 0.17600000835955143, 1.0240000486373901, 0.0, 0.0, 0.0, 0.0, 0.0, 1.7632263305555625E9, 0.0, 2025-11-15 12:05:30.555
61.0, 1723.4431369807571, -159.13648301456124, -191.96906472556293, -132.01846843585372, -0.03200000151991844, 0.17600000835955143, 1.0240000486373901, 0.0, 0.0, 0.0, 0.0, 0.0, 1.7632263305555625E9, 0.0, 2025-11-15 12:05:30.555
62.0, 1491.1373812831007, 69.64815687481314, -7.580777210183442, 10.501639075577259, -0.03200000151991844, 0.17600000835955143, 1.0240000486373901, 0.0, 0.0, 0.0, 0.0, 0.0, 1.763226330571303E9, 0.0, 2025-11-15 12:05:30.571
62.0, 1349.5036300611682, -37.34290105756372, -66.34956511389464, -36.22093107085675, -0.03200000151991844, 0.17600000835955143, 1.0240000486373901, 0.0, 0.0, 0.0, 0.0, 0.0, 1.763226330571303E9, 0.0, 2025-11-15 12:05:30.571
63.0, 1208.8272932278924, -169.95227368641645, -202.38468610215932, -145.9982144702226, -0.03200000151991844, 0.17600000835955143, 1.0240000486373901, 0.0, 0.0, 0.0, 0.0, 0.0, 1.7632263305719888E9, 0.0, 2025-11-15 12:05:30.571
63.0, 1395.493179816287, -22.87696802895516, -86.93397447001189, -55.728249239735305, -0.03200000151991844, 0.17600000835955143, 1.0240000486373901, 0.0, 0.0, 0.0, 0.0, 0.0, 1.7632263305719888E9, 0.0, 2025-11-15 12:05:30.571
64.0, 1476.4732335568406, 65.0293804295361, 9.480646387673914, 25.910026893019676, -0.03200000151991844, 0.17600000835955143, 1.0240000486373901, 0.0, 0.0, 0.0, 0.0, 0.0, 1.763226330585592E9, 0.0, 2025-11-15 12:05:30.585
