%OpenBCI Raw EXG Data
%Number of channels = 4
%Sample Rate = 200 Hz
%Board = OpenBCI_GUI$BoardGanglionBLE
Sample Index, EXG Channel 0, EXG Channel 1, EXG Channel 2, EXG Channel 3, Accel Channel 0, Accel Channel 1, Accel Channel 2, Other, Other, Other, Other, Other, Timestamp, Marker Channel, Timestamp (Formatted)
0.0, -255.53614427242428, -173.12183889886364, -194.6468330938369, -169.16502474574372, 0.0, 0.0, 0.0, 0.0, 0.0, 0.0, 0.0, 0.0, 1.7632261921621444E9, 0.0, 2025-11-15 12:03:12.162
1.0, -107.63058082479984, -46.679561296943575, -88.20180055499077, -61.75509801832959, 0.0, 0.2240000106394291, 0.0, 0.0, 0.0, 0.0, 0.0, 0.0, 1.7632261921756153E9, 0.0, 2025-11-15 12:03:12.175
1.0, -6.963693717494607, 60.27783753583208, 12.09857635665685, 32.32582526700571, 0.0, 0.2240000106394291, 0.0, 0.0, 0.0, 0.0, 0.0, 0.0, 1.7632261921756153E9, 0.0, 2025-11-15 12:03:12.175
2.0, 230.14035362331197, -164.6921043987386, -187.95241217315197, -161.77872233325616, -0.03200000151991844, 0.2240000106394291, 0.0, 0.0, 0.0, 0.0, 0.0, 0.0, 1.7632261922087097E9, 0.0, 2025-11-15 12:03:12.208
2.0, 295.4951053489931, -120.8193380185403, -153.20874158479273, -121.05121181579307, -0.03200000151991844, 0.2240000106394291, 0.0, 0.0, 0.0, 0.0, 0.0, 0.0, 1.7632261922087097E9, 0.0, 2025-11-15 12:03:12.208
3.0, 537.7845239783637, 96.9176374017261, 45.39490566216409, 63.0865024025552, -0.03200000151991844, 0.2240000106394291, 0.0, 0.0, 0.0, 0.0, 0.0, 0.0, 1.763226192209444E9, 0.0, 2025-11-15 12:03:12.209
3.0, 771.8629922550172, -115.07859158655629, -142.01522101741284, -118.50807984592393, -0.03200000151991844, 0.2240000106394291, 0.0, 0.0, 0.0, 0.0, 0.0, 0.0, 1.763226192209444E9, 0.0, 2025-11-15 12:03:12.209
4.0, 737.2315186653286, -158.7942821686156, -186.10116169508547, -158.644686170388, -0.03200000151991844, 0.2240000106394291, 0.0, 0.0, 0.0, 0.0, 0.0, 0.0, 1.7632261922103012E9, 0.0, 2025-11-15 12:03:12.210
4.0, 965.2943578632548, 42.83868404245004, -18.51624468062073, 4.149419000837952, -0.03200000151991844, 0.2240000106394291, 0.0, 0.0, 0.0, 0.0, 0.0, 0.0, 1.7632261922103012E9, 0.0, 2025-11-15 12:03:12.210
5.0, 864.7845465540886, -33.8853635485284, -67.38925730157644, -43.79609843110666, -0.03200000151991844, 0.2240000106394291, 0.0, 0.0, 0.0, 0.0, 0.0, 0.0, 1.7632261922211473E9, 0.0, 2025-11-15 12:03:12.221
5.0, 721.1649084556848, -172.912404501345, -194.88618669100106, -162.75483622169122, -0.03200000151991844, 0.2240000106394291, 0.0, 0.0, 0.0, 0.0, 0.0, 0.0, 1.7632261922211473E9, 0.0, 2025-11-15 12:03:12.221
6.0, 873.3900563521311, -46.702000696677715, -87.88016915880144, -57.03534427424893, -0.03200000151991844, 0.2240000106394291, 0.0, 0.0, 0.0, 0.0, 0.0, 0.0, 1.763226192221864E9, 0.0, 2025-11-15 12:03:12.221
6.0, 978.9337730016559, 60.333936035167426, 13.28786454256624, 26.121331240516156, -0.03200000151991844, 0.2240000106394291, 0.0, 0.0, 0.0, 0.0, 0.0, 0.0, 1.763226192221864E9, 0.0, 2025-11-15 12:03:12.221
7.0, 1220.6004982884042, -152.90019983844832, -176.49709860887378, -149.63900707708672, -0.03200000151991844, 0.2240000106394291, 0.0, 0.0, 0.0, 0.0, 0.0, 0.0, 1.763226192235436E9, 0.0, 2025-11-15 12:03:12.235
7.0, 1281.026061872486, -114.69338189112023, -149.33794513065368, -113.12262390973046, -0.03200000151991844, 0.2240000106394291, 0.0, 0.0, 0.0, 0.0, 0.0, 0.0, 1.763226192235436E9, 0.0, 2025-11-15 12:03:12.235
8.0, 1508.453118077945, 91.6181991645135, 36.50516346748918, 56.84460937650874, -0.03200000151991844, 0.2240000106394291, 0.0, 0.0, 0.0, 0.0, 0.0, 0.0, 1.7632261922512376E9, 0.0, 2025-11-15 12:03:12.251
8.0, 1746.9671077020466, -115.79665237804875, -135.12632529903203, -114.79061928996816, -0.03200000151991844, 0.2240000106394291, 0.0, 0.0, 0.0, 0.0, 0.0, 0.0, 1.7632261922512376E9, 0.0, 2025-11-15 12:03:12.251
9.0, 1713.6857379963621, -153.62574042985216, -180.99619825556874, -151.62489395355806, -0.03200000151991844, 0.2240000106394291, 0.0, 0.0, 0.0, 0.0, 0.0, 0.0, 1.763226192251878E9, 0.0, 2025-11-15 12:03:12.251
9.0, 1957.1644448116422, 52.289411230478436, -2.3935359716415405, 14.138691782485694, -0.03200000151991844, 0.2240000106394291, 0.0, 0.0, 0.0, 0.0, 0.0, 0.0, 1.763226192251878E9, 0.0, 2025-11-15 12:03:12.251
10.0, 1849.1224749917164, -29.846271596383303, -59.91319729015231, -40.4825470703654, -0.03200000151991844, 0.2240000106394291, 1.0240000486373901, 0.0, 0.0, 0.0, 0.0, 0.0, 1.7632261922654195E9, 0.0, 2025-11-15 12:03:12.265
10.0, 1710.9331716289744, -161.41595203755423, -181.6768600475043, -155.51065000751987, -0.03200000151991844, 0.2240000106394291, 1.0240000486373901, 0.0, 0.0, 0.0, 0.0, 0.0, 1.7632261922654195E9, 0.0, 2025-11-15 12:03:12.265
11.0, 1856.340481906198, -35.833851425442845, -74.18839542102069, -51.25345894275233, -0.03200000151991844, 0.11200000531971455, 1.0240000486373901, 0.0, 0.0, 0.0, 0.0, 0.0, 1.7632261922811522E9, 0.0, 2025-11-15 12:03:12.281
11.0, 1953.3834059564397, 65.80540967034176, 22.443139634095132, 36.76508651440963, -0.03200000151991844, 0.11200000531971455, 1.0240000486373901, 0.0, 0.0, 0.0, 0.0, 0.0, 1.7632261922811522E9, 0.0, 2025-11-15 12:03:12.281
12.0, 2191.1606352892704, -164.00022290693596, -185.5738358013332, -169.33706014370546, -0.01600000075995922, 0.11200000531971455, 1.0240000486373901, 0.0, 0.0, 0.0, 0.0, 0.0, 1.763226192281891E9, 0.0, 2025-11-15 12:03:12.281
12.0, 2259.129577083979, -114.5550055927597, -147.98784124664962, -124.09923027968034, -0.01600000075995922, 0.11200000531971455, 1.0240000486373901, 0.0, 0.0, 0.0, 0.0, 0.0, 1.763226192281891E9, 0.0, 2025-11-15 12:03:12.281
13.0, 2014.321335834451, 106.94804908288643, 52.882185373455286, 65.25564437685534, -0.01600000075995922, 0.11200000531971455, 1.0240000486373901, 0.0, 0.0, 0.0, 0.0, 0.0, 1.7632261922955115E9, 0.0, 2025-11-15 12:03:12.295
13.0, 2240.194463608321, -105.79615989653394, -127.23513639252633, -114.4802075936459, -0.01600000075995922, 0.11200000531971455, 1.0240000486373901, 0.0, 0.0, 0.0, 0.0, 0.0, 1.7632261922955115E9, 0.0, 2025-11-15 12:03:12.295
14.0, 2219.423059254419, -143.21011905325577, -168.1907808072865, -143.65890704793856, -0.01600000075995922, 0.11200000531971455, 1.0240000486373901, 0.0, 0.0, 0.0, 0.0, 0.0, 1.7632261923112185E9, 0.0, 2025-11-15 12:03:12.311
14.0, 2451.625967703294, 57.31957667088136, 2.9171219654381275, 21.820446291472763, -0.01600000075995922, 0.11200000531971455, 1.0240000486373901, 0.0, 0.0, 0.0, 0.0, 0.0, 1.7632261923112185E9, 0.0, 2025-11-15 12:03:12.311
15.0, 2349.2948251157068, -16.917437449563295, -47.736083034425974, -39.76822617882863, -0.01600000075995922, 0.11200000531971455, 1.0240000486373901, 0.0, 0.0, 0.0, 0.0, 0.0, 1.763226192311945E9, 0.0, 2025-11-15 12:03:12.311
15.0, 2193.0418049669825, -156.99165038997307, -176.47091930918396, -154.10818752413616, -0.01600000075995922, 0.11200000531971455, 1.0240000486373901, 0.0, 0.0, 0.0, 0.0, 0.0, 1.763226192311945E9, 0.0, 2025-11-15 12:03:12.311
16.0, 2352.814070974011, -28.922516307327896, -73.71342812664807, -54.342616306152195, -0.01600000075995922, 0.11200000531971455, 1.0240000486373901, 0.0, 0.0, 0.0, 0.0, 0.0, 1.7632261923254871E9, 0.0, 2025-11-15 12:03:12.325
16.0, 2450.5713159157895, 69.99409762071446, 23.235998424701393, 38.75845319079235, -0.01600000075995922, 0.11200000531971455, 1.0240000486373901, 0.0, 0.0, 0.0, 0.0, 0.0, 1.7632261923254871E9, 0.0, 2025-11-15 12:03:12.325
17.0, 2693.767660284415, -152.81792203942314, -175.674320618622, -152.47759114345536, -0.01600000075995922, 0.11200000531971455, 1.0240000486373901, 0.0, 0.0, 0.0, 0.0, 0.0, 1.763226192341148E9, 0.0, 2025-11-15 12:03:12.341
17.0, 2739.7085913401097, -119.44305483484641, -160.3706499999389, -134.47745265671983, -0.01600000075995922, 0.11200000531971455, 1.0240000486373901, 0.0, 0.0, 0.0, 0.0, 0.0, 1.763226192341148E9, 0.0, 2025-11-15 12:03:12.341
18.0, 2498.647729846183, 103.49612142378464, 42.440384697169065, 53.164547820109874, -0.01600000075995922, 0.11200000531971455, 1.0240000486373901, 0.0, 0.0, 0.0, 0.0, 0.0, 1.7632261923418465E9, 0.0, 2025-11-15 12:03:12.341
18.0, 2737.8311615623534, -109.01995365833864, -135.48535569477826, -114.13613679772243, -0.01600000075995922, 0.11200000531971455, 1.0240000486373901, 0.0, 0.0, 0.0, 0.0, 0.0, 1.7632261923418465E9, 0.0, 2025-11-15 12:03:12.341
19.0, 2698.057325533591, -155.4620313080959, -188.1618465706706, -158.69330486981198, -0.01600000075995922, 0.11200000531971455, 1.0240000486373901, 0.0, 0.0, 0.0, 0.0, 0.0, 1.7632261923556187E9, 0.0, 2025-11-15 12:03:12.355
19.0, 2936.883596803993, 52.674620925914496, 2.258899573236704, 22.201916086953133, -0.01600000075995922, 0.11200000531971455, 1.0240000486373901, 0.0, 0.0, 0.0, 0.0, 0.0, 1.7632261923556187E9, 0.0, 2025-11-15 12:03:12.355
20.0, 2820.269776285626, -26.229788339231163, -59.97303568944335, -40.15717577422038, -0.01600000075995922, 0.11200000531971455, 0.5120000243186951, 0.0, 0.0, 0.0, 0.0, 0.0, 1.7632261923711896E9, 0.0, 2025-11-15 12:03:12.371
20.0, 2686.4860750706866, -165.7991147856228, -191.26970343384892, -158.7606230690144, -0.01600000075995922, 0.11200000531971455, 0.5120000243186951, 0.0, 0.0, 0.0, 0.0, 0.0, 1.7632261923711896E9, 0.0, 2025-11-15 12:03:12.371
21.0, 2834.0587874222547, -41.98224695259705, -84.91442849393934, -60.99963822728023, -0.01600000075995922, 0.17600000835955143, 0.5120000243186951, 0.0, 0.0, 0.0, 0.0, 0.0, 1.7632261923718603E9, 0.0, 2025-11-15 12:03:12.371
21.0, 2936.004720314406, 57.35697567043826, 13.534697939641774, 31.046779482159764, -0.01600000075995922, 0.17600000835955143, 0.5120000243186951, 0.0, 0.0, 0.0, 0.0, 0.0, 1.7632261923718603E9, 0.0, 2025-11-15 12:03:12.371
22.0, 3176.601834213827, -158.6484260703437, -182.59687543660402, -153.02735643694177, -0.03200000151991844, 0.17600000835955143, 0.5120000243186951, 0.0, 0.0, 0.0, 0.0, 0.0, 1.763226192385492E9, 0.0, 2025-11-15 12:03:12.385
22.0, 3234.2187329311855, -126.30577125353739, -161.34676388837397, -134.9374603512697, -0.03200000151991844, 0.17600000835955143, 0.5120000243186951, 0.0, 0.0, 0.0, 0.0, 0.0, 1.763226192385492E9, 0.0, 2025-11-15 12:03:12.385
23.0, 3478.920387031976, 100.81461315555498, 47.16013844124973, 67.60056164907292, -0.03200000151991844, 0.17600000835955143, 0.5120000243186951, 0.0, 0.0, 0.0, 0.0, 0.0, 1.7632261924011893E9, 0.0, 2025-11-15 12:03:12.401
23.0, 3715.76638127584, -113.20490170875564, -136.9177373778075, -110.89364353613928, -0.03200000151991844, 0.17600000835955143, 0.5120000243186951, 0.0, 0.0, 0.0, 0.0, 0.0, 1.7632261924011893E9, 0.0, 2025-11-15 12:03:12.401
24.0, 3682.152160474099, -155.533089407254, -186.35547489207238, -149.11168118333444, -0.03200000151991844, 0.17600000835955143, 0.5120000243186951, 0.0, 0.0, 0.0, 0.0, 0.0, 1.763226192401858E9, 0.0, 2025-11-15 12:03:12.401
24.0, 3923.196192418225, 53.83025001222268, -1.851250478066504, 25.373351249378175, -0.03200000151991844, 0.17600000835955143, 0.5120000243186951, 0.0, 0.0, 0.0, 0.0, 0.0, 1.763226192401858E9, 0.0, 2025-11-15 12:03:12.401
25.0, 3792.883118362166, -37.09793761046603, -72.81585213728249, -47.5958367860876, -0.03200000151991844, 0.17600000835955143, 0.5120000243186951, 0.0, 0.0, 0.0, 0.0, 0.0, 1.763226192415478E9, 0.0, 2025-11-15 12:03:12.415
25.0, 3667.6862274454907, -170.32813363196328, -197.73225055728108, -169.07526714680716, -0.03200000151991844, 0.17600000835955143, 0.5120000243186951, 0.0, 0.0, 0.0, 0.0, 0.0, 1.763226192415478E9, 0.0, 2025-11-15 12:03:12.415
26.0, 3810.815938649699, -46.87777599459514, -90.10540963243693, -56.691273478325456, -0.03200000151991844, 0.17600000835955143, 0.5120000243186951, 0.0, 0.0, 0.0, 0.0, 0.0, 1.7632261924475727E9, 0.0, 2025-11-15 12:03:12.447
26.0, 3905.7159000253305, 46.683301196899265, 2.2701192731037736, 32.37818386638537, -0.03200000151991844, 0.17600000835955143, 0.5120000243186951, 0.0, 0.0, 0.0, 0.0, 0.0, 1.7632261924475727E9, 0.0, 2025-11-15 12:03:12.447
27.0, 4147.3377465126105, -167.6915041632019, -186.43401279114187, -149.13412058306858, -0.03200000151991844, 0.17600000835955143, 0.5120000243186951, 0.0, 0.0, 0.0, 0.0, 0.0, 1.763226192448288E9, 0.0, 2025-11-15 12:03:12.448
27.0, 4222.0646875272505, -115.04119258699939, -150.2168216202408, -116.06966507481411, -0.03200000151991844, 0.17600000835955143, 0.5120000243186951, 0.0, 0.0, 0.0, 0.0, 0.0, 1.763226192448288E9, 0.0, 2025-11-15 12:03:12.448
28.0, 4446.56714196736, 89.392958690878, 26.19425928965211, 50.50547895161435, -0.03200000151991844, 0.17600000835955143, 0.5120000243186951, 0.0, 0.0, 0.0, 0.0, 0.0, 1.7632261924489777E9, 0.0, 2025-11-15 12:03:12.448
28.0, 4690.993913421407, -113.63873010361567, -142.90905710682273, -114.5176065932028, -0.03200000151991844, 0.17600000835955143, 0.5120000243186951, 0.0, 0.0, 0.0, 0.0, 0.0, 1.7632261924489777E9, 0.0, 2025-11-15 12:03:12.448
29.0, 4660.311774184927, -158.4689108724706, -186.97255838476121, -155.60414750641212, -0.03200000151991844, 0.17600000835955143, 0.5120000243186951, 0.0, 0.0, 0.0, 0.0, 0.0, 1.763226192449721E9, 0.0, 2025-11-15 12:03:12.449
29.0, 4895.401885399595, 47.19192759087309, -5.819284331053495, 19.10527892364189, -0.03200000151991844, 0.17600000835955143, 0.5120000243186951, 0.0, 0.0, 0.0, 0.0, 0.0, 1.763226192449721E9, 0.0, 2025-11-15 12:03:12.449
30.0, 4781.439653949812, -32.37818386638537, -70.47467476502061, -44.89936891803518, -0.03200000151991844, 0.17600000835955143, 0.7680000364780426, 0.0, 0.0, 0.0, 0.0, 0.0, 1.7632261924604385E9, 0.0, 2025-11-15 12:03:12.460
30.0, 4642.307895798236, -172.4000382074155, -197.9117657551542, -157.59751418279484, -0.03200000151991844, 0.17600000835955143, 0.7680000364780426, 0.0, 0.0, 0.0, 0.0, 0.0, 1.7632261924604385E9, 0.0, 2025-11-15 12:03:12.460
31.0, 4792.681793216616, -41.5184993580915, -89.1554750436917, -59.69815304270014, -0.03200000151991844, 0.20800000987946987, 0.7680000364780426, 0.0, 0.0, 0.0, 0.0, 0.0, 1.7632261924754655E9, 0.0, 2025-11-15 12:03:12.475
31.0, 4898.659338261001, 55.80117728887126, 11.406694864854217, 29.741554397623986, -0.03200000151991844, 0.20800000987946987, 0.7680000364780426, 0.0, 0.0, 0.0, 0.0, 0.0, 1.7632261924754655E9, 0.0, 2025-11-15 12:03:12.475
32.0, 5130.579884263221, -161.80864153290167, -188.6068946653977, -168.56290085287765, -0.03200000151991844, 0.20800000987946987, 0.7680000364780426, 0.0, 0.0, 0.0, 0.0, 0.0, 1.7632261924911225E9, 0.0, 2025-11-15 12:03:12.491
32.0, 5203.990380493458, -113.06652541039512, -149.60347802750766, -122.22180050192401, -0.03200000151991844, 0.20800000987946987, 0.7680000364780426, 0.0, 0.0, 0.0, 0.0, 0.0, 1.7632261924911225E9, 0.0, 2025-11-15 12:03:12.491
33.0, 5441.429148880299, 99.64028456946835, 43.01258939038962, 59.619615143630654, -0.03200000151991844, 0.20800000987946987, 0.7680000364780426, 0.0, 0.0, 0.0, 0.0, 0.0, 1.7632261924918268E9, 0.0, 2025-11-15 12:03:12.491
33.0, 5677.736597530544, -109.22564815590158, -136.0650401879102, -105.40721030114219, -0.03200000151991844, 0.20800000987946987, 0.7680000364780426, 0.0, 0.0, 0.0, 0.0, 0.0, 1.7632261924918268E9, 0.0, 2025-11-15 12:03:12.491
34.0, 5645.450041213073, -147.7166984998621, -181.37392815109342, -154.1979451230727, -0.03200000151991844, 0.20800000987946987, 0.7680000364780426, 0.0, 0.0, 0.0, 0.0, 0.0, 1.763226192505483E9, 0.0, 2025-11-15 12:03:12.505
34.0, 5888.1134498380125, 62.331042611505836, 2.0232858760282397, 26.72719503333792, -0.03200000151991844, 0.20800000987946987, 0.7680000364780426, 0.0, 0.0, 0.0, 0.0, 0.0, 1.763226192505483E9, 0.0, 2025-11-15 12:03:12.505
35.0, 5750.010164174251, -46.713220396544784, -84.55165819823742, -62.27868401212618, -0.03200000151991844, 0.20800000987946987, 0.7680000364780426, 0.0, 0.0, 0.0, 0.0, 0.0, 1.763226192521113E9, 0.0, 2025-11-15 12:03:12.521
35.0, 5618.350726134144, -173.5481874938123, -206.52101545315236, -179.992035117466, -0.03200000151991844, 0.20800000987946987, 0.7680000364780426, 0.0, 0.0, 0.0, 0.0, 0.0, 1.763226192521113E9, 0.0, 2025-11-15 12:03:12.521
36.0, 5778.740075633861, -41.043532063718885, -92.73081940133125, -70.74955741176382, -0.03200000151991844, 0.20800000987946987, 0.7680000364780426, 0.0, 0.0, 0.0, 0.0, 0.0, 1.763226192521822E9, 0.0, 2025-11-15 12:03:12.521
36.0, 5874.4366357000545, 60.10580213787034, 7.876229306682944, 26.77581373276189, -0.03200000151991844, 0.20800000987946987, 0.7680000364780426, 0.0, 0.0, 0.0, 0.0, 0.0, 1.763226192521822E9, 0.0, 2025-11-15 12:03:12.521
37.0, 6108.552502976265, -166.85376657312736, -195.2078180871904, -164.32933410303667, -0.03200000151991844, 0.20800000987946987, 0.7680000364780426, 0.0, 0.0, 0.0, 0.0, 0.0, 1.763226192535525E9, 0.0, 2025-11-15 12:03:12.535
37.0, 6184.277997279074, -111.86227762466297, -148.20101554412395, -115.19826838513836, -0.03200000151991844, 0.20800000987946987, 0.7680000364780426, 0.0, 0.0, 0.0, 0.0, 0.0, 1.763226192535525E9, 0.0, 2025-11-15 12:03:12.535
38.0, 6417.550517115276, 99.18401677487418, 41.0566217135638, 57.22607917198911, -0.03200000151991844, 0.20800000987946987, 0.7680000364780426, 0.0, 0.0, 0.0, 0.0, 0.0, 1.7632261925511324E9, 0.0, 2025-11-15 12:03:12.551
38.0, 6641.564914611168, -125.06786436820403, -152.12043069768697, -125.96170045761392, -0.03200000151991844, 0.20800000987946987, 0.7680000364780426, 0.0, 0.0, 0.0, 0.0, 0.0, 1.7632261925511324E9, 0.0, 2025-11-15 12:03:12.551
39.0, 6615.400574521162, -157.21978428727016, -188.39372036792338, -156.6139204944484, -0.03200000151991844, 0.20800000987946987, 0.7680000364780426, 0.0, 0.0, 0.0, 0.0, 0.0, 1.7632261925518217E9, 0.0, 2025-11-15 12:03:12.551
39.0, 6852.499012012035, 43.837237330619246, -16.90808769967407, 4.785201993305236, -0.03200000151991844, 0.20800000987946987, 0.7680000364780426, 0.0, 0.0, 0.0, 0.0, 0.0, 1.7632261925518217E9, 0.0, 2025-11-15 12:03:12.551
40.0, 6748.66442964226, -29.894890295807272, -63.23796835076064, -40.05619847541675, -0.03200000151991844, 0.20800000987946987, 0.8960000425577164, 0.0, 0.0, 0.0, 0.0, 0.0, 1.7632261925654662E9, 0.0, 2025-11-15 12:03:12.565
40.0, 6605.84887003433, -165.56724098837003, -191.81946872733533, -156.47928409604356, -0.03200000151991844, 0.20800000987946987, 0.8960000425577164, 0.0, 0.0, 0.0, 0.0, 0.0, 1.7632261925654662E9, 0.0, 2025-11-15 12:03:12.565
41.0, 6772.655887858011, -34.625863739755005, -83.86725650634617, -55.558083791751415, -0.03200000151991844, 0.2240000106394291, 0.8960000425577164, 0.0, 0.0, 0.0, 0.0, 0.0, 1.7632261925975611E9, 0.0, 2025-11-15 12:03:12.597
41.0, 6868.4085464235395, 67.49958435026929, 17.813143488951027, 43.3360907365568, -0.03200000151991844, 0.2240000106394291, 0.8960000425577164, 0.0, 0.0, 0.0, 0.0, 0.0, 1.7632261925975611E9, 0.0, 2025-11-15 12:03:12.597
42.0, 7106.503667252604, -145.016490731854, -169.01729869749397, -132.96279317466542, -0.03200000151991844, 0.2240000106394291, 0.8960000425577164, 0.0, 0.0, 0.0, 0.0, 0.0, 1.763226192598292E9, 0.0, 2025-11-15 12:03:12.598
42.0, 7187.034932998475, -89.34060009149835, -125.58584051206708, -80.50695639615878, -0.03200000151991844, 0.2240000106394291, 0.8960000425577164, 0.0, 0.0, 0.0, 0.0, 0.0, 1.763226192598292E9, 0.0, 2025-11-15 12:03:12.598
43.0, 7386.764290132094, 91.1357520702295, 28.90942665748298, 59.84400914097205, -0.03200000151991844, 0.2240000106394291, 0.8960000425577164, 0.0, 0.0, 0.0, 0.0, 0.0, 1.7632261925988996E9, 0.0, 2025-11-15 12:03:12.598
43.0, 7148.259650257882, -114.22589439665899, -147.9242629474029, -104.93972280668095, -0.03200000151991844, 0.2240000106394291, 0.8960000425577164, 0.0, 0.0, 0.0, 0.0, 0.0, 1.7632261925988996E9, 0.0, 2025-11-15 12:03:12.598
44.0, 7118.456387510989, -149.99803747283295, -185.58879540115595, -144.53778353752568, -0.03200000151991844, 0.2240000106394291, 0.8960000425577164, 0.0, 0.0, 0.0, 0.0, 0.0, 1.7632261925997016E9, 0.0, 2025-11-15 12:03:12.599
44.0, 6878.210824207403, 64.72831848310307, -2.584270869381726, 27.022647129837424, -0.03200000151991844, 0.2240000106394291, 0.8960000425577164, 0.0, 0.0, 0.0, 0.0, 0.0, 1.7632261925997016E9, 0.0, 2025-11-15 12:03:12.599
45.0, 6754.494933673181, -27.067525929305702, -73.0327663347125, -41.9635474528186, -0.03200000151991844, 0.2240000106394291, 0.8960000425577164, 0.0, 0.0, 0.0, 0.0, 0.0, 1.7632261926106691E9, 0.0, 2025-11-15 12:03:12.610
45.0, 6628.516403665766, -155.21519791102037, -193.25185041036457, -150.60016136569902, -0.03200000151991844, 0.2240000106394291, 0.8960000425577164, 0.0, 0.0, 0.0, 0.0, 0.0, 1.7632261926106691E9, 0.0, 2025-11-15 12:03:12.610
46.0, 6796.460351075977, -16.64442475279793, -78.35838387161493, -49.76123886043206, -0.03200000151991844, 0.2240000106394291, 0.8960000425577164, 0.0, 0.0, 0.0, 0.0, 0.0, 1.7632261926254897E9, 0.0, 2025-11-15 12:03:12.625
46.0, 6862.600481792353, 56.95306647522375, 0.014959599822759628, 21.15848399931565, -0.03200000151991844, 0.2240000106394291, 0.8960000425577164, 0.0, 0.0, 0.0, 0.0, 0.0, 1.7632261926254897E9, 0.0, 2025-11-15 12:03:12.625
47.0, 7101.903590307105, -159.0897342651151, -195.71644448116422, -164.12363960547373, -0.03200000151991844, 0.2240000106394291, 0.8960000425577164, 0.0, 0.0, 0.0, 0.0, 0.0, 1.7632261926409166E9, 0.0, 2025-11-15 12:03:12.640
47.0, 7180.411570176948, -106.22998829139397, -155.2245476609096, -123.87109638238326, -0.03200000151991844, 0.2240000106394291, 0.8960000425577164, 0.0, 0.0, 0.0, 0.0, 0.0, 1.7632261926409166E9, 0.0, 2025-11-15 12:03:12.640
48.0, 7401.779988454189, 90.51492867758498, 22.11402843799442, 57.06526347389445, -0.03200000151991844, 0.2240000106394291, 0.8960000425577164, 0.0, 0.0, 0.0, 0.0, 0.0, 1.7632261926561575E9, 0.0, 2025-11-15 12:03:12.656
48.0, 7632.2531931735575, -127.77181203616783, -160.1537358025089, -133.9351671631448, -0.03200000151991844, 0.2240000106394291, 0.8960000425577164, 0.0, 0.0, 0.0, 0.0, 0.0, 1.7632261926561575E9, 0.0, 2025-11-15 12:03:12.656
49.0, 7612.603758806363, -162.5005230247043, -205.01383577100933, -172.16068461025134, -0.03200000151991844, 0.2240000106394291, 0.8960000425577164, 0.0, 0.0, 0.0, 0.0, 0.0, 1.7632261926568685E9, 0.0, 2025-11-15 12:03:12.656
49.0, 7847.641511421651, 40.43018847098574, -31.673212724737823, -12.571673701051623, -0.03200000151991844, 0.2240000106394291, 0.8960000425577164, 0.0, 0.0, 0.0, 0.0, 0.0, 1.7632261926568685E9, 0.0, 2025-11-15 12:03:12.656
50.0, 7736.259810941294, -43.79235853115097, -86.33185057714581, -63.84944199351594, -0.03200000151991844, 0.2240000106394291, 0.9600000455975533, 0.0, 0.0, 0.0, 0.0, 0.0, 1.7632261926875396E9, 0.0, 2025-11-15 12:03:12.687
50.0, 7615.980888466351, -159.17949186405167, -197.48541716020554, -165.93749108398333, -0.03200000151991844, 0.2240000106394291, 0.9600000455975533, 0.0, 0.0, 0.0, 0.0, 0.0, 1.7632261926875396E9, 0.0, 2025-11-15 12:03:12.687
51.0, 7750.478910572827, -48.38869557669386, -104.384347663261, -67.14055395452306, -0.03200000151991844, 0.2240000106394291, 0.9600000455975533, 0.0, 0.0, 0.0, 0.0, 0.0, 1.7632261926882749E9, 0.0, 2025-11-15 12:03:12.688
51.0, 7850.764327884652, 52.87283562356606, -5.972620229236782, 1.7259638295508921, -0.03200000151991844, 0.2240000106394291, 0.9600000455975533, 0.0, 0.0, 0.0, 0.0, 0.0, 1.7632261926882749E9, 0.0, 2025-11-15 12:03:12.688
52.0, 8065.4214956914075, -184.2592609669082, -218.20820281468332, -188.65738331479952, -0.03200000151991844, 0.2240000106394291, 0.9600000455975533, 0.0, 0.0, 0.0, 0.0, 0.0, 1.763226192688994E9, 0.0, 2025-11-15 12:03:12.688
52.0, 8143.188975370023, -133.31434377050027, -181.6768600475043, -151.0115503608249, -0.03200000151991844, 0.2240000106394291, 0.9600000455975533, 0.0, 0.0, 0.0, 0.0, 0.0, 1.763226192688994E9, 0.0, 2025-11-15 12:03:12.688
53.0, 8362.967936166096, 75.94801835017279, 7.390042312443256, 25.638884146232158, -0.03200000151991844, 0.2240000106394291, 0.9600000455975533, 0.0, 0.0, 0.0, 0.0, 0.0, 1.763226192689777E9, 0.0, 2025-11-15 12:03:12.689
53.0, 8607.843495614827, -130.73755270102993, -166.49660612735897, -141.0521967788227, -0.03200000151991844, 0.2240000106394291, 0.9600000455975533, 0.0, 0.0, 0.0, 0.0, 0.0, 1.763226192689777E9, 0.0, 2025-11-15 12:03:12.689
54.0, 8576.936962381005, -176.07261996390298, -220.05571339279413, -181.63759109796956, -0.03200000151991844, 0.2240000106394291, 0.9600000455975533, 0.0, 0.0, 0.0, 0.0, 0.0, 1.7632261927004695E9, 0.0, 2025-11-15 12:03:12.700
54.0, 8332.00530443294, 38.04039239929989, -28.711211959831417, -7.85565985692665, -0.03200000151991844, 0.2240000106394291, 0.9600000455975533, 0.0, 0.0, 0.0, 0.0, 0.0, 1.7632261927004695E9, 0.0, 2025-11-15 12:03:12.700
55.0, 8233.24202640308, -33.98260094737634, -79.2970987604931, -55.38978829374537, -0.03200000151991844, 0.2240000106394291, 0.9600000455975533, 0.0, 0.0, 0.0, 0.0, 0.0, 1.7632261927155068E9, 0.0, 2025-11-15 12:03:12.715
55.0, 8066.135816582944, -184.52105396380648, -222.09395886864513, -179.30015362566337, -0.03200000151991844, 0.2240000106394291, 0.9600000455975533, 0.0, 0.0, 0.0, 0.0, 0.0, 1.7632261927155068E9, 0.0, 2025-11-15 12:03:12.715
56.0, 8231.375816325191, -52.50258552795276, -120.70901096984744, -88.71229689894244, -0.03200000151991844, 0.2240000106394291, 0.9600000455975533, 0.0, 0.0, 0.0, 0.0, 0.0, 1.7632261927311423E9, 0.0, 2025-11-15 12:03:12.731
56.0, 8317.804904301185, 37.55794530501589, -21.194013048894703, 10.488549425732344, -0.03200000151991844, 0.2240000106394291, 0.9600000455975533, 0.0, 0.0, 0.0, 0.0, 0.0, 1.7632261927311423E9, 0.0, 2025-11-15 12:03:12.731
57.0, 8083.638548375573, -164.06754110613838, -196.15775267593563, -166.1020466820337, -0.03200000151991844, 0.2240000106394291, 0.9600000455975533, 0.0, 0.0, 0.0, 0.0, 0.0, 1.763226192731844E9, 0.0, 2025-11-15 12:03:12.731
57.0, 8149.490706795361, -118.7810925426893, -167.40166191663593, -132.05773738538846, -0.03200000151991844, 0.2240000106394291, 0.9600000455975533, 0.0, 0.0, 0.0, 0.0, 0.0, 1.763226192731844E9, 0.0, 2025-11-15 12:03:12.731
58.0, 8361.700110081118, 75.61890715407208, 3.975513652898371, 20.821893003303558, -0.03200000151991844, 0.2240000106394291, 0.9600000455975533, 0.0, 0.0, 0.0, 0.0, 0.0, 1.763226192761927E9, 0.0, 2025-11-15 12:03:12.761
58.0, 8603.348135868087, -131.0778835969977, -164.68649454880506, -141.95725256809965, -0.03200000151991844, 0.2240000106394291, 0.9600000455975533, 0.0, 0.0, 0.0, 0.0, 0.0, 1.763226192761927E9, 0.0, 2025-11-15 12:03:12.761
59.0, 8593.272845387459, -148.12060769507661, -186.6023082891479, -148.91346648568287, -0.03200000151991844, 0.2240000106394291, 0.9600000455975533, 0.0, 0.0, 0.0, 0.0, 0.0, 1.763226192762565E9, 0.0, 2025-11-15 12:03:12.762
59.0, 8833.59133674018, 54.96717959875241, -20.47595225740224, -0.6413928424008191, -0.03200000151991844, 0.2240000106394291, 0.9600000455975533, 0.0, 0.0, 0.0, 0.0, 0.0, 1.763226192762565E9, 0.0, 2025-11-15 12:03:12.762
60.0, 8711.12457279116, -31.488087676931173, -70.51207376457751, -45.449134211521596, -0.03200000151991844, 0.2240000106394291, 0.9920000471174717, 0.0, 0.0, 0.0, 0.0, 0.0, 1.7632261927632966E9, 0.0, 2025-11-15 12:03:12.763
60.0, 8580.418809239753, -154.3475411213003, -185.14000740647316, -149.5342898783274, -0.03200000151991844, 0.2240000106394291, 0.9920000471174717, 0.0, 0.0, 0.0, 0.0, 0.0, 1.7632261927632966E9, 0.0, 2025-11-15 12:03:12.763
61.0, 8708.701117619872, -60.97719882754609, -120.85112716816366, -86.88348582061008, -0.03200000151991844, 0.2240000106394291, 0.9920000471174717, 0.0, 0.0, 0.0, 0.0, 0.0, 1.7632261927754638E9, 0.0, 2025-11-15 12:03:12.775
61.0, 8795.526634991169, 34.566025340463966, -22.334682535380125, 0.21878414740785956, -0.03200000151991844, 0.2240000106394291, 0.9920000471174717, 0.0, 0.0, 0.0, 0.0, 0.0, 1.7632261927754638E9, 0.0, 2025-11-15 12:03:12.775
62.0, 8588.044465249404, -141.4935049735941, -170.36740258149803, -134.00248536234722, -0.03200000151991844, 0.2240000106394291, 0.9920000471174717, 0.0, 0.0, 0.0, 0.0, 0.0, 1.7632261927911825E9, 0.0, 2025-11-15 12:03:12.791
62.0, 8633.30847441312, -114.60362429218367, -155.60601745638996, -113.67238920321688, -0.03200000151991844, 0.2240000106394291, 0.9920000471174717, 0.0, 0.0, 0.0, 0.0, 0.0, 1.7632261927911825E9, 0.0, 2025-11-15 12:03:12.791
63.0, 8866.86896654591, 90.49622917780653, 22.820869529619813, 42.8162446427159, -0.03200000151991844, 0.2240000106394291, 0.9920000471174717, 0.0, 0.0, 0.0, 0.0, 0.0, 1.7632261927918844E9, 0.0, 2025-11-15 12:03:12.791
63.0, 9101.186788419727, -120.92405521729961, -147.3632779540494, -113.37319720676169, -0.03200000151991844, 0.2240000106394291, 0.9920000471174717, 0.0, 0.0, 0.0, 0.0, 0.0, 1.7632261927918844E9, 0.0, 2025-11-15 12:03:12.791
64.0, 9084.82846601354, -151.45285855559632, -191.7222313284874, -148.6441936888732, -0.03200000151991844, 0.2240000106394291, 0.9920000471174717, 0.0, 0.0, 0.0, 0.0, 0.0, 1.7632261928054576E9, 0.0, 2025-11-15 12:03:12.805
64.0, 9306.810227883514, 37.038099211174995, -38.808941840194166, -10.178137729410082, -0.03200000151991844, 0.2240000106394291, 0.9920000471174717, 0.0, 0.0, 0.0, 0.0, 0.0, 1.7632261928054576E9, 0.0, 2025-11-15 12:03:12.805
65.0, 9194.669327712152, -38.2947055962868, -75.3702038070187, -48.76268557226285, -0.03200000151991844, 0.2240000106394291, 0.9920000471174717, 0.0, 0.0, 0.0, 0.0, 0.0, 1.76322619282118E9, 0.0, 2025-11-15 12:03:12.821
65.0, 9064.842440650333, -163.60379351163283, -195.6491262819618, -154.96836451394483, -0.03200000151991844, 0.2240000106394291, 0.9920000471174717, 0.0, 0.0, 0.0, 0.0, 0.0, 1.76322619282118E9, 0.0, 2025-11-15 12:03:12.821
66.0, 9224.446411159355, -30.253920691553503, -93.8228701883927, -64.57498258491978, -0.03200000151991844, 0.2240000106394291, 0.9920000471174717, 0.0, 0.0, 0.0, 0.0, 0.0, 1.7632261928218777E9, 0.0, 2025-11-15 12:03:12.821
66.0, 9305.770535695832, 57.03908417420462, 5.276998837478459, 27.91648321924731, -0.03200000151991844, 0.2240000106394291, 0.9920000471174717, 0.0, 0.0, 0.0, 0.0, 0.0, 1.7632261928218777E9, 0.0, 2025-11-15 12:03:12.821
67.0, 9070.055861188564, -155.75374350463971, -184.3808077154681, -150.84325486281887, -0.03200000151991844, 0.2240000106394291, 0.9920000471174717, 0.0, 0.0, 0.0, 0.0, 0.0, 1.7632261928354564E9, 0.0, 2025-11-15 12:03:12.835
67.0, 9156.09225966921, -95.75452851550654, -143.01377430558205, -109.61833765124902, -0.03200000151991844, 0.2240000106394291, 0.9920000471174717, 0.0, 0.0, 0.0, 0.0, 0.0, 1.7632261928354564E9, 0.0, 2025-11-15 12:03:12.835
68.0, 9356.726672592107, 84.59840694768354, 19.548457068391144, 33.67592915100977, -0.03200000151991844, 0.2240000106394291, 0.9920000471174717, 0.0, 0.0, 0.0, 0.0, 0.0, 1.763226192851158E9, 0.0, 2025-11-15 12:03:12.851
68.0, 9598.359738779254, -108.79929956095293, -136.60732568148524, -100.61639845790341, -0.03200000151991844, 0.2240000106394291, 0.9920000471174717, 0.0, 0.0, 0.0, 0.0, 0.0, 1.763226192851158E9, 0.0, 2025-11-15 12:03:12.851
69.0, 9574.29348256439, -144.62754113646224, -184.41072691511363, -149.10794128337875, -0.03200000151991844, 0.2240000106394291, 0.9920000471174717, 0.0, 0.0, 0.0, 0.0, 0.0, 1.7632261928518655E9, 0.0, 2025-11-15 12:03:12.851
69.0, 9792.40818788018, 33.87040394870564, -34.73993068840355, -13.843239685986191, -0.03200000151991844, 0.2240000106394291, 0.9920000471174717, 0.0, 0.0, 0.0, 0.0, 0.0, 1.7632261928518655E9, 0.0, 2025-11-15 12:03:12.851
70.0, 9690.5744519867, -34.192035344894975, -68.7019621860236, -35.62441702792421, -0.03200000151991844, 0.2240000106394291, 1.008000047877431, 0.0, 0.0, 0.0, 0.0, 0.0, 1.763226192865522E9, 0.0, 2025-11-15 12:03:12.865
70.0, 9555.934313681908, -167.8411001614295, -197.91924555506557, -158.98875696631148, -0.03200000151991844, 0.2240000106394291, 1.008000047877431, 0.0, 0.0, 0.0, 0.0, 0.0, 1.763226192865522E9, 0.0, 2025-11-15 12:03:12.865
71.0, 9716.15536768362, -38.10397069854662, -98.33692943491042, -69.70986522408202, -0.03200000151991844, 0.2240000106394291, 1.008000047877431, 0.0, 0.0, 0.0, 0.0, 0.0, 1.7632261928811772E9, 0.0, 2025-11-15 12:03:12.881
71.0, 9801.204432575963, 56.92688717553392, 7.090850315988064, 37.25501340860501, -0.03200000151991844, 0.2240000106394291, 1.008000047877431, 0.0, 0.0, 0.0, 0.0, 0.0, 1.7632261928811772E9, 0.0, 2025-11-15 12:03:12.881
72.0, 9560.803663424216, -151.39676005626097, -176.2727046115324, -138.3033703113906, -0.03200000151991844, 0.2240000106394291, 1.008000047877431, 0.0, 0.0, 0.0, 0.0, 0.0, 1.7632261928818707E9, 0.0, 2025-11-15 12:03:12.881
72.0, 9616.41971566528, -120.95023451698944, -160.50154649838805, -128.06726413266733, -0.03200000151991844, 0.2240000106394291, 1.008000047877431, 0.0, 0.0, 0.0, 0.0, 0.0, 1.7632261928818707E9, 0.0, 2025-11-15 12:03:12.881
73.0, 9839.710442519747, 84.47125034919009, 20.90604075230658, 47.19192759087309, -0.03200000151991844, 0.2240000106394291, 1.008000047877431, 0.0, 0.0, 0.0, 0.0, 0.0, 1.7632261928955448E9, 0.0, 2025-11-15 12:03:12.895
73.0, 9596.351412503049, -110.27282014349476, -132.12692553456873, -96.02380131231621, -0.03200000151991844, 0.2240000106394291, 1.008000047877431, 0.0, 0.0, 0.0, 0.0, 0.0, 1.7632261928955448E9, 0.0, 2025-11-15 12:03:12.895
74.0, 9580.251143193804, -143.43077315064147, -177.88834139239043, -137.1589609249495, -0.03200000151991844, 0.2240000106394291, 1.008000047877431, 0.0, 0.0, 0.0, 0.0, 0.0, 1.7632261929112291E9, 0.0, 2025-11-15 12:03:12.911
74.0, 9815.311335208826, 43.72878023190424, -24.51878410950303, -0.15894574811682105, -0.03200000151991844, 0.2240000106394291, 1.008000047877431, 0.0, 0.0, 0.0, 0.0, 0.0, 1.7632261929112291E9, 0.0, 2025-11-15 12:03:12.911
75.0, 9683.947349265218, -33.60861095180735, -59.382131496444345, -23.791373568121344, -0.03200000151991844, 0.2240000106394291, 1.008000047877431, 0.0, 0.0, 0.0, 0.0, 0.0, 1.763226192911883E9, 0.0, 2025-11-15 12:03:12.911
75.0, 9548.607849668711, -163.64119251118973, -189.24641755782068, -152.6122275418602, -0.03200000151991844, 0.2240000106394291, 1.008000047877431, 0.0, 0.0, 0.0, 0.0, 0.0, 1.763226192911883E9, 0.0, 2025-11-15 12:03:12.911
76.0, 9707.40026188735, -41.069711363408715, -97.84700254071504, -72.87008068664, -0.03200000151991844, 0.2240000106394291, 1.008000047877431, 0.0, 0.0, 0.0, 0.0, 0.0, 1.76322619292552E9, 0.0, 2025-11-15 12:03:12.925
76.0, 9794.042524160817, 52.375428929459304, 7.0646710162982345, 25.814659444149584, -0.03200000151991844, 0.2240000106394291, 1.008000047877431, 0.0, 0.0, 0.0, 0.0, 0.0, 1.76322619292552E9, 0.0, 2025-11-15 12:03:12.925
77.0, 9563.17849989608, -149.0181836844422, -166.91547492239624, -125.55031146248803, -0.03200000151991844, 0.2240000106394291, 1.008000047877431, 0.0, 0.0, 0.0, 0.0, 0.0, 1.7632261929411657E9, 0.0, 2025-11-15 12:03:12.941
77.0, 9618.611297039315, -112.404563118238, -158.31744492426515, -120.53136572195217, -0.03200000151991844, 0.2240000106394291, 1.008000047877431, 0.0, 0.0, 0.0, 0.0, 0.0, 1.7632261929411657E9, 0.0, 2025-11-15 12:03:12.941
78.0, 9837.040153951384, 80.90338579146191, 16.5640169037506, 34.14341664547101, -0.03200000151991844, 0.2240000106394291, 1.008000047877431, 0.0, 0.0, 0.0, 0.0, 0.0, 1.7632261929418752E9, 0.0, 2025-11-15 12:03:12.941
78.0, 9608.876337454654, -96.23323570983484, -126.73398979846388, -93.52180824195966, -0.03200000151991844, 0.2240000106394291, 1.008000047877431, 0.0, 0.0, 0.0, 0.0, 0.0, 1.7632261929418752E9, 0.0, 2025-11-15 12:03:12.941
79.0, 9567.296129747294, -147.17441300628707, -179.29080387577415, -131.0479643973522, -0.03200000151991844, 0.2240000106394291, 1.008000047877431, 0.0, 0.0, 0.0, 0.0, 0.0, 1.7632261929555533E9, 0.0, 2025-11-15 12:03:12.955
79.0, 9799.278384098783, 40.53490566974506, -28.479338162578642, -4.785201993305236, -0.03200000151991844, 0.2240000106394291, 1.008000047877431, 0.0, 0.0, 0.0, 0.0, 0.0, 1.7632261929555533E9, 0.0, 2025-11-15 12:03:12.955
80.0, 9680.955429300666, -38.9267486887984, -66.29720651451498, -39.98514037625864, -0.03200000151991844, 0.2240000106394291, 1.008000047877431, 0.0, 0.0, 0.0, 0.0, 0.0, 1.763226192971163E9, 0.0, 2025-11-15 12:03:12.971
80.0, 9558.698099749163, -157.00287008984014, -185.2409847052768, -145.98886472033337, -0.03200000151991844, 0.2240000106394291, 1.008000047877431, 0.0, 0.0, 0.0, 0.0, 0.0, 1.763226192971163E9, 0.0, 2025-11-15 12:03:12.971
81.0, 9708.245479277335, -33.399176554288715, -95.77509796526283, -61.89347431669012, -0.03200000151991844, 0.2240000106394291, 1.008000047877431, 0.0, 0.0, 0.0, 0.0, 0.0, 1.7632261929718635E9, 0.0, 2025-11-15 12:03:12.971
81.0, 9769.800492648035, 40.632143068592995, -7.539638310670853, 14.639838376548141, -0.03200000151991844, 0.2240000106394291, 1.008000047877431, 0.0, 0.0, 0.0, 0.0, 0.0, 1.7632261929718635E9, 0.0, 2025-11-15 12:03:12.971
82.0, 9557.59856916219, -151.62115405360237, -176.28392431139946, -140.99235837953165, -0.03200000151991844, 0.2240000106394291, 1.008000047877431, 0.0, 0.0, 0.0, 0.0, 0.0, 1.7632261929855237E9, 0.0, 2025-11-15 12:03:12.985
82.0, 9619.04138553422, -112.44944191770628, -155.74813365470618, -116.96724106417969, -0.03200000151991844, 0.2240000106394291, 1.008000047877431, 0.0, 0.0, 0.0, 0.0, 0.0, 1.7632261929855237E9, 0.0, 2025-11-15 12:03:12.985
83.0, 9835.85460566543, 77.04006913723424, 9.215113490819931, 30.934582483489066, -0.03200000151991844, 0.2240000106394291, 1.008000047877431, 0.0, 0.0, 0.0, 0.0, 0.0, 1.763226193001222E9, 0.0, 2025-11-15 12:03:13.001
83.0, 10075.026817681734, -121.86651000613347, -140.4033241365105, -103.07725262874737, -0.03200000151991844, 0.2240000106394291, 1.008000047877431, 0.0, 0.0, 0.0, 0.0, 0.0, 1.763226193001222E9, 0.0, 2025-11-15 12:03:13.001
84.0, 10064.760792303365, -152.44393204385415, -180.4239935623482, -144.5303037376143, -0.03200000151991844, 0.2240000106394291, 1.008000047877431, 0.0, 0.0, 0.0, 0.0, 0.0, 1.7632261930018983E9, 0.0, 2025-11-15 12:03:13.001
84.0, 10280.549279846717, 26.891750631388277, -31.254343929700553, -7.784601757768542, -0.03200000151991844, 0.2240000106394291, 1.008000047877431, 0.0, 0.0, 0.0, 0.0, 0.0, 1.7632261930018983E9, 0.0, 2025-11-15 12:03:13.001
85.0, 10169.25359706534, -38.238607096951455, -64.50579443573952, -31.97053477121517, -0.03200000151991844, 0.2240000106394291, 1.008000047877431, 0.0, 0.0, 0.0, 0.0, 0.0, 1.763226193031878E9, 0.0, 2025-11-15 12:03:13.031
85.0, 10048.282793098595, -157.61995358252898, -187.4924044786021, -142.50701786158606, -0.03200000151991844, 0.2240000106394291, 1.008000047877431, 0.0, 0.0, 0.0, 0.0, 0.0, 1.763226193031878E9, 0.0, 2025-11-15 12:03:13.031
86.0, 10179.583200742956, -58.46772595727816, -113.11327415984124, -79.9459714028053, -0.03200000151991844, 0.2240000106394291, 1.008000047877431, 0.0, 0.0, 0.0, 0.0, 0.0, 1.7632261930325875E9, 0.0, 2025-11-15 12:03:13.032
86.0, 10273.256474933121, 41.436221559066325, -1.4735205825418234, 14.871712173800915, -0.03200000151991844, 0.2240000106394291, 1.008000047877431, 0.0, 0.0, 0.0, 0.0, 0.0, 1.7632261930325875E9, 0.0, 2025-11-15 12:03:13.032
87.0, 10062.139122434426, -136.88968812813982, -159.79470540676266, -122.83888399461284, -0.03200000151991844, 0.2240000106394291, 1.008000047877431, 0.0, 0.0, 0.0, 0.0, 0.0, 1.763226193033331E9, 0.0, 2025-11-15 12:03:13.033
87.0, 10108.364285886753, -107.4417158770375, -153.24240068439394, -120.2246939255856, -0.03200000151991844, 0.2240000106394291, 1.008000047877431, 0.0, 0.0, 0.0, 0.0, 0.0, 1.763226193033331E9, 0.0, 2025-11-15 12:03:13.033
88.0, 10326.202238605823, 74.66523266537115, 11.545071163214743, 26.435482836794108, -0.03200000151991844, 0.2240000106394291, 1.008000047877431, 0.0, 0.0, 0.0, 0.0, 0.0, 1.7632261930455225E9, 0.0, 2025-11-15 12:03:13.045
88.0, 10566.874150504358, -119.7048478317447, -138.63809135742486, -102.49382823565975, -0.03200000151991844, 0.2240000106394291, 1.008000047877431, 0.0, 0.0, 0.0, 0.0, 0.0, 1.7632261930455225E9, 0.0, 2025-11-15 12:03:13.045
89.0, 10550.067040103488, -150.78341646352783, -187.41012667957693, -146.0487031196244, -0.03200000151991844, 0.2240000106394291, 1.008000047877431, 0.0, 0.0, 0.0, 0.0, 0.0, 1.763226193061143E9, 0.0, 2025-11-15 12:03:13.061
89.0, 10787.53946758993, 43.64650243287906, -31.231904529966414, -7.5041092610917985, -0.03200000151991844, 0.2240000106394291, 1.008000047877431, 0.0, 0.0, 0.0, 0.0, 0.0, 1.763226193061143E9, 0.0, 2025-11-15 12:03:13.061
90.0, 10661.119629387744, -41.67183525627479, -70.51955356448889, -35.774013026151806, -0.03200000151991844, 0.2240000106394291, 1.008000047877431, 0.0, 0.0, 0.0, 0.0, 0.0, 1.7632261930618644E9, 0.0, 2025-11-15 12:03:13.061
90.0, 10537.628132850863, -152.7169447406195, -175.99595201481134, -122.47611369891092, -0.03200000151991844, 0.2240000106394291, 1.008000047877431, 0.0, 0.0, 0.0, 0.0, 0.0, 1.7632261930618644E9, 0.0, 2025-11-15 12:03:13.061
91.0, 10672.881614748389, -51.61248933849856, -105.21834535337985, -77.86658702744171, -0.03200000151991844, 0.2240000106394291, 1.008000047877431, 0.0, 0.0, 0.0, 0.0, 0.0, 1.7632261930754929E9, 0.0, 2025-11-15 12:03:13.075
91.0, 10750.032010934316, 37.378430107142776, -10.05285108089447, 10.473589825909585, -0.03200000151991844, 0.2240000106394291, 1.008000047877431, 0.0, 0.0, 0.0, 0.0, 0.0, 1.7632261930754929E9, 0.0, 2025-11-15 12:03:13.075
92.0, 10539.632719227113, -144.9042937331833, -163.6655018609017, -126.12999595561996, -0.03200000151991844, 0.2240000106394291, 1.008000047877431, 0.0, 0.0, 0.0, 0.0, 0.0, 1.763226193091149E9, 0.0, 2025-11-15 12:03:13.091
92.0, 10589.43322703708, -113.99402059940621, -155.0338127631694, -116.19308177335188, -0.03200000151991844, 0.2240000106394291, 1.008000047877431, 0.0, 0.0, 0.0, 0.0, 0.0, 1.763226193091149E9, 0.0, 2025-11-15 12:03:13.091
93.0, 10816.426454847679, 80.7238705935888, 17.435413593426347, 34.236914144363254, -0.03200000151991844, 0.2240000106394291, 1.008000047877431, 0.0, 0.0, 0.0, 0.0, 0.0, 1.7632261930918574E9, 0.0, 2025-11-15 12:03:13.091
93.0, 10574.324031216092, -110.44859544141218, -130.0625007590279, -92.30634075636044, -0.03200000151991844, 0.2240000106394291, 1.008000047877431, 0.0, 0.0, 0.0, 0.0, 0.0, 1.7632261930918574E9, 0.0, 2025-11-15 12:03:13.091
94.0, 10545.983069351874, -153.58834143029526, -183.09802203066647, -144.50038453796878, -0.03200000151991844, 0.2240000106394291, 1.008000047877431, 0.0, 0.0, 0.0, 0.0, 0.0, 1.7632261931054895E9, 0.0, 2025-11-15 12:03:13.105
94.0, 10762.235304489732, 29.56203919975087, -38.76780294068158, -16.71548285195604, -0.03200000151991844, 0.2240000106394291, 1.008000047877431, 0.0, 0.0, 0.0, 0.0, 0.0, 1.7632261931054895E9, 0.0, 2025-11-15 12:03:13.105
95.0, 10666.232072627172, -29.23666790360585, -58.32747970893979, -31.469388177152723, -0.03200000151991844, 0.2240000106394291, 1.008000047877431, 0.0, 0.0, 0.0, 0.0, 0.0, 1.7632261931211522E9, 0.0, 2025-11-15 12:03:13.121
95.0, 10533.476843900047, -156.6438396940939, -186.62848758883774, -144.5714426371269, -0.03200000151991844, 0.2240000106394291, 1.008000047877431, 0.0, 0.0, 0.0, 0.0, 0.0, 1.7632261931211522E9, 0.0, 2025-11-15 12:03:13.121
96.0, 10682.91950622946, -44.08781062765047, -103.52791057340801, -70.06141581991687, -0.03200000151991844, 0.2240000106394291, 1.008000047877431, 0.0, 0.0, 0.0, 0.0, 0.0, 1.7632261931218617E9, 0.0, 2025-11-15 12:03:13.121
96.0, 10762.377420688048, 46.1896344027482, 1.3089649844914675, 20.889211202505976, -0.03200000151991844, 0.2240000106394291, 1.008000047877431, 0.0, 0.0, 0.0, 0.0, 0.0, 1.7632261931218617E9, 0.0, 2025-11-15 12:03:13.121
97.0, 10540.687371014617, -145.79812982259318, -165.94684083387256, -121.85903020622209, -0.03200000151991844, 0.2240000106394291, 1.008000047877431, 0.0, 0.0, 0.0, 0.0, 0.0, 1.7632261931355078E9, 0.0, 2025-11-15 12:03:13.135
97.0, 10592.74677839782, -109.24060775572434, -152.5879181921482, -106.02055389387533, -0.03200000151991844, 0.2240000106394291, 1.008000047877431, 0.0, 0.0, 0.0, 0.0, 0.0, 1.7632261931355078E9, 0.0, 2025-11-15 12:03:13.135
98.0, 10815.902868853882, 77.29064243426546, 9.615282786078751, 27.748187721241266, -0.03200000151991844, 0.2240000106394291, 1.008000047877431, 0.0, 0.0, 0.0, 0.0, 0.0, 1.7632261931511972E9, 0.0, 2025-11-15 12:03:13.151
98.0, 11059.375965819228, -117.74888015491888, -141.89180431887507, -99.23263547429815, -0.03200000151991844, 0.2240000106394291, 1.008000047877431, 0.0, 0.0, 0.0, 0.0, 0.0, 1.7632261931511972E9, 0.0, 2025-11-15 12:03:13.151
99.0, 11032.291610340122, -153.6855788291432, -187.58964187745005, -144.05533644324169, -0.03200000151991844, 0.2240000106394291, 1.008000047877431, 0.0, 0.0, 0.0, 0.0, 0.0, 1.7632261931519272E9, 0.0, 2025-11-15 12:03:13.151
99.0, 11259.655088246334, 34.37529044272378, -32.24541741795838, -6.924424767959863, -0.03200000151991844, 0.2240000106394291, 1.008000047877431, 0.0, 0.0, 0.0, 0.0, 0.0, 1.7632261931519272E9, 0.0, 2025-11-15 12:03:13.151
100.0, 11144.05478061596, -46.1896344027482, -75.06727191060781, -47.139568991493434, -0.03200000151991844, 0.2240000106394291, 1.008000047877431, 0.0, 0.0, 0.0, 0.0, 0.0, 1.7632261931662252E9, 0.0, 2025-11-15 12:03:13.166
100.0, 11020.43238758063, -162.34718712652102, -188.13940717093647, -142.40230066282675, -0.03200000151991844, 0.2240000106394291, 1.008000047877431, 0.0, 0.0, 0.0, 0.0, 0.0, 1.7632261931662252E9, 0.0, 2025-11-15 12:03:13.166
0.0, -110.78705638740212, -55.87223538802937, -107.25285092927516, -74.77742966404185, -0.03200000151991844, 0.2240000106394291, 1.008000047877431, 0.0, 0.0, 0.0, 0.0, 0.0, 1.7632261931668956E9, 0.0, 2025-11-15 12:03:13.166
1.0, -19.473659069277346, 43.93447472946718, -3.018099264241755, 24.120484764222056, -0.03200000151991844, 0.2240000106394291, 1.008000047877431, 0.0, 0.0, 0.0, 0.0, 0.0, 1.7632261931804895E9, 0.0, 2025-11-15 12:03:13.180
1.0, -242.2632393296808, -141.59822217235342, -156.36521714739501, -110.16810294473544, -0.03200000151991844, 0.2240000106394291, 1.008000047877431, 0.0, 0.0, 0.0, 0.0, 0.0, 1.7632261931804895E9, 0.0, 2025-11-15 12:03:13.180
2.0, -186.22457839362323, -115.99486707570031, -159.19258151389658, -118.87459004158154, -0.03200000151991844, 0.2240000106394291, 1.008000047877431, 0.0, 0.0, 0.0, 0.0, 0.0, 1.763226193196223E9, 0.0, 2025-11-15 12:03:13.196
2.0, 32.436152315698564, 73.66293947724625, 5.564971134066582, 27.96510191867128, -0.03200000151991844, 0.2240000106394291, 1.008000047877431, 0.0, 0.0, 0.0, 0.0, 0.0, 1.763226193196223E9, 0.0, 2025-11-15 12:03:13.196
3.0, -187.56346257776022, -97.5833395938389, -117.18976511154324, -81.15395908849314, -0.03200000151991844, 0.2240000106394291, 1.008000047877431, 0.0, 0.0, 0.0, 0.0, 0.0, 1.7632261931968892E9, 0.0, 2025-11-15 12:03:13.196
3.0, -232.09071145020425, -151.2808231576346, -185.87676769774407, -141.3439089753665, -0.03200000151991844, 0.2240000106394291, 1.008000047877431, 0.0, 0.0, 0.0, 0.0, 0.0, 1.7632261931968892E9, 0.0, 2025-11-15 12:03:13.196
4.0, -18.344209282658994, 28.873897607903928, -44.22057707607746, -21.693289692979306, -0.03200000151991844, 0.2240000106394291, 1.008000047877431, 0.0, 0.0, 0.0, 0.0, 0.0, 1.763226193210448E9, 0.0, 2025-11-15 12:03:13.210
4.0, -115.97803752589971, -31.461908377241343, -57.08957282360643, -27.16476332815364, -0.03200000151991844, 0.2240000106394291, 1.008000047877431, 0.0, 0.0, 0.0, 0.0, 0.0, 1.763226193210448E9, 0.0, 2025-11-15 12:03:13.210
5.0, -247.8581296633929, -155.29373581008986, -182.65671383589506, -141.28407057607546, -0.03200000151991844, 0.2240000106394291, 1.008000047877431, 0.0, 0.0, 0.0, 0.0, 0.0, 1.7632261932261865E9, 0.0, 2025-11-15 12:03:13.226
5.0, -90.39712182898074, -28.78787990892306, -90.5242784274742, -58.06381676206365, -0.03200000151991844, 0.2240000106394291, 1.008000047877431, 0.0, 0.0, 0.0, 0.0, 0.0, 1.7632261932261865E9, 0.0, 2025-11-15 12:03:13.226
6.0, -15.587903015315533, 49.6714812614955, 6.230673326179385, 30.885963784065098, -0.03200000151991844, 0.2240000106394291, 1.008000047877431, 0.0, 0.0, 0.0, 0.0, 0.0, 1.763226193226882E9, 0.0, 2025-11-15 12:03:13.226
6.0, -245.92460138630122, -146.8677412099205, -164.64535564929247, -123.03335879230872, -0.03200000151991844, 0.2240000106394291, 1.008000047877431, 0.0, 0.0, 0.0, 0.0, 0.0, 1.763226193226882E9, 0.0, 2025-11-15 12:03:13.226
7.0, -185.99644449632615, -109.68191595049575, -149.80543262511492, -110.2952595432289, -0.03200000151991844, 0.2240000106394291, 1.008000047877431, 0.0, 0.0, 0.0, 0.0, 0.0, 1.7632261932405188E9, 0.0, 2025-11-15 12:03:13.240
7.0, 32.2005386184901, 83.67839155858383, 19.518537868745625, 38.82951128995046, -0.03200000151991844, 0.2240000106394291, 1.008000047877431, 0.0, 0.0, 0.0, 0.0, 0.0, 1.7632261932405188E9, 0.0, 2025-11-15 12:03:13.240
8.0, -190.3122890451923, -92.48585595423356, -109.6052480014041, -77.10738733643666, -0.03200000151991844, 0.2240000106394291, 1.008000047877431, 0.0, 0.0, 0.0, 0.0, 0.0, 1.763226193256189E9, 0.0, 2025-11-15 12:03:13.256
8.0, -234.20749482512474, -146.63212751271203, -187.5709423776716, -142.72393205901608, -0.03200000151991844, 0.2240000106394291, 1.008000047877431, 0.0, 0.0, 0.0, 0.0, 0.0, 1.763226193256189E9, 0.0, 2025-11-15 12:03:13.256
9.0, -9.480646387673914, 34.43138894205913, -38.887479739263654, -14.134951882530004, -0.03200000151991844, 0.2240000106394291, 1.008000047877431, 0.0, 0.0, 0.0, 0.0, 0.0, 1.7632261932568946E9, 0.0, 2025-11-15 12:03:13.256
9.0, -119.14199288841337, -31.2562138796784, -59.2138359984383, -26.7720738328062, -0.03200000151991844, 0.2240000106394291, 1.008000047877431, 0.0, 0.0, 0.0, 0.0, 0.0, 1.7632261932568946E9, 0.0, 2025-11-15 12:03:13.256
10.0, -250.62939553055912, -160.67171194637194, -183.13916093017906, -139.48143879743293, -0.03200000151991844, 0.2240000106394291, 1.008000047877431, 0.0, 0.0, 0.0, 0.0, 0.0, 1.7632261932704914E9, 0.0, 2025-11-15 12:03:13.270
10.0, -102.21146578900516, -43.79609843110666, -98.860515428707, -59.35782214673236, -0.03200000151991844, 0.2240000106394291, 1.008000047877431, 0.0, 0.0, 0.0, 0.0, 0.0, 1.7632261932704914E9, 0.0, 2025-11-15 12:03:13.270
11.0, -34.22756439447403, 37.34477100754157, -8.908441694453359, 13.723562887404114, -0.03200000151991844, 0.2240000106394291, 1.008000047877431, 0.0, 0.0, 0.0, 0.0, 0.0, 1.7632261932861989E9, 0.0, 2025-11-15 12:03:13.286
11.0, -261.40404730290174, -162.60524022346362, -180.99245835561305, -142.79873005812988, -0.03200000151991844, 0.2240000106394291, 1.008000047877431, 0.0, 0.0, 0.0, 0.0, 0.0, 1.7632261932861989E9, 0.0, 2025-11-15 12:03:13.286
12.0, -184.67251991201192, -110.48973434092477, -162.92126176971942, -121.04747191583738, -0.03200000151991844, 0.2240000106394291, 1.008000047877431, 0.0, 0.0, 0.0, 0.0, 0.0, 1.763226193286913E9, 0.0, 2025-11-15 12:03:13.286
12.0, 23.090142326429486, 68.91326653352007, 3.5678645577281713, 23.424863372463733, -0.03200000151991844, 0.2240000106394291, 1.008000047877431, 0.0, 0.0, 0.0, 0.0, 0.0, 1.763226193286913E9, 0.0, 2025-11-15 12:03:13.286
13.0, -202.66143869888037, -110.21298174420372, -127.10797979403287, -90.82534037390724, -0.03200000151991844, 0.2240000106394291, 1.008000047877431, 0.0, 0.0, 0.0, 0.0, 0.0, 1.7632261933004928E9, 0.0, 2025-11-15 12:03:13.300
13.0, -249.7804382406175, -159.78161575691774, -189.51943025458604, -141.6431009718217, -0.03200000151991844, 0.2240000106394291, 1.008000047877431, 0.0, 0.0, 0.0, 0.0, 0.0, 1.7632261933004928E9, 0.0, 2025-11-15 12:03:13.300
14.0, -18.91267407592386, 30.272620191331953, -38.74910344090313, -14.823093474376947, -0.03200000151991844, 0.2240000106394291, 1.008000047877431, 0.0, 0.0, 0.0, 0.0, 0.0, 1.7632261933161893E9, 0.0, 2025-11-15 12:03:13.316
14.0, -125.80649460945278, -44.49919962277636, -67.99886099435389, -40.77425926690921, -0.03200000151991844, 0.2240000106394291, 1.008000047877431, 0.0, 0.0, 0.0, 0.0, 0.0, 1.7632261933161893E9, 0.0, 2025-11-15 12:03:13.316
15.0, -246.23875298257917, -157.76954958075657, -182.970865432173, -137.42823372175917, -0.03200000151991844, 0.2240000106394291, 1.008000047877431, 0.0, 0.0, 0.0, 0.0, 0.0, 1.763226193316916E9, 0.0, 2025-11-15 12:03:13.316
15.0, -110.9029932860285, -54.380015305709094, -111.97634457331151, -79.46726420847699, -0.03200000151991844, 0.2240000106394291, 1.008000047877431, 0.0, 0.0, 0.0, 0.0, 0.0, 1.763226193316916E9, 0.0, 2025-11-15 12:03:13.316
16.0, -16.736052301712334, 44.83205071883276, -2.3972758715972304, 25.694982645567507, -0.03200000151991844, 0.2240000106394291, 1.008000047877431, 0.0, 0.0, 0.0, 0.0, 0.0, 1.7632261933305533E9, 0.0, 2025-11-15 12:03:13.330
16.0, -256.0896494658664, -156.62140029435977, -181.76661764644086, -135.31893014675006, -0.03200000151991844, 0.2240000106394291, 1.008000047877431, 0.0, 0.0, 0.0, 0.0, 0.0, 1.7632261933305533E9, 0.0, 2025-11-15 12:03:13.330
17.0, -188.29274306911975, -121.83285090653226, -165.95806053373963, -128.54971122695133, -0.03200000151991844, 0.2240000106394291, 1.008000047877431, 0.0, 0.0, 0.0, 0.0, 0.0, 1.7632261933461668E9, 0.0, 2025-11-15 12:03:13.346
17.0, 31.01873023249209, 67.62674094876274, -2.7937052669003606, 19.09405922377482, -0.03200000151991844, 0.2240000106394291, 1.008000047877431, 0.0, 0.0, 0.0, 0.0, 0.0, 1.7632261933461668E9, 0.0, 2025-11-15 12:03:13.346
18.0, -209.64757181610912, -110.60941113950685, -127.45579048991203, -86.1355058294721, -0.03200000151991844, 0.2240000106394291, 1.008000047877431, 0.0, 0.0, 0.0, 0.0, 0.0, 1.7632261933468792E9, 0.0, 2025-11-15 12:03:13.346
18.0, -233.1827622372657, -147.55962270172313, -176.6766138067469, -130.02697170944884, -0.03200000151991844, 0.2240000106394291, 1.008000047877431, 0.0, 0.0, 0.0, 0.0, 0.0, 1.7632261933468792E9, 0.0, 2025-11-15 12:03:13.346
19.0, -19.006171574816108, 34.28553284378722, -39.08195453695953, -15.642131564673036, -0.03200000151991844, 0.2240000106394291, 1.008000047877431, 0.0, 0.0, 0.0, 0.0, 0.0, 1.7632261933605356E9, 0.0, 2025-11-15 12:03:13.360
19.0, -123.74954963382334, -31.402069977950305, -61.15858397539705, -33.2570603559725, -0.03200000151991844, 0.2240000106394291, 1.008000047877431, 0.0, 0.0, 0.0, 0.0, 0.0, 1.7632261933605356E9, 0.0, 2025-11-15 12:03:13.360
20.0, -251.82990341633558, -163.70103091048077, -193.62584040593356, -144.44802593858913, -0.03200000151991844, 0.2240000106394291, 1.0240000486373901, 0.0, 0.0, 0.0, 0.0, 0.0, 1.7632261933761744E9, 0.0, 2025-11-15 12:03:13.376
20.0, -96.822269952856, -41.406302359420806, -102.43211988639086, -71.49379750294611, -0.03200000151991844, 0.2240000106394291, 1.0240000486373901, 0.0, 0.0, 0.0, 0.0, 0.0, 1.7632261933761744E9, 0.0, 2025-11-15 12:03:13.376
21.0, -14.353736029937863, 50.81215074798092, 5.909041929990053, 24.090565564576536, -0.03200000151991844, 0.2240000106394291, 1.0240000486373901, 0.0, 0.0, 0.0, 0.0, 0.0, 1.7632261933768811E9, 0.0, 2025-11-15 12:03:13.376
21.0, -248.28447825834155, -152.3092956454493, -171.62400896660984, -130.2326662070118, -0.03200000151991844, 0.2240000106394291, 1.0240000486373901, 0.0, 0.0, 0.0, 0.0, 0.0, 1.7632261933768811E9, 0.0, 2025-11-15 12:03:13.376
22.0, -188.69665226433426, -113.0328663107939, -164.20030755456537, -125.75974586000666, -0.03200000151991844, 0.2240000106394291, 1.0240000486373901, 0.0, 0.0, 0.0, 0.0, 0.0, 1.7632261933905587E9, 0.0, 2025-11-15 12:03:13.390
22.0, 23.041523627005517, 79.7215774054639, 13.744132337160408, 33.46275485353544, -0.03200000151991844, 0.2240000106394291, 1.0240000486373901, 0.0, 0.0, 0.0, 0.0, 0.0, 1.7632261933905587E9, 0.0, 2025-11-15 12:03:13.390
23.0, -201.06824131775647, -100.7323353565298, -116.07527492474765, -81.66632538242266, -0.03200000151991844, 0.2240000106394291, 1.0240000486373901, 0.0, 0.0, 0.0, 0.0, 0.0, 1.7632261934061615E9, 0.0, 2025-11-15 12:03:13.406
23.0, -228.05535939801484, -141.11577507806942, -174.384055133909, -127.0051325452514, -0.03200000151991844, 0.2240000106394291, 1.0240000486373901, 0.0, 0.0, 0.0, 0.0, 0.0, 1.7632261934061615E9, 0.0, 2025-11-15 12:03:13.406
24.0, -10.785871472209692, 41.54467865778133, -32.70168521255255, -17.242808745708317, -0.03200000151991844, 0.2240000106394291, 1.0240000486373901, 0.0, 0.0, 0.0, 0.0, 0.0, 1.763226193406884E9, 0.0, 2025-11-15 12:03:13.406
24.0, -123.3157212389633, -32.81575216120109, -57.13445162307471, -30.291319691110402, -0.03200000151991844, 0.2240000106394291, 1.0240000486373901, 0.0, 0.0, 0.0, 0.0, 0.0, 1.763226193406884E9, 0.0, 2025-11-15 12:03:13.406
25.0, -243.30667141731828, -151.14618675922975, -179.63487467169762, -137.03928412636742, -0.03200000151991844, 0.2240000106394291, 1.0240000486373901, 0.0, 0.0, 0.0, 0.0, 0.0, 1.7632261934205332E9, 0.0, 2025-11-15 12:03:13.420
25.0, -95.640461566858, -33.72454785043374, -102.22268548887223, -75.2037782589905, -0.03200000151991844, 0.2240000106394291, 1.0240000486373901, 0.0, 0.0, 0.0, 0.0, 0.0, 1.7632261934205332E9, 0.0, 2025-11-15 12:03:13.420
26.0, -6.413928424008191, 54.09952280903235, 3.1602154625579715, 21.820446291472763, -0.03200000151991844, 0.2240000106394291, 1.0240000486373901, 0.0, 0.0, 0.0, 0.0, 0.0, 1.7632261934362237E9, 0.0, 2025-11-15 12:03:13.436
26.0, -243.60586341377348, -143.92070004483685, -165.32975734118372, -116.72040766710415, -0.03200000151991844, 0.2240000106394291, 1.0240000486373901, 0.0, 0.0, 0.0, 0.0, 0.0, 1.7632261934362237E9, 0.0, 2025-11-15 12:03:13.436
27.0, -193.93625210225582, -119.31963813630864, -163.20175426639616, -122.83514409465715, -0.03200000151991844, 0.2240000106394291, 1.0240000486373901, 0.0, 0.0, 0.0, 0.0, 0.0, 1.7632261934368892E9, 0.0, 2025-11-15 12:03:13.436
27.0, 26.755244283005595, 79.69913800572976, 18.46014618128538, 30.597991487476975, -0.03200000151991844, 0.2240000106394291, 1.0240000486373901, 0.0, 0.0, 0.0, 0.0, 0.0, 1.7632261934368892E9, 0.0, 2025-11-15 12:03:13.436
28.0, -206.07970725838095, -104.1767832157202, -116.68861851748079, -79.7215774054639, -0.03200000151991844, 0.2240000106394291, 1.0240000486373901, 0.0, 0.0, 0.0, 0.0, 0.0, 1.7632261934505043E9, 0.0, 2025-11-15 12:03:13.450
28.0, -226.4808615166694, -144.64998053619638, -174.8590224282816, -146.81912251049653, -0.03200000151991844, 0.2240000106394291, 1.0240000486373901, 0.0, 0.0, 0.0, 0.0, 0.0, 1.7632261934505043E9, 0.0, 2025-11-15 12:03:13.450
29.0, -5.538791834376752, 43.897075729910284, -30.857914534397423, -17.010934948455542, -0.03200000151991844, 0.2240000106394291, 1.0240000486373901, 0.0, 0.0, 0.0, 0.0, 0.0, 1.7632261934662492E9, 0.0, 2025-11-15 12:03:13.466
29.0, -111.40787978004664, -27.22460172744468, -56.958676325157285, -35.29156593186781, -0.03200000151991844, 0.2240000106394291, 1.0240000486373901, 0.0, 0.0, 0.0, 0.0, 0.0, 1.7632261934662492E9, 0.0, 2025-11-15 12:03:13.466
30.0, -251.21281992364675, -158.0163829778321, -183.13168113026768, -141.4149670745246, -0.03200000151991844, 0.2240000106394291, 1.008000047877431, 0.0, 0.0, 0.0, 0.0, 0.0, 1.7632261934668956E9, 0.0, 2025-11-15 12:03:13.466
30.0, -97.28975744731724, -46.54492489853874, -106.04486324358732, -79.6093804067932, -0.03200000151991844, 0.2240000106394291, 1.008000047877431, 0.0, 0.0, 0.0, 0.0, 0.0, 1.7632261934668956E9, 0.0, 2025-11-15 12:03:13.466
31.0, -16.51165830437094, 43.074297739658505, -2.049465175718069, 15.589772965293378, -0.03200000151991844, 0.2240000106394291, 1.008000047877431, 0.0, 0.0, 0.0, 0.0, 0.0, 1.7632261934804912E9, 0.0, 2025-11-15 12:03:13.480
31.0, -244.39124240446836, -151.9465253497474, -173.3032240467146, -131.27983819460496, -0.03200000151991844, 0.2240000106394291, 1.008000047877431, 0.0, 0.0, 0.0, 0.0, 0.0, 1.7632261934804912E9, 0.0, 2025-11-15 12:03:13.480
32.0, -180.2669177642092, -112.6252172156237, -156.2941590482369, -120.09379742713645, -0.03200000151991844, 0.2240000106394291, 1.008000047877431, 0.0, 0.0, 0.0, 0.0, 0.0, 1.763226193496169E9, 0.0, 2025-11-15 12:03:13.496
32.0, 22.53289723303169, 69.89686022186652, 4.667395144701004, 26.42800303688273, -0.03200000151991844, 0.2240000106394291, 1.008000047877431, 0.0, 0.0, 0.0, 0.0, 0.0, 1.763226193496169E9, 0.0, 2025-11-15 12:03:13.496
33.0, -206.69679075106978, -113.84068470122293, -125.97105020750314, -86.93584441998973, -0.03200000151991844, 0.2240000106394291, 1.008000047877431, 0.0, 0.0, 0.0, 0.0, 0.0, 1.7632261934968767E9, 0.0, 2025-11-15 12:03:13.496
33.0, -220.2576679904014, -135.1543745486997, -167.67841451335698, -124.04687168030068, -0.03200000151991844, 0.2240000106394291, 1.008000047877431, 0.0, 0.0, 0.0, 0.0, 0.0, 1.7632261934968767E9, 0.0, 2025-11-15 12:03:13.496
34.0, -6.365309724584222, 38.986587088089436, -34.62399378977716, -16.550927253905684, -0.03200000151991844, 0.2240000106394291, 1.008000047877431, 0.0, 0.0, 0.0, 0.0, 0.0, 1.7632261935105116E9, 0.0, 2025-11-15 12:03:13.510
34.0, -130.42153115477413, -47.105909891892225, -70.67662936262786, -40.88271636562422, -0.03200000151991844, 0.2240000106394291, 1.008000047877431, 0.0, 0.0, 0.0, 0.0, 0.0, 1.7632261935105116E9, 0.0, 2025-11-15 12:03:13.510
35.0, -238.11943017877638, -151.6435934533365, -180.41277386248112, -133.0450709736906, -0.03200000151991844, 0.2240000106394291, 1.008000047877431, 0.0, 0.0, 0.0, 0.0, 0.0, 1.763226193526203E9, 0.0, 2025-11-15 12:03:13.526
35.0, -90.7486724248156, -37.53550590528175, -106.35901483986527, -78.67066551791504, -0.03200000151991844, 0.2240000106394291, 1.008000047877431, 0.0, 0.0, 0.0, 0.0, 0.0, 1.763226193526203E9, 0.0, 2025-11-15 12:03:13.526
36.0, -12.46508655231446, 47.34526348905638, -3.2836321610957384, 15.810427062679082, -0.03200000151991844, 0.2240000106394291, 1.008000047877431, 0.0, 0.0, 0.0, 0.0, 0.0, 1.763226193526886E9, 0.0, 2025-11-15 12:03:13.526
36.0, -248.79310465231538, -154.04086932493374, -181.5646630488336, -143.8234626459889, -0.03200000151991844, 0.2240000106394291, 1.008000047877431, 0.0, 0.0, 0.0, 0.0, 0.0, 1.763226193526886E9, 0.0, 2025-11-15 12:03:13.526
37.0, -171.75490546505898, -107.71098867384717, -159.72738720756024, -120.3742899238132, -0.03200000151991844, 0.2240000106394291, 1.008000047877431, 0.0, 0.0, 0.0, 0.0, 0.0, 1.7632261935405352E9, 0.0, 2025-11-15 12:03:13.540
37.0, 40.51433621998876, 79.05961511330679, 8.942100794054568, 26.985248130280524, -0.03200000151991844, 0.2240000106394291, 1.008000047877431, 0.0, 0.0, 0.0, 0.0, 0.0, 1.7632261935405352E9, 0.0, 2025-11-15 12:03:13.540
38.0, -201.0233625182882, -116.98220066400245, -139.56932644639164, -100.53412065887824, -0.03200000151991844, 0.2240000106394291, 1.008000047877431, 0.0, 0.0, 0.0, 0.0, 0.0, 1.7632261935561728E9, 0.0, 2025-11-15 12:03:13.556
38.0, -227.4457557052374, -157.32450148602948, -195.46961108408868, -153.1657327353023, -0.03200000151991844, 0.2240000106394291, 1.008000047877431, 0.0, 0.0, 0.0, 0.0, 0.0, 1.7632261935561728E9, 0.0, 2025-11-15 12:03:13.556
39.0, 4.757152743637562, 34.43886874197051, -34.52675639092922, -22.071019588503987, -0.03200000151991844, 0.2240000106394291, 1.008000047877431, 0.0, 0.0, 0.0, 0.0, 0.0, 1.7632261935568693E9, 0.0, 2025-11-15 12:03:13.556
39.0, -105.64843384828418, -36.33499801950529, -57.07835312373936, -30.115544393192977, -0.03200000151991844, 0.2240000106394291, 1.008000047877431, 0.0, 0.0, 0.0, 0.0, 0.0, 1.7632261935568693E9, 0.0, 2025-11-15 12:03:13.556
40.0, -239.98564025666565, -159.56096165953204, -180.18837986513972, -144.73225833522156, -0.03200000151991844, 0.2240000106394291, 1.008000047877431, 0.0, 0.0, 0.0, 0.0, 0.0, 1.7632261935875523E9, 0.0, 2025-11-15 12:03:13.587
40.0, -90.42330112867057, -35.62441702792421, -101.43356659822166, -75.32719495752826, -0.03200000151991844, 0.2240000106394291, 1.008000047877431, 0.0, 0.0, 0.0, 0.0, 0.0, 1.7632261935875523E9, 0.0, 2025-11-15 12:03:13.587
41.0, -16.328403206542134, 50.20628695515916, 2.80866486672312, 27.63973062252626, -0.03200000151991844, 0.2240000106394291, 1.008000047877431, 0.0, 0.0, 0.0, 0.0, 0.0, 1.7632261935882936E9, 0.0, 2025-11-15 12:03:13.588
41.0, -239.06562486756593, -141.32520947558805, -171.73620596528053, -132.4541667806916, -0.03200000151991844, 0.2240000106394291, 1.008000047877431, 0.0, 0.0, 0.0, 0.0, 0.0, 1.7632261935882936E9, 0.0, 2025-11-15 12:03:13.588
42.0, -163.43736796360463, -101.51771434722468, -158.65777582023293, -117.36367045948282, -0.03200000151991844, 0.2240000106394291, 1.008000047877431, 0.0, 0.0, 0.0, 0.0, 0.0, 1.7632261935889878E9, 0.0, 2025-11-15 12:03:13.588
42.0, 39.45220463257283, 79.60564050683752, 7.2666256139054894, 20.6573374052532, -0.03200000151991844, 0.2240000106394291, 1.008000047877431, 0.0, 0.0, 0.0, 0.0, 0.0, 1.7632261935889878E9, 0.0, 2025-11-15 12:03:13.588
43.0, -195.54440908320248, -109.99232764681801, -132.52709482982755, -96.5099883065559, -0.03200000151991844, 0.2240000106394291, 1.008000047877431, 0.0, 0.0, 0.0, 0.0, 0.0, 1.7632261936004908E9, 0.0, 2025-11-15 12:03:13.600
43.0, -214.59171955753118, -138.79703710554168, -178.81583658140153, -131.25365889491513, -0.03200000151991844, 0.2240000106394291, 1.008000047877431, 0.0, 0.0, 0.0, 0.0, 0.0, 1.7632261936004908E9, 0.0, 2025-11-15 12:03:13.600
44.0, 16.45555980503559, 50.60271635046229, -26.97215848043561, -11.48710271390155, -0.03200000151991844, 0.2240000106394291, 1.008000047877431, 0.0, 0.0, 0.0, 0.0, 0.0, 1.7632261936161964E9, 0.0, 2025-11-15 12:03:13.616
44.0, -128.33466697949916, -46.95631389366463, -73.5900114281103, -42.85738354222849, -0.03200000151991844, 0.2240000106394291, 1.008000047877431, 0.0, 0.0, 0.0, 0.0, 0.0, 1.7632261936161964E9, 0.0, 2025-11-15 12:03:13.616
45.0, -234.69368181936443, -150.70113866450265, -182.25654454063624, -136.38854153407738, -0.03200000151991844, 0.2240000106394291, 1.008000047877431, 0.0, 0.0, 0.0, 0.0, 0.0, 1.763226193616866E9, 0.0, 2025-11-15 12:03:13.616
45.0, -88.13822225574404, -39.54383218148723, -105.42403985094279, -72.7204846884124, -0.03200000151991844, 0.2240000106394291, 1.008000047877431, 0.0, 0.0, 0.0, 0.0, 0.0, 1.763226193616866E9, 0.0, 2025-11-15 12:03:13.616
46.0, -10.714813373051584, 44.82083101896569, -4.5290188463404775, 20.107572111766785, -0.03200000151991844, 0.2240000106394291, 1.008000047877431, 0.0, 0.0, 0.0, 0.0, 0.0, 1.7632261936304772E9, 0.0, 2025-11-15 12:03:13.630
46.0, -238.21292767766863, -148.95460538519546, -173.7108731418848, -131.14146189624444, -0.03200000151991844, 0.2240000106394291, 1.008000047877431, 0.0, 0.0, 0.0, 0.0, 0.0, 1.7632261936304772E9, 0.0, 2025-11-15 12:03:13.630
47.0, -173.7819312410429, -110.27656004345044, -155.0338127631694, -112.42700251797214, -0.03200000151991844, 0.2240000106394291, 1.008000047877431, 0.0, 0.0, 0.0, 0.0, 0.0, 1.7632261936462953E9, 0.0, 2025-11-15 12:03:13.646
47.0, 44.13829927705228, 88.8394534974359, 12.562323951162398, 30.77750668535009, -0.03200000151991844, 0.2240000106394291, 1.008000047877431, 0.0, 0.0, 0.0, 0.0, 0.0, 1.7632261936462953E9, 0.0, 2025-11-15 12:03:13.646
48.0, 286.9756132499315, -105.55680629936978, -129.48655616585165, -95.507695118431, -0.03200000151991844, 0.2240000106394291, 1.008000047877431, 0.0, 0.0, 0.0, 0.0, 0.0, 1.7632261936468687E9, 0.0, 2025-11-15 12:03:13.646
48.0, 268.6575832669623, -142.2340051648207, -177.16654070094228, -138.88305480452254, -0.03200000151991844, 0.2240000106394291, 1.008000047877431, 0.0, 0.0, 0.0, 0.0, 0.0, 1.7632261936468687E9, 0.0, 2025-11-15 12:03:13.646
49.0, 496.5409072670154, 56.81095027690753, -26.826302382163703, -6.569134272169322, -0.03200000151991844, 0.2240000106394291, 1.008000047877431, 0.0, 0.0, 0.0, 0.0, 0.0, 1.7632261936604772E9, 0.0, 2025-11-15 12:03:13.660
49.0, 376.0039316951297, -30.71766828605905, -57.55706031806767, -29.476021500770003, -0.03200000151991844, 0.2240000106394291, 1.008000047877431, 0.0, 0.0, 0.0, 0.0, 0.0, 1.7632261936604772E9, 0.0, 2025-11-15 12:03:13.660
50.0, 247.9497572123073, -158.42029217304662, -184.8707346096635, -136.03325103828683, -0.03200000151991844, 0.2240000106394291, 1.008000047877431, 0.0, 0.0, 0.0, 0.0, 0.0, 1.7632261936762033E9, 0.0, 2025-11-15 12:03:13.676
50.0, 389.96123832976446, -54.84002300025895, -120.44347807299346, -86.172904829029, -0.03200000151991844, 0.2240000106394291, 1.008000047877431, 0.0, 0.0, 0.0, 0.0, 0.0, 1.7632261936762033E9, 0.0, 2025-11-15 12:03:13.676
51.0, 465.7278715320863, 33.8853635485284, -13.160707944072783, 11.748895710799843, -0.03200000151991844, 0.20800000987946987, 1.008000047877431, 0.0, 0.0, 0.0, 0.0, 0.0, 1.7632261936769063E9, 0.0, 2025-11-15 12:03:13.676
51.0, 252.4301573592238, -155.7911425041966, -176.4933587089181, -131.69122718973085, -0.03200000151991844, 0.20800000987946987, 1.008000047877431, 0.0, 0.0, 0.0, 0.0, 0.0, 1.7632261936769063E9, 0.0, 2025-11-15 12:03:13.676
52.0, 320.59357395162806, -105.5493264994584, -153.23492088448256, -110.03720644628629, -0.03200000151991844, 0.20800000987946987, 1.008000047877431, 0.0, 0.0, 0.0, 0.0, 0.0, 1.763226193690497E9, 0.0, 2025-11-15 12:03:13.690
52.0, 536.7036928911693, 92.93838384887204, 27.140453978441656, 47.117129591759294, -0.03200000151991844, 0.20800000987946987, 1.008000047877431, 0.0, 0.0, 0.0, 0.0, 0.0, 1.763226193690497E9, 0.0, 2025-11-15 12:03:13.690
53.0, 296.7517117341049, -101.3269794494845, -119.37760658562183, -77.99374362593517, -0.03200000151991844, 0.20800000987946987, 1.008000047877431, 0.0, 0.0, 0.0, 0.0, 0.0, 1.7632261937062464E9, 0.0, 2025-11-15 12:03:13.706
53.0, 273.6017310083844, -136.86724872840568, -176.02587121445686, -141.37382817501202, -0.03200000151991844, 0.20800000987946987, 1.008000047877431, 0.0, 0.0, 0.0, 0.0, 0.0, 1.7632261937062464E9, 0.0, 2025-11-15 12:03:13.706
54.0, 494.30818699346855, 50.98418614594266, -31.534836426377296, -11.790034610312432, -0.03200000151991844, 0.20800000987946987, 1.008000047877431, 0.0, 0.0, 0.0, 0.0, 0.0, 1.763226193706925E9, 0.0, 2025-11-15 12:03:13.706
54.0, 374.6351283113472, -34.173335845116526, -65.09295872878283, -29.042193105909973, -0.03200000151991844, 0.20800000987946987, 1.008000047877431, 0.0, 0.0, 0.0, 0.0, 0.0, 1.763226193706925E9, 0.0, 2025-11-15 12:03:13.706
55.0, 266.406163493637, -139.87786819273606, -168.65452840179205, -133.4527200688608, -0.03200000151991844, 0.20800000987946987, 1.008000047877431, 0.0, 0.0, 0.0, 0.0, 0.0, 1.7632261937205305E9, 0.0, 2025-11-15 12:03:13.720
55.0, 395.7244241614826, -30.960761783178896, -95.64420146681368, -65.09856857871637, -0.03200000151991844, 0.20800000987946987, 1.008000047877431, 0.0, 0.0, 0.0, 0.0, 0.0, 1.7632261937205305E9, 0.0, 2025-11-15 12:03:13.720
56.0, 463.5662093576975, 42.647949144709855, -2.333697572350502, 18.435836831573397, -0.03200000151991844, 0.20800000987946987, 1.008000047877431, 0.0, 0.0, 0.0, 0.0, 0.0, 1.7632261937362146E9, 0.0, 2025-11-15 12:03:13.736
56.0, 254.45344323525205, -146.81164271058515, -169.2678719945252, -123.41856848774478, -0.03200000151991844, 0.20800000987946987, 1.008000047877431, 0.0, 0.0, 0.0, 0.0, 0.0, 1.7632261937362146E9, 0.0, 2025-11-15 12:03:13.736
57.0, 319.6473792628385, -100.19378976291046, -144.46859538834542, -107.07520568137988, -0.03200000151991844, 0.20800000987946987, 1.008000047877431, 0.0, 0.0, 0.0, 0.0, 0.0, 1.7632261937369137E9, 0.0, 2025-11-15 12:03:13.736
57.0, 530.4991988646798, 85.3538667387329, 19.238045372068882, 36.93338201241568, -0.03200000151991844, 0.20800000987946987, 1.008000047877431, 0.0, 0.0, 0.0, 0.0, 0.0, 1.7632261937369137E9, 0.0, 2025-11-15 12:03:13.736
58.0, 297.8699418208562, -97.07471319986507, -111.41161968000233, -76.28460934618488, -0.03200000151991844, 0.20800000987946987, 1.008000047877431, 0.0, 0.0, 0.0, 0.0, 0.0, 1.7632261937504692E9, 0.0, 2025-11-15 12:03:13.750
58.0, 271.8140588295646, -140.7492648824118, -173.81185044068843, -130.14664850803092, -0.03200000151991844, 0.20800000987946987, 1.008000047877431, 0.0, 0.0, 0.0, 0.0, 0.0, 1.7632261937504692E9, 0.0, 2025-11-15 12:03:13.750
59.0, 498.2650011465885, 53.35528271785006, -21.040677150711417, 10.552127724979073, -0.03200000151991844, 0.20800000987946987, 1.008000047877431, 0.0, 0.0, 0.0, 0.0, 0.0, 1.7632261937662382E9, 0.0, 2025-11-15 12:03:13.766
59.0, 380.2674176446162, -31.847118072677404, -58.28260090947151, -28.110958016943187, -0.03200000151991844, 0.20800000987946987, 1.008000047877431, 0.0, 0.0, 0.0, 0.0, 0.0, 1.7632261937662382E9, 0.0, 2025-11-15 12:03:13.766
60.0, 249.85710618970916, -154.30640222178772, -179.42918017413467, -124.43208137573674, -0.03200000151991844, 0.20800000987946987, 1.008000047877431, 0.0, 0.0, 0.0, 0.0, 0.0, 1.7632261937669165E9, 0.0, 2025-11-15 12:03:13.766
60.0, 406.48411633400247, -34.034959546756, -98.10131573770195, -67.21909185359254, -0.03200000151991844, 0.20800000987946987, 1.008000047877431, 0.0, 0.0, 0.0, 0.0, 0.0, 1.7632261937669165E9, 0.0, 2025-11-15 12:03:13.766
61.0, 473.9556514346041, 53.093489720951766, 5.7332666320726275, 30.560592487920076, -0.03200000151991844, 0.2240000106394291, 1.008000047877431, 0.0, 0.0, 0.0, 0.0, 0.0, 1.7632261937804973E9, 0.0, 2025-11-15 12:03:13.780
61.0, 261.27876065438613, -140.24063848843798, -162.51361267454922, -119.13638303847983, -0.03200000151991844, 0.2240000106394291, 1.008000047877431, 0.0, 0.0, 0.0, 0.0, 0.0, 1.7632261937804973E9, 0.0, 2025-11-15 12:03:13.780
62.0, 306.6848860164173, -116.20056157326326, -164.29006515350193, -123.16799519071355, -0.01600000075995922, 0.2240000106394291, 1.008000047877431, 0.0, 0.0, 0.0, 0.0, 0.0, 1.7632261937962005E9, 0.0, 2025-11-15 12:03:13.796
62.0, 527.1968672038056, 81.14647928858176, 16.42938050534576, 31.20385528029874, -0.01600000075995922, 0.2240000106394291, 1.008000047877431, 0.0, 0.0, 0.0, 0.0, 0.0, 1.7632261937962005E9, 0.0, 2025-11-15 12:03:13.796
63.0, 293.21376637602225, -105.28379360260442, -120.61925337091088, -78.64074631826952, -0.01600000075995922, 0.2240000106394291, 1.008000047877431, 0.0, 0.0, 0.0, 0.0, 0.0, 1.763226193796926E9, 0.0, 2025-11-15 12:03:13.796
63.0, 269.5813385560177, -140.00502479122952, -173.0489108497277, -123.93467468162999, -0.01600000075995922, 0.2240000106394291, 1.008000047877431, 0.0, 0.0, 0.0, 0.0, 0.0, 1.763226193796926E9, 0.0, 2025-11-15 12:03:13.796
64.0, 492.9169442099519, 35.29156593186781, -36.015236573293805, -11.113112718332559, -0.01600000075995922, 0.2240000106394291, 1.008000047877431, 0.0, 0.0, 0.0, 0.0, 0.0, 1.7632261938105297E9, 0.0, 2025-11-15 12:03:13.810
64.0, 374.8296031090431, -35.88247012486681, -58.42471710778773, -24.30373986205086, -0.01600000075995922, 0.2240000106394291, 1.008000047877431, 0.0, 0.0, 0.0, 0.0, 0.0, 1.7632261938105297E9, 0.0, 2025-11-15 12:03:13.810
65.0, 246.40517853060737, -160.8362675444223, -185.6785530000925, -138.1575142131187, -0.01600000075995922, 0.2240000106394291, 1.008000047877431, 0.0, 0.0, 0.0, 0.0, 0.0, 1.7632261938262148E9, 0.0, 2025-11-15 12:03:13.826
65.0, 414.9213306340389, -28.675682910252362, -97.03918415028602, -75.65630615362898, -0.01600000075995922, 0.2240000106394291, 1.008000047877431, 0.0, 0.0, 0.0, 0.0, 0.0, 1.7632261938262148E9, 0.0, 2025-11-15 12:03:13.826
66.0, 488.67589766019955, 54.57449010340497, 0.8713966896757483, 14.370565579738468, -0.01600000075995922, 0.2240000106394291, 1.008000047877431, 0.0, 0.0, 0.0, 0.0, 0.0, 1.7632261938269064E9, 0.0, 2025-11-15 12:03:13.826
66.0, 251.71583646768704, -152.4962906432338, -172.0840166611597, -134.14086166070774, -0.01600000075995922, 0.2240000106394291, 1.008000047877431, 0.0, 0.0, 0.0, 0.0, 0.0, 1.7632261938269064E9, 0.0, 2025-11-15 12:03:13.826
67.0, 325.19739079708233, -113.13010370964184, -169.55584429111332, -131.4182144929655, -0.01600000075995922, 0.2240000106394291, 1.008000047877431, 0.0, 0.0, 0.0, 0.0, 0.0, 1.7632261938405793E9, 0.0, 2025-11-15 12:03:13.840
67.0, 537.8069633780979, 77.76934962859377, -0.19821469765156507, 20.649857605341822, -0.01600000075995922, 0.2240000106394291, 1.008000047877431, 0.0, 0.0, 0.0, 0.0, 0.0, 1.7632261938405793E9, 0.0, 2025-11-15 12:03:13.840
68.0, 776.1713570039719, -123.5980836856179, -144.61819138657302, -103.57839922280982, -0.01600000075995922, 0.2240000106394291, 1.008000047877431, 0.0, 0.0, 0.0, 0.0, 0.0, 1.7632261938561954E9, 0.0, 2025-11-15 12:03:13.856
68.0, 761.8737194733694, -151.19480545865372, -191.25848373398185, -147.99719099653885, -0.01600000075995922, 0.2240000106394291, 1.008000047877431, 0.0, 0.0, 0.0, 0.0, 0.0, 1.7632261938561954E9, 0.0, 2025-11-15 12:03:13.856
69.0, 988.5153966881335, 39.450334682594985, -36.68841856531799, -11.778814910445362, -0.01600000075995922, 0.2240000106394291, 1.008000047877431, 0.0, 0.0, 0.0, 0.0, 0.0, 1.7632261938569033E9, 0.0, 2025-11-15 12:03:13.856
69.0, 862.5144272809848, -42.50209304643795, -72.76723343785852, -33.61983065167442, -0.01600000075995922, 0.2240000106394291, 1.008000047877431, 0.0, 0.0, 0.0, 0.0, 0.0, 1.7632261938569033E9, 0.0, 2025-11-15 12:03:13.856
70.0, 746.67102615349, -159.22063076356426, -187.61582117713988, -141.2317119766958, -0.01600000075995922, 0.2240000106394291, 1.0240000486373901, 0.0, 0.0, 0.0, 0.0, 0.0, 1.7632261938705828E9, 0.0, 2025-11-15 12:03:13.870
70.0, 900.8633614266291, -38.593897592741996, -103.1614003777504, -72.24925729399547, -0.01600000075995922, 0.2240000106394291, 1.0240000486373901, 0.0, 0.0, 0.0, 0.0, 0.0, 1.7632261938705828E9, 0.0, 2025-11-15 12:03:13.870
71.0, 961.625516006723, 40.52742586983368, -7.479799911379814, 9.519915337208658, -0.01600000075995922, 0.20800000987946987, 1.0240000486373901, 0.0, 0.0, 0.0, 0.0, 0.0, 1.763226193902634E9, 0.0, 2025-11-15 12:03:13.902
71.0, 739.4268399393186, -156.56530179502442, -178.4942051852122, -132.47660618042573, -0.01600000075995922, 0.20800000987946987, 1.0240000486373901, 0.0, 0.0, 0.0, 0.0, 0.0, 1.763226193902634E9, 0.0, 2025-11-15 12:03:13.902
72.0, 806.6178825432435, -113.23856080835685, -166.16375503130257, -119.34581743599847, -0.03200000151991844, 0.20800000987946987, 1.0240000486373901, 0.0, 0.0, 0.0, 0.0, 0.0, 1.7632261939033084E9, 0.0, 2025-11-15 12:03:13.903
72.0, 1024.0257467674091, 72.26047699386254, 3.2237937618047, 29.030973406042904, -0.03200000151991844, 0.20800000987946987, 1.0240000486373901, 0.0, 0.0, 0.0, 0.0, 0.0, 1.7632261939033084E9, 0.0, 2025-11-15 12:03:13.903
73.0, 1268.6095940195955, -120.88291631778702, -139.6553441453725, -90.31297407997772, -0.03200000151991844, 0.20800000987946987, 1.0240000486373901, 0.0, 0.0, 0.0, 0.0, 0.0, 1.7632261939040344E9, 0.0, 2025-11-15 12:03:13.904
73.0, 1241.9590669353493, -156.10903400043026, -189.5007307548076, -130.69641380151734, -0.03200000151991844, 0.20800000987946987, 1.0240000486373901, 0.0, 0.0, 0.0, 0.0, 0.0, 1.7632261939040344E9, 0.0, 2025-11-15 12:03:13.904
74.0, 1472.4304017047398, 33.440315453801304, -41.1314197126776, -19.90187761420384, -0.03200000151991844, 0.20800000987946987, 1.0240000486373901, 0.0, 0.0, 0.0, 0.0, 0.0, 1.763226193904778E9, 0.0, 2025-11-15 12:03:13.904
74.0, 1351.1566658415832, -42.37867634790018, -63.58203914668411, -34.86147743696347, -0.03200000151991844, 0.20800000987946987, 1.0240000486373901, 0.0, 0.0, 0.0, 0.0, 0.0, 1.763226193904778E9, 0.0, 2025-11-15 12:03:13.904
75.0, 1217.8217526213266, -159.44128486094996, -182.054589943029, -138.7521583060734, -0.03200000151991844, 0.20800000987946987, 1.0240000486373901, 0.0, 0.0, 0.0, 0.0, 0.0, 1.763226193915541E9, 0.0, 2025-11-15 12:03:13.915
75.0, 1387.8937031063251, -33.013966858852655, -99.02507102675736, -66.01858396781608, -0.03200000151991844, 0.20800000987946987, 1.0240000486373901, 0.0, 0.0, 0.0, 0.0, 0.0, 1.763226193915541E9, 0.0, 2025-11-15 12:03:13.915
76.0, 1449.3664386780001, 40.75555976713076, -4.779592143371701, 18.009488236624748, -0.03200000151991844, 0.20800000987946987, 1.0240000486373901, 0.0, 0.0, 0.0, 0.0, 0.0, 1.7632261939305196E9, 0.0, 2025-11-15 12:03:13.930
76.0, 1231.9660542537458, -155.14787971181795, -176.51953800860792, -129.46224681613967, -0.03200000151991844, 0.20800000987946987, 1.0240000486373901, 0.0, 0.0, 0.0, 0.0, 0.0, 1.7632261939305196E9, 0.0, 2025-11-15 12:03:13.930
77.0, 1309.9504481297918, -104.40865701297298, -155.2544668605551, -104.2889802143909, -0.03200000151991844, 0.20800000987946987, 1.0240000486373901, 0.0, 0.0, 0.0, 0.0, 0.0, 1.7632261939461927E9, 0.0, 2025-11-15 12:03:13.946
77.0, 1497.5700092068873, 68.30366284074262, -0.5946440929546952, 29.55829929979518, -0.03200000151991844, 0.20800000987946987, 1.0240000486373901, 0.0, 0.0, 0.0, 0.0, 0.0, 1.7632261939461927E9, 0.0, 2025-11-15 12:03:13.946
78.0, 1273.718297359068, -112.04553272249177, -135.96406288910657, -96.1733973105438, -0.03200000151991844, 0.20800000987946987, 1.0240000486373901, 0.0, 0.0, 0.0, 0.0, 0.0, 1.7632261939468837E9, 0.0, 2025-11-15 12:03:13.946
78.0, 1265.5391361559741, -139.14110790146515, -171.55295086745173, -122.52847229829058, -0.03200000151991844, 0.20800000987946987, 1.0240000486373901, 0.0, 0.0, 0.0, 0.0, 0.0, 1.7632261939468837E9, 0.0, 2025-11-15 12:03:13.946
79.0, 1483.414487874601, 48.06706418050453, -27.30126967653632, -7.43679106188938, -0.03200000151991844, 0.20800000987946987, 1.0240000486373901, 0.0, 0.0, 0.0, 0.0, 0.0, 1.7632261939605188E9, 0.0, 2025-11-15 12:03:13.960
79.0, 1348.4639378734864, -42.232820249628276, -62.7330818567425, -28.664463210385293, -0.03200000151991844, 0.20800000987946987, 1.0240000486373901, 0.0, 0.0, 0.0, 0.0, 0.0, 1.7632261939605188E9, 0.0, 2025-11-15 12:03:13.960
80.0, 1233.3535571373068, -151.74457075214013, -173.80437064077705, -126.32073085336015, -0.03200000151991844, 0.20800000987946987, 1.0240000486373901, 0.0, 0.0, 0.0, 0.0, 0.0, 1.763226193976193E9, 0.0, 2025-11-15 12:03:13.976
80.0, 1377.4780817297287, -32.565178864169866, -95.09817607328296, -69.18253933032975, -0.03200000151991844, 0.20800000987946987, 1.0240000486373901, 0.0, 0.0, 0.0, 0.0, 0.0, 1.763226193976193E9, 0.0, 2025-11-15 12:03:13.976
81.0, 1453.083899233956, 43.018199240323156, 5.280738737434149, 23.99706806568429, -0.03200000151991844, 0.2240000106394291, 1.0240000486373901, 0.0, 0.0, 0.0, 0.0, 0.0, 1.7632261939769137E9, 0.0, 2025-11-15 12:03:13.976
81.0, 1232.5120796472766, -148.74517098767683, -163.45606746338308, -111.15917643299326, -0.03200000151991844, 0.2240000106394291, 1.0240000486373901, 0.0, 0.0, 0.0, 0.0, 0.0, 1.7632261939769137E9, 0.0, 2025-11-15 12:03:13.976
82.0, 1302.1751961219124, -111.51072702882811, -160.98025369271636, -122.19936110218987, -0.03200000151991844, 0.2240000106394291, 1.0240000486373901, 0.0, 0.0, 0.0, 0.0, 0.0, 1.7632261939905016E9, 0.0, 2025-11-15 12:03:13.990
82.0, 1499.1519868881442, 69.44059242727235, 3.863316654227674, 26.76833393285051, -0.03200000151991844, 0.2240000106394291, 1.0240000486373901, 0.0, 0.0, 0.0, 0.0, 0.0, 1.7632261939905016E9, 0.0, 2025-11-15 12:03:13.990
83.0, 1267.4913639328443, -121.66455540852621, -134.41574430745095, -87.93065780820325, -0.03200000151991844, 0.2240000106394291, 1.0240000486373901, 0.0, 0.0, 0.0, 0.0, 0.0, 1.7632261940062425E9, 0.0, 2025-11-15 12:03:14.006
83.0, 1253.178766802419, -148.80500938696787, -181.61702164821327, -134.76168505335227, -0.03200000151991844, 0.2240000106394291, 1.0240000486373901, 0.0, 0.0, 0.0, 0.0, 0.0, 1.7632261940062425E9, 0.0, 2025-11-15 12:03:14.006
84.0, 1475.2951650707982, 37.32233160780743, -30.420346239581704, -16.375151955988258, -0.03200000151991844, 0.2240000106394291, 1.0240000486373901, 0.0, 0.0, 0.0, 0.0, 0.0, 1.7632261940069156E9, 0.0, 2025-11-15 12:03:14.006
84.0, 1341.8181356522255, -44.656275420915335, -70.66914956271648, -39.454074582550675, -0.03200000151991844, 0.2240000106394291, 1.0240000486373901, 0.0, 0.0, 0.0, 0.0, 0.0, 1.7632261940069156E9, 0.0, 2025-11-15 12:03:14.006
85.0, 1235.653595610056, -147.00611750828102, -172.7534587532282, -124.54427837440744, -0.03200000151991844, 0.2240000106394291, 1.0240000486373901, 0.0, 0.0, 0.0, 0.0, 0.0, 1.7632261940205092E9, 0.0, 2025-11-15 12:03:14.020
85.0, 1377.896950524766, -37.70006150333211, -101.81129649374634, -72.88130038650706, -0.03200000151991844, 0.2240000106394291, 1.0240000486373901, 0.0, 0.0, 0.0, 0.0, 0.0, 1.7632261940205092E9, 0.0, 2025-11-15 12:03:14.020
86.0, 1457.642837279942, 46.12231620354578, -1.4211619831621647, 19.303493621293455, -0.03200000151991844, 0.2240000106394291, 1.0240000486373901, 0.0, 0.0, 0.0, 0.0, 0.0, 1.76322619403617E9, 0.0, 2025-11-15 12:03:14.036
86.0, 1232.6130569460802, -145.72333182347938, -164.0806307559833, -119.86940342979506, -0.03200000151991844, 0.2240000106394291, 1.0240000486373901, 0.0, 0.0, 0.0, 0.0, 0.0, 1.76322619403617E9, 0.0, 2025-11-15 12:03:14.036
87.0, 1303.4692015065812, -105.09679860481992, -158.0332125276327, -116.85878396546468, -0.03200000151991844, 0.2240000106394291, 1.0240000486373901, 0.0, 0.0, 0.0, 0.0, 0.0, 1.7632261940368788E9, 0.0, 2025-11-15 12:03:14.036
87.0, 1515.098920299206, 81.41575208539143, 12.86525584757328, 23.357545173261315, -0.03200000151991844, 0.2240000106394291, 1.0240000486373901, 0.0, 0.0, 0.0, 0.0, 0.0, 1.7632261940368788E9, 0.0, 2025-11-15 12:03:14.036
88.0, 1748.5603050831705, -113.99402059940621, -124.88647922035307, -81.17639848822728, -0.03200000151991844, 0.2240000106394291, 1.0240000486373901, 0.0, 0.0, 0.0, 0.0, 0.0, 1.7632261940505505E9, 0.0, 2025-11-15 12:03:14.050
88.0, 1744.6932485289872, -141.13821447780356, -172.36824905779213, -127.46140033984557, -0.03200000151991844, 0.2240000106394291, 1.0240000486373901, 0.0, 0.0, 0.0, 0.0, 0.0, 1.7632261940505505E9, 0.0, 2025-11-15 12:03:14.050
89.0, 1970.6355644520372, 50.38954205298796, -24.305609812028706, -8.487702949438244, -0.03200000151991844, 0.2240000106394291, 1.0240000486373901, 0.0, 0.0, 0.0, 0.0, 0.0, 1.7632261940661738E9, 0.0, 2025-11-15 12:03:14.066
89.0, 1849.2197123905644, -32.71851476235315, -51.8387532858178, -19.632604817394167, -0.03200000151991844, 0.2240000106394291, 1.0240000486373901, 0.0, 0.0, 0.0, 0.0, 0.0, 1.7632261940661738E9, 0.0, 2025-11-15 12:03:14.066
90.0, 1723.626392078586, -162.0255557303317, -181.99101164378226, -136.04073083819821, -0.03200000151991844, 0.2240000106394291, 1.0240000486373901, 0.0, 0.0, 0.0, 0.0, 0.0, 1.7632261940668776E9, 0.0, 2025-11-15 12:03:14.066
90.0, 1873.0877539077774, -35.22798763262108, -93.22074629552662, -60.10954203782603, -0.03200000151991844, 0.2240000106394291, 1.0240000486373901, 0.0, 0.0, 0.0, 0.0, 0.0, 1.7632261940668776E9, 0.0, 2025-11-15 12:03:14.066
91.0, 1942.6835521832108, 42.5581915457733, 2.939561365172267, 21.50629469519481, -0.03200000151991844, 0.2240000106394291, 1.0240000486373901, 0.0, 0.0, 0.0, 0.0, 0.0, 1.7632261940805511E9, 0.0, 2025-11-15 12:03:14.080
91.0, 1719.6546183256432, -141.8974141688086, -162.1471024788916, -120.09379742713645, -0.03200000151991844, 0.2240000106394291, 1.0240000486373901, 0.0, 0.0, 0.0, 0.0, 0.0, 1.7632261940805511E9, 0.0, 2025-11-15 12:03:14.080
92.0, 1803.9631830267608, -89.12742579402402, -137.9873487651348, -108.96385515900329, -0.03200000151991844, 0.2240000106394291, 1.0240000486373901, 0.0, 0.0, 0.0, 0.0, 0.0, 1.7632261940961757E9, 0.0, 2025-11-15 12:03:14.096
92.0, 2006.905114222318, 89.69963048724458, 25.40514039900154, 28.76918040914461, -0.03200000151991844, 0.2240000106394291, 1.0240000486373901, 0.0, 0.0, 0.0, 0.0, 0.0, 1.7632261940961757E9, 0.0, 2025-11-15 12:03:14.096
93.0, 2248.078172714915, -103.60831842245534, -116.26226992253214, -84.93873784365132, -0.03200000151991844, 0.2240000106394291, 1.0240000486373901, 0.0, 0.0, 0.0, 0.0, 0.0, 1.763226194096877E9, 0.0, 2025-11-15 12:03:14.096
93.0, 2236.9519703467377, -140.0461636907421, -168.91632139869034, -124.68265467276797, -0.03200000151991844, 0.2240000106394291, 1.0240000486373901, 0.0, 0.0, 0.0, 0.0, 0.0, 1.763226194096877E9, 0.0, 2025-11-15 12:03:14.096
94.0, 2459.7004117076285, 46.90395529428497, -19.929926863871515, -1.4192920331843197, -0.03200000151991844, 0.2240000106394291, 1.0240000486373901, 0.0, 0.0, 0.0, 0.0, 0.0, 1.7632261941105096E9, 0.0, 2025-11-15 12:03:14.110
94.0, 2335.5020740791224, -37.61778370430693, -54.568880253471434, -18.996821824926883, -0.03200000151991844, 0.2240000106394291, 1.0240000486373901, 0.0, 0.0, 0.0, 0.0, 0.0, 1.7632261941105096E9, 0.0, 2025-11-15 12:03:14.110
95.0, 2212.6388807347976, -153.25923023419455, -173.09004974924028, -129.51834531547502, -0.03200000151991844, 0.2240000106394291, 1.0240000486373901, 0.0, 0.0, 0.0, 0.0, 0.0, 1.7632261941425605E9, 0.0, 2025-11-15 12:03:14.142
95.0, 2374.03052342264, -28.70934200985357, -89.4845862397924, -58.14983446104452, -0.03200000151991844, 0.2240000106394291, 1.0240000486373901, 0.0, 0.0, 0.0, 0.0, 0.0, 1.7632261941425605E9, 0.0, 2025-11-15 12:03:14.142
96.0, 2433.053624523338, 46.76557899592444, 6.5410850225016475, 28.290473214816302, -0.03200000151991844, 0.2240000106394291, 1.0240000486373901, 0.0, 0.0, 0.0, 0.0, 0.0, 1.7632261941433153E9, 0.0, 2025-11-15 12:03:14.143
96.0, 2212.8782343319617, -149.2799766813405, -161.99750648066401, -119.23362043732777, -0.03200000151991844, 0.2240000106394291, 1.0240000486373901, 0.0, 0.0, 0.0, 0.0, 0.0, 1.7632261941433153E9, 0.0, 2025-11-15 12:03:14.143
97.0, 2285.735225368757, -101.51397444726899, -143.24190820287913, -100.69119645701721, -0.03200000151991844, 0.2240000106394291, 1.0240000486373901, 0.0, 0.0, 0.0, 0.0, 0.0, 1.7632261941440127E9, 0.0, 2025-11-15 12:03:14.144
97.0, 2493.703582104761, 79.87865320360288, 17.988918786868453, 32.03037317050621, -0.03200000151991844, 0.2240000106394291, 1.0240000486373901, 0.0, 0.0, 0.0, 0.0, 0.0, 1.7632261941440127E9, 0.0, 2025-11-15 12:03:14.144
98.0, 2250.38195108762, -106.45812218869105, -122.48920334875584, -87.67634461121634, -0.03200000151991844, 0.2240000106394291, 1.0240000486373901, 0.0, 0.0, 0.0, 0.0, 0.0, 1.7632261941447518E9, 0.0, 2025-11-15 12:03:14.144
98.0, 2232.048961504828, -146.84904171014205, -177.21515940036625, -126.85179664706811, -0.03200000151991844, 0.2240000106394291, 1.0240000486373901, 0.0, 0.0, 0.0, 0.0, 0.0, 1.7632261941447518E9, 0.0, 2025-11-15 12:03:14.144
99.0, 2466.099380531814, 47.521038786973804, -17.7495651897043, 6.606533271726221, -0.03200000151991844, 0.2240000106394291, 1.0240000486373901, 0.0, 0.0, 0.0, 0.0, 0.0, 1.7632261941555812E9, 0.0, 2025-11-15 12:03:14.155
99.0, 2328.82261275826, -47.6706347852014, -60.530280782841146, -13.233635993208736, -0.03200000151991844, 0.2240000106394291, 1.0240000486373901, 0.0, 0.0, 0.0, 0.0, 0.0, 1.7632261941555812E9, 0.0, 2025-11-15 12:03:14.155
