%OpenBCI Raw EXG Data
%Number of channels = 4
%Sample Rate = 200 Hz
%Board = OpenBCI_GUI$BoardGanglionBLE
Sample Index, EXG Channel 0, EXG Channel 1, EXG Channel 2, EXG Channel 3, Accel Channel 0, Accel Channel 1, Accel Channel 2, Other, Other, Other, Other, Other, Timestamp, Marker Channel, Timestamp (Formatted)
0.0, -399.3315576687455, -340.5122811156325, -326.756929078605, -216.96281612943858, 0.0, 0.0, 0.0, 0.0, 0.0, 0.0, 0.0, 0.0, 1.7632253139246085E9, 0.0, 2025-11-15 11:48:33.924
1.0, -451.84536289656535, -429.03384311683476, -504.2058322262019, 7.835090407170355, 0.0, 0.5280000250786543, 0.0, 0.0, 0.0, 0.0, 0.0, 0.0, 1.763225313938021E9, 0.0, 2025-11-15 11:48:33.938
1.0, -321.78286213753745, -249.13717544823885, -291.08015345130116, 177.48443219717592, 0.0, 0.5280000250786543, 0.0, 0.0, 0.0, 0.0, 0.0, 0.0, 1.763225313938021E9, 0.0, 2025-11-15 11:48:33.938
2.0, -411.6563979727216, -335.0501572303474, -310.10128462594, 277.5959441610612, 0.03200000151991844, 0.5280000250786543, 0.0, 0.0, 0.0, 0.0, 0.0, 0.0, 1.7632253139547088E9, 0.0, 2025-11-15 11:48:33.954
2.0, -226.65476686460897, -189.70268535241485, -224.53237363975495, 334.64811798511073, 0.03200000151991844, 0.5280000250786543, 0.0, 0.0, 0.0, 0.0, 0.0, 0.0, 1.7632253139547088E9, 0.0, 2025-11-15 11:48:33.954
3.0, -164.7968215974979, -117.66473240591586, -203.74600968603045, 235.64735630806535, 0.03200000151991844, 0.5280000250786543, 0.0, 0.0, 0.0, 0.0, 0.0, 0.0, 1.7632253139554448E9, 0.0, 2025-11-15 11:48:33.955
3.0, -347.98834112705663, -248.66594805382192, -213.21917627379298, 348.90461661620066, 0.03200000151991844, 0.5280000250786543, 0.0, 0.0, 0.0, 0.0, 0.0, 0.0, 1.7632253139554448E9, 0.0, 2025-11-15 11:48:33.955
4.0, -364.3466635332443, -308.0405997503549, -306.39130386989564, 283.2282334943302, 0.03200000151991844, 0.5280000250786543, 0.0, 0.0, 0.0, 0.0, 0.0, 0.0, 1.7632253139678476E9, 0.0, 2025-11-15 11:48:33.967
4.0, -195.54627903318033, -179.05519017856568, -277.9792839065194, 171.7810847647488, 0.03200000151991844, 0.5280000250786543, 0.0, 0.0, 0.0, 0.0, 0.0, 0.0, 1.7632253139678476E9, 0.0, 2025-11-15 11:48:33.967
5.0, -129.5389147652313, -31.424509377684444, -513.5929811149836, 5.355536736547947, 0.03200000151991844, 0.5280000250786543, 0.0, 0.0, 0.0, 0.0, 0.0, 0.0, 1.7632253139835012E9, 0.0, 2025-11-15 11:48:33.983
5.0, 98.17050388688222, 157.58068463299423, -325.5377216930501, -219.89489769469947, 0.03200000151991844, 0.5280000250786543, 0.0, 0.0, 0.0, 0.0, 0.0, 0.0, 1.7632253139835012E9, 0.0, 2025-11-15 11:48:33.983
6.0, 37.54111575521529, 63.09398220246658, -490.02413159422576, 20.5657098563388, 0.03200000151991844, 0.5280000250786543, 0.0, 0.0, 0.0, 0.0, 0.0, 0.0, 1.763225313984228E9, 0.0, 2025-11-15 11:48:33.984
6.0, 140.72121563274413, 220.36799503909424, -309.0054939389229, 151.2191148083657, 0.03200000151991844, 0.5280000250786543, 0.0, 0.0, 0.0, 0.0, 0.0, 0.0, 1.763225313984228E9, 0.0, 2025-11-15 11:48:33.984
7.0, 68.3653711900115, 144.81453613424674, -321.3284642929211, 269.23726776009426, 0.03200000151991844, 0.5280000250786543, 0.0, 0.0, 0.0, 0.0, 0.0, 0.0, 1.763225313997877E9, 0.0, 2025-11-15 11:48:33.997
7.0, 274.6395532460883, 302.55229656537995, -208.79113472625613, 357.10247731907293, 0.03200000151991844, 0.5280000250786543, 0.0, 0.0, 0.0, 0.0, 0.0, 0.0, 1.763225313997877E9, 0.0, 2025-11-15 11:48:33.997
8.0, 363.9147050883621, 381.3482487318106, -188.67421286460012, 240.84955714643002, 0.03200000151991844, 0.5280000250786543, 0.0, 0.0, 0.0, 0.0, 0.0, 0.0, 1.7632253140135055E9, 0.0, 2025-11-15 11:48:34.013
8.0, 149.22948803193867, 234.14578647585586, -223.31690615415573, 327.66946466779336, 0.03200000151991844, 0.5280000250786543, 0.0, 0.0, 0.0, 0.0, 0.0, 0.0, 1.7632253140135055E9, 0.0, 2025-11-15 11:48:34.013
9.0, 146.20764886774123, 198.818691494409, -289.27378177270293, 297.7540049222298, 0.03200000151991844, 0.5280000250786543, 0.0, 0.0, 0.0, 0.0, 0.0, 0.0, 1.763225314014202E9, 0.0, 2025-11-15 11:48:34.014
9.0, 260.18110001739115, 283.9238548860885, -292.80985718080774, 165.9318812340498, 0.03200000151991844, 0.5280000250786543, 0.0, 0.0, 0.0, 0.0, 0.0, 0.0, 1.763225314014202E9, 0.0, 2025-11-15 11:48:34.014
10.0, 359.69048808841035, 453.9901955211535, -517.604023817461, -7.562077710404992, 0.03200000151991844, 0.5280000250786543, 0.9120000433176756, 0.0, 0.0, 0.0, 0.0, 0.0, 1.7632253140278687E9, 0.0, 2025-11-15 11:48:34.027
10.0, 590.7246778011322, 651.7355357282795, -317.36043043993413, -217.6995764207095, 0.03200000151991844, 0.5280000250786543, 0.9120000433176756, 0.0, 0.0, 0.0, 0.0, 0.0, 1.7632253140278687E9, 0.0, 2025-11-15 11:48:34.027
11.0, 507.83914503315464, 533.089079583995, -505.8943970561959, 20.06830316223204, 0.03200000151991844, 0.5120000243186951, 0.9120000433176756, 0.0, 0.0, 0.0, 0.0, 0.0, 1.7632253140591779E9, 0.0, 2025-11-15 11:48:34.059
11.0, 661.5677327117883, 720.5328653631732, -290.5172985079698, 169.4922659918666, 0.03200000151991844, 0.5120000243186951, 0.9120000433176756, 0.0, 0.0, 0.0, 0.0, 0.0, 1.7632253140591779E9, 0.0, 2025-11-15 11:48:34.059
12.0, 603.2514727027155, 669.5206299675629, -286.4763366058469, 291.2652784991078, 0.04800000227987766, 0.5120000243186951, 0.9120000433176756, 0.0, 0.0, 0.0, 0.0, 0.0, 1.7632253140598707E9, 0.0, 2025-11-15 11:48:34.059
12.0, 762.5637310151942, 801.2735655065626, -205.283108567819, 361.672635064926, 0.04800000227987766, 0.5120000243186951, 0.9120000433176756, 0.0, 0.0, 0.0, 0.0, 0.0, 1.7632253140598707E9, 0.0, 2025-11-15 11:48:34.059
13.0, 813.3553123134188, 859.425269917585, -194.1643859995529, 254.10750248935074, 0.04800000227987766, 0.5120000243186951, 0.9120000433176756, 0.0, 0.0, 0.0, 0.0, 0.0, 1.7632253140606215E9, 0.0, 2025-11-15 11:48:34.060
13.0, 679.2163206026889, 759.1697718054056, -191.61190427979454, 353.49721376178786, 0.04800000227987766, 0.5120000243186951, 0.9120000433176756, 0.0, 0.0, 0.0, 0.0, 0.0, 1.7632253140606215E9, 0.0, 2025-11-15 11:48:34.060
14.0, 662.704662298318, 710.4276556828991, -272.1506498255767, 304.25769094517455, 0.04800000227987766, 0.5120000243186951, 0.9120000433176756, 0.0, 0.0, 0.0, 0.0, 0.0, 1.7632253140735197E9, 0.0, 2025-11-15 11:48:34.073
14.0, 773.0092715914361, 798.1432692436501, -263.1898495317437, 201.00840291846544, 0.04800000227987766, 0.5120000243186951, 0.9120000433176756, 0.0, 0.0, 0.0, 0.0, 0.0, 1.7632253140735197E9, 0.0, 2025-11-15 11:48:34.073
15.0, 858.8568051243201, 944.3565279613249, -29.560169249773026, -2.5132127702236176, 0.04800000227987766, 0.5120000243186951, 0.9120000433176756, 0.0, 0.0, 0.0, 0.0, 0.0, 1.7632253140741928E9, 0.0, 2025-11-15 11:48:34.074
15.0, 1080.182214552071, 1140.3702944889665, 174.1727507864125, -218.45503621175885, 0.04800000227987766, 0.5120000243186951, 0.9120000433176756, 0.0, 0.0, 0.0, 0.0, 0.0, 1.7632253140741928E9, 0.0, 2025-11-15 11:48:34.074
16.0, 1029.9160891976207, 1054.1936497599818, 12.352889553643763, -447.66041484614834, 0.04800000227987766, 0.5120000243186951, 0.9120000433176756, 0.0, 0.0, 0.0, 0.0, 0.0, 1.7632253140878556E9, 0.0, 2025-11-15 11:48:34.087
16.0, 1147.4237458053976, 1214.680236658547, 201.3524737143889, -303.5396301536821, 0.04800000227987766, 0.5120000243186951, 0.9120000433176756, 0.0, 0.0, 0.0, 0.0, 0.0, 1.7632253140878556E9, 0.0, 2025-11-15 11:48:34.087
17.0, 1076.9528109403327, 1149.4189824317582, 189.37731405626982, -201.71524401009083, 0.04800000227987766, 0.5120000243186951, 0.9120000433176756, 0.0, 0.0, 0.0, 0.0, 0.0, 1.7632253141035693E9, 0.0, 2025-11-15 11:48:34.103
17.0, 1286.996812151745, 1320.354849806521, 315.08657126687467, -100.59582900814712, 0.04800000227987766, 0.5120000243186951, 0.9120000433176756, 0.0, 0.0, 0.0, 0.0, 0.0, 1.7632253141035693E9, 0.0, 2025-11-15 11:48:34.103
18.0, 1345.1784357624128, 1381.8874237774871, 322.98897987324744, -213.77829131716862, 0.04800000227987766, 0.5120000243186951, 0.9120000433176756, 0.0, 0.0, 0.0, 0.0, 0.0, 1.7632253141042855E9, 0.0, 2025-11-15 11:48:34.104
18.0, 1124.2962044794112, 1211.026354401838, 260.55509001296014, -153.2947592837736, 0.04800000227987766, 0.5120000243186951, 0.9120000433176756, 0.0, 0.0, 0.0, 0.0, 0.0, 1.7632253141042855E9, 0.0, 2025-11-15 11:48:34.104
19.0, 1139.7045922968537, 1182.6031147385947, 198.7270639454946, -178.23989198822528, 0.04800000227987766, 0.5120000243186951, 0.9120000433176756, 0.0, 0.0, 0.0, 0.0, 0.0, 1.7632253141178267E9, 0.0, 2025-11-15 11:48:34.117
19.0, 1293.0891091795638, 1309.453041435685, 234.86571721732616, -280.43452822742984, 0.04800000227987766, 0.5120000243186951, 0.9120000433176756, 0.0, 0.0, 0.0, 0.0, 0.0, 1.7632253141178267E9, 0.0, 2025-11-15 11:48:34.117
20.0, 1325.9198209405877, 1414.7555345380679, 442.2338200104423, -507.472634837497, 0.04800000227987766, 0.5120000243186951, 0.9120000433176756, 0.0, 0.0, 0.0, 0.0, 0.0, 1.7632253141334808E9, 0.0, 2025-11-15 11:48:34.133
20.0, 1555.4692703709006, 1613.7088624308817, 636.1420228630304, -724.2559357690625, 0.04800000227987766, 0.5120000243186951, 0.9120000433176756, 0.0, 0.0, 0.0, 0.0, 0.0, 1.7632253141334808E9, 0.0, 2025-11-15 11:48:34.133
21.0, 1527.1264385567047, 1539.7392511572689, 493.20117660658434, -948.8911566575989, 0.04800000227987766, 0.5120000243186951, 0.9120000433176756, 0.0, 0.0, 0.0, 0.0, 0.0, 1.763225314134179E9, 0.0, 2025-11-15 11:48:34.134
21.0, 1621.1138643431477, 1685.139081634581, 674.2796526611783, -817.2317186174914, 0.04800000227987766, 0.5120000243186951, 0.9120000433176756, 0.0, 0.0, 0.0, 0.0, 0.0, 1.763225314134179E9, 0.0, 2025-11-15 11:48:34.134
22.0, 1535.178443161305, 1604.2338258931413, 645.5684407013468, -724.1212993706577, 0.04800000227987766, 0.5120000243186951, 0.9120000433176756, 0.0, 0.0, 0.0, 0.0, 0.0, 1.7632253141478586E9, 0.0, 2025-11-15 11:48:34.147
22.0, 1774.737734823022, 1795.9597971215844, 776.8651084457524, -612.8181367893703, 0.04800000227987766, 0.5120000243186951, 0.9120000433176756, 0.0, 0.0, 0.0, 0.0, 0.0, 1.7632253141478586E9, 0.0, 2025-11-15 11:48:34.147
23.0, 1855.882344161626, 1883.6305318828672, 822.3647313066758, -695.726108957082, 0.04800000227987766, 0.5120000243186951, 0.9120000433176756, 0.0, 0.0, 0.0, 0.0, 0.0, 1.76322531416351E9, 0.0, 2025-11-15 11:48:34.163
23.0, 2084.1452680071816, 1688.3142566969618, 735.7598680327646, -654.4507030961104, 0.04800000227987766, 0.5120000243186951, 0.9120000433176756, 0.0, 0.0, 0.0, 0.0, 0.0, 1.76322531416351E9, 0.0, 2025-11-15 11:48:34.163
24.0, 2089.302590046078, 1649.0976657615975, 662.9776749950834, -697.0967822908424, 0.04800000227987766, 0.5120000243186951, 0.9120000433176756, 0.0, 0.0, 0.0, 0.0, 0.0, 1.763225314164184E9, 0.0, 2025-11-15 11:48:34.164
24.0, 2274.1957640554756, 1803.1553646363318, 728.8821920142509, -770.4792292714119, 0.04800000227987766, 0.5120000243186951, 0.9120000433176756, 0.0, 0.0, 0.0, 0.0, 0.0, 1.763225314164184E9, 0.0, 2025-11-15 11:48:34.164
25.0, 2307.886652806308, 1896.88660727581, 927.4166511120275, -1000.1165663506836, 0.04800000227987766, 0.5120000243186951, 0.9120000433176756, 0.0, 0.0, 0.0, 0.0, 0.0, 1.7632253141778805E9, 0.0, 2025-11-15 11:48:34.177
25.0, 2523.8901845971122, 2093.1285077007487, 1123.1461852430366, -1222.7565506128594, 0.04800000227987766, 0.5120000243186951, 0.9120000433176756, 0.0, 0.0, 0.0, 0.0, 0.0, 1.7632253141778805E9, 0.0, 2025-11-15 11:48:34.177
26.0, 2515.256625549402, 2038.0154720037244, 987.8122954964638, -1436.886392525863, 0.04800000227987766, 0.5120000243186951, 0.9120000433176756, 0.0, 0.0, 0.0, 0.0, 0.0, 1.7632253141935241E9, 0.0, 2025-11-15 11:48:34.193
26.0, 2601.730592324864, 2182.914155886974, 1175.6151116713881, -1294.6243381113745, 0.04800000227987766, 0.5120000243186951, 0.9120000433176756, 0.0, 0.0, 0.0, 0.0, 0.0, 1.7632253141935241E9, 0.0, 2025-11-15 11:48:34.193
27.0, 2506.3407040550373, 2078.484929424245, 1130.6839536037296, -1225.269763383083, 0.04800000227987766, 0.5120000243186951, 0.9120000433176756, 0.0, 0.0, 0.0, 0.0, 0.0, 1.7632253141942132E9, 0.0, 2025-11-15 11:48:34.194
27.0, 2269.318934513256, 2288.917880231049, 1279.662868338637, -1095.9552426151931, 0.04800000227987766, 0.5120000243186951, 0.9120000433176756, 0.0, 0.0, 0.0, 0.0, 0.0, 1.7632253141942132E9, 0.0, 2025-11-15 11:48:34.194
28.0, 2337.183159109205, 2368.0130243939348, 1308.2618832997978, -1190.4793440452777, 0.04800000227987766, 0.5120000243186951, 0.9120000433176756, 0.0, 0.0, 0.0, 0.0, 0.0, 1.7632253142078042E9, 0.0, 2025-11-15 11:48:34.207
28.0, 2578.139303404372, 2175.460535275284, 1224.1029145969078, -1136.3499020365998, 0.04800000227987766, 0.5120000243186951, 0.9120000433176756, 0.0, 0.0, 0.0, 0.0, 0.0, 1.7632253142078042E9, 0.0, 2025-11-15 11:48:34.207
29.0, 2570.1172179994173, 2118.008192155976, 1133.537497269921, -1211.473272446543, 0.04800000227987766, 0.5120000243186951, 0.9120000433176756, 0.0, 0.0, 0.0, 0.0, 0.0, 1.7632253142235472E9, 0.0, 2025-11-15 11:48:34.223
29.0, 2772.389707102906, 2293.4095000778325, 1212.8757349299267, -1268.5983743197285, 0.04800000227987766, 0.5120000243186951, 0.9120000433176756, 0.0, 0.0, 0.0, 0.0, 0.0, 1.7632253142235472E9, 0.0, 2025-11-15 11:48:34.223
30.0, 2796.042704372667, 2391.2060139691457, 1415.3146495814435, -1487.7752112229355, 0.04800000227987766, 0.5120000243186951, 0.8960000425577164, 0.0, 0.0, 0.0, 0.0, 0.0, 1.763225314224239E9, 0.0, 2025-11-15 11:48:34.224
30.0, 3014.963358128909, 2579.2949324906804, 1608.2317789457738, -1710.8752031796612, 0.04800000227987766, 0.5120000243186951, 0.8960000425577164, 0.0, 0.0, 0.0, 0.0, 0.0, 1.763225314224239E9, 0.0, 2025-11-15 11:48:34.224
31.0, 2984.668298537843, 2509.371892969124, 1457.231448284816, -1948.8057684106752, 0.04800000227987766, 0.5280000250786543, 0.8960000425577164, 0.0, 0.0, 0.0, 0.0, 0.0, 1.7632253142378688E9, 0.0, 2025-11-15 11:48:34.237
31.0, 3116.791484172456, 2696.542666051537, 1679.4862228515558, -1765.0009052883834, 0.04800000227987766, 0.5280000250786543, 0.8960000425577164, 0.0, 0.0, 0.0, 0.0, 0.0, 1.7632253142378688E9, 0.0, 2025-11-15 11:48:34.237
32.0, 2964.7982100732625, 2558.697433484718, 1600.2003437909298, -1725.9993586004712, 0.06400000303983688, 0.5280000250786543, 0.8960000425577164, 0.0, 0.0, 0.0, 0.0, 0.0, 1.7632253142535453E9, 0.0, 2025-11-15 11:48:34.253
32.0, 2734.833631747868, 2761.183096885681, 1746.6099472562782, -1604.7031833375804, 0.06400000303983688, 0.5280000250786543, 0.8960000425577164, 0.0, 0.0, 0.0, 0.0, 0.0, 1.7632253142535453E9, 0.0, 2025-11-15 11:48:34.253
33.0, 2823.9778870916925, 2864.8419039575383, 1801.99412570009, -1672.8086314806715, 0.06400000303983688, 0.5280000250786543, 0.8960000425577164, 0.0, 0.0, 0.0, 0.0, 0.0, 1.763225314254236E9, 0.0, 2025-11-15 11:48:34.254
33.0, 3052.424066035077, 2644.752531465143, 1680.3538796412759, -1667.350247495342, 0.06400000303983688, 0.5280000250786543, 0.8960000425577164, 0.0, 0.0, 0.0, 0.0, 0.0, 1.763225314254236E9, 0.0, 2025-11-15 11:48:34.254
34.0, 3078.801580422558, 2625.4733471935615, 1631.192894723732, -1681.7114633251913, 0.06400000303983688, 0.5280000250786543, 0.8960000425577164, 0.0, 0.0, 0.0, 0.0, 0.0, 1.763225314267816E9, 0.0, 2025-11-15 11:48:34.267
34.0, 3267.4122149879113, 2796.8991414625198, 1717.2068538046442, -1738.8515247981995, 0.06400000303983688, 0.5280000250786543, 0.8960000425577164, 0.0, 0.0, 0.0, 0.0, 0.0, 1.763225314267816E9, 0.0, 2025-11-15 11:48:34.267
35.0, 3262.4867667462677, 2865.1878447034396, 1889.4311167141423, -1499.2679237867706, 0.06400000303983688, 0.5280000250786543, 0.8960000425577164, 0.0, 0.0, 0.0, 0.0, 0.0, 1.763225314283548E9, 0.0, 2025-11-15 11:48:34.283
35.0, 3019.3745701266453, 3069.3994719339535, 2094.6749563324265, -1714.6001435355283, 0.06400000303983688, 0.5280000250786543, 0.8960000425577164, 0.0, 0.0, 0.0, 0.0, 0.0, 1.763225314283548E9, 0.0, 2025-11-15 11:48:34.283
36.0, 2989.707813728135, 2996.83606304368, 1940.2002586126328, -1944.6058607604355, 0.06400000303983688, 0.5280000250786543, 0.8960000425577164, 0.0, 0.0, 0.0, 0.0, 0.0, 1.763225314284232E9, 0.0, 2025-11-15 11:48:34.284
36.0, 3094.6868054843508, 3158.3586022299714, 2129.2783806724474, -1792.6200664611533, 0.06400000303983688, 0.5280000250786543, 0.8960000425577164, 0.0, 0.0, 0.0, 0.0, 0.0, 1.763225314284232E9, 0.0, 2025-11-15 11:48:34.284
37.0, 2975.511153496336, 3047.3658513450064, 2082.3501160284504, -1718.355003091041, 0.06400000303983688, 0.5280000250786543, 0.8960000425577164, 0.0, 0.0, 0.0, 0.0, 0.0, 1.7632253142978568E9, 0.0, 2025-11-15 11:48:34.297
37.0, 3213.409929577727, 3242.7718841298483, 2221.941881874576, -1606.1393049205653, 0.06400000303983688, 0.5280000250786543, 0.8960000425577164, 0.0, 0.0, 0.0, 0.0, 0.0, 1.7632253142978568E9, 0.0, 2025-11-15 11:48:34.297
38.0, 3315.778471164871, 3354.202203309629, 2281.6157255675644, -1668.0327792372555, 0.06400000303983688, 0.5280000250786543, 0.8960000425577164, 0.0, 0.0, 0.0, 0.0, 0.0, 1.763225314313524E9, 0.0, 2025-11-15 11:48:34.313
38.0, 3544.8866124004126, 3146.361003172118, 2174.968738431111, -1653.3218827615492, 0.06400000303983688, 0.5280000250786543, 0.8960000425577164, 0.0, 0.0, 0.0, 0.0, 0.0, 1.763225314313524E9, 0.0, 2025-11-15 11:48:34.313
39.0, 3560.7325685126707, 3100.494870115537, 2098.685999034904, -1709.5849376949482, 0.06400000303983688, 0.5280000250786543, 0.8960000425577164, 0.0, 0.0, 0.0, 0.0, 0.0, 1.7632253143142188E9, 0.0, 2025-11-15 11:48:34.314
39.0, 3767.650013361126, 3290.0928382691927, 2208.751254730858, -1736.3083928283304, 0.06400000303983688, 0.5280000250786543, 0.8960000425577164, 0.0, 0.0, 0.0, 0.0, 0.0, 1.7632253143142188E9, 0.0, 2025-11-15 11:48:34.314
40.0, 3756.243318496272, 3353.5832498669624, 2377.9761178758927, -1495.064276236575, 0.06400000303983688, 0.5280000250786543, 0.8960000425577164, 0.0, 0.0, 0.0, 0.0, 0.0, 1.7632253143278537E9, 0.0, 2025-11-15 11:48:34.327
40.0, 3988.0067887003534, 3545.894515438471, 2563.147914431989, -1722.3043374442495, 0.06400000303983688, 0.5280000250786543, 0.8960000425577164, 0.0, 0.0, 0.0, 0.0, 0.0, 1.7632253143278537E9, 0.0, 2025-11-15 11:48:34.327
41.0, 3965.4869811171666, 3500.3930226275697, 2449.1950327320956, -1915.688954303041, 0.06400000303983688, 0.5120000243186951, 0.8960000425577164, 0.0, 0.0, 0.0, 0.0, 0.0, 1.7632253143435247E9, 0.0, 2025-11-15 11:48:34.343
41.0, 4078.585295677185, 3648.27614667546, 2629.0804807008244, -1798.1999971950427, 0.06400000303983688, 0.5120000243186951, 0.8960000425577164, 0.0, 0.0, 0.0, 0.0, 0.0, 1.7632253143435247E9, 0.0, 2025-11-15 11:48:34.343
42.0, 3941.503002701327, 3523.617801352404, 2560.666490811389, -1730.524637546856, 0.06400000303983688, 0.5120000243186951, 0.8960000425577164, 0.0, 0.0, 0.0, 0.0, 0.0, 1.7632253143442316E9, 0.0, 2025-11-15 11:48:34.344
42.0, 3710.8315832843073, 3751.3253500545397, 2724.2160557736643, -1591.6771117919125, 0.06400000303983688, 0.5120000243186951, 0.8960000425577164, 0.0, 0.0, 0.0, 0.0, 0.0, 1.7632253143442316E9, 0.0, 2025-11-15 11:48:34.344
43.0, 3809.3891668166034, 3851.5172698674724, 2774.3718540794216, -1672.9806668786332, 0.06400000303983688, 0.5120000243186951, 0.8960000425577164, 0.0, 0.0, 0.0, 0.0, 0.0, 1.7632253143578107E9, 0.0, 2025-11-15 11:48:34.357
43.0, 4026.750282291323, 3625.1486053494737, 2655.8993032830767, -1661.478604564909, 0.06400000303983688, 0.5120000243186951, 0.8960000425577164, 0.0, 0.0, 0.0, 0.0, 0.0, 1.7632253143578107E9, 0.0, 2025-11-15 11:48:34.357
44.0, 4057.080870931968, 3605.379494183697, 2606.7083991658874, -1687.661644154694, 0.06400000303983688, 0.5120000243186951, 0.8960000425577164, 0.0, 0.0, 0.0, 0.0, 0.0, 1.7632253143891957E9, 0.0, 2025-11-15 11:48:34.389
44.0, 4275.55086674355, 3796.791313815862, 2710.2138703395613, -1714.2280234899372, 0.06400000303983688, 0.5120000243186951, 0.8960000425577164, 0.0, 0.0, 0.0, 0.0, 0.0, 1.7632253143891957E9, 0.0, 2025-11-15 11:48:34.389
45.0, 4241.48411804717, 3838.7286819689907, 2860.855170604773, -1500.1393204764463, 0.06400000303983688, 0.5120000243186951, 0.8960000425577164, 0.0, 0.0, 0.0, 0.0, 0.0, 1.7632253143898888E9, 0.0, 2025-11-15 11:48:34.389
45.0, 4470.588519382756, 4037.0686662690714, 3057.040972530376, -1726.1751338983886, 0.06400000303983688, 0.5120000243186951, 0.8960000425577164, 0.0, 0.0, 0.0, 0.0, 0.0, 1.7632253143898888E9, 0.0, 2025-11-15 11:48:34.389
46.0, 4479.104271581862, 4009.9562615402974, 2954.446166995913, -1909.649015874602, 0.06400000303983688, 0.5120000243186951, 0.8960000425577164, 0.0, 0.0, 0.0, 0.0, 0.0, 1.7632253143906577E9, 0.0, 2025-11-15 11:48:34.390
46.0, 4584.300177535508, 4153.575899638701, 3130.251384112984, -1780.5962881036103, 0.06400000303983688, 0.5120000243186951, 0.8960000425577164, 0.0, 0.0, 0.0, 0.0, 0.0, 1.7632253143906577E9, 0.0, 2025-11-15 11:48:34.390
47.0, 4450.2509434237145, 4027.5898898313753, 3060.8575404351577, -1726.1601742985658, 0.06400000303983688, 0.5120000243186951, 0.8960000425577164, 0.0, 0.0, 0.0, 0.0, 0.0, 1.763225314403519E9, 0.0, 2025-11-15 11:48:34.403
47.0, 4216.374429744668, 4246.288019540254, 3221.2992485342547, -1595.5516481460072, 0.06400000303983688, 0.5120000243186951, 0.8960000425577164, 0.0, 0.0, 0.0, 0.0, 0.0, 1.763225314403519E9, 0.0, 2025-11-15 11:48:34.403
48.0, 4310.963979423977, 4346.663194451015, 3271.2456124424934, -1670.8788431035355, 0.06400000303983688, 0.5120000243186951, 0.8960000425577164, 0.0, 0.0, 0.0, 0.0, 0.0, 1.763225314404206E9, 0.0, 2025-11-15 11:48:34.404
48.0, 4497.369942965452, 4104.960940114688, 3144.7995949406177, -1666.3442144072615, 0.06400000303983688, 0.5120000243186951, 0.8960000425577164, 0.0, 0.0, 0.0, 0.0, 0.0, 1.763225314404206E9, 0.0, 2025-11-15 11:48:34.404
49.0, 4522.905979862902, 4074.9108439707197, 3083.203442670405, -1697.2507476410829, 0.06400000303983688, 0.5120000243186951, 0.8960000425577164, 0.0, 0.0, 0.0, 0.0, 0.0, 1.7632253144178472E9, 0.0, 2025-11-15 11:48:34.417
49.0, 4760.6177609465085, 4288.391813241411, 3204.219125436619, -1710.4245452350006, 0.06400000303983688, 0.5120000243186951, 0.8960000425577164, 0.0, 0.0, 0.0, 0.0, 0.0, 1.7632253144178472E9, 0.0, 2025-11-15 11:48:34.417
50.0, 4721.677922607865, 4322.004164093174, 3342.204604251776, -1518.4947494589724, 0.06400000303983688, 0.5120000243186951, 0.9120000433176756, 0.0, 0.0, 0.0, 0.0, 0.0, 1.7632253144334905E9, 0.0, 2025-11-15 11:48:34.433
50.0, 4479.60915807588, 4522.681585865561, 3552.4599098106846, -1728.4527329714037, 0.06400000303983688, 0.5120000243186951, 0.9120000433176756, 0.0, 0.0, 0.0, 0.0, 0.0, 1.7632253144334905E9, 0.0, 2025-11-15 11:48:34.433
51.0, 4491.700254632626, 4497.532628613524, 3445.452022328507, -1897.430762719363, 0.06400000303983688, 0.5280000250786543, 0.9120000433176756, 0.0, 0.0, 0.0, 0.0, 0.0, 1.763225314434197E9, 0.0, 2025-11-15 11:48:34.434
51.0, 4569.187241814565, 4632.258784617297, 3614.8171317218803, -1785.1253069499508, 0.06400000303983688, 0.5280000250786543, 0.9120000433176756, 0.0, 0.0, 0.0, 0.0, 0.0, 1.763225314434197E9, 0.0, 2025-11-15 11:48:34.434
52.0, 4453.635552883614, 4525.499600482173, 3561.6619336516596, -1717.1170962057076, 0.06400000303983688, 0.5280000250786543, 0.9120000433176756, 0.0, 0.0, 0.0, 0.0, 0.0, 1.7632253144642367E9, 0.0, 2025-11-15 11:48:34.464
52.0, 4215.884502850473, 4731.586787540466, 3714.1301750452258, -1585.760590062011, 0.06400000303983688, 0.5280000250786543, 0.9120000433176756, 0.0, 0.0, 0.0, 0.0, 0.0, 1.7632253144642367E9, 0.0, 2025-11-15 11:48:34.464
53.0, 4312.246765108779, 4829.216875883751, 3768.7588936979882, -1655.4816749859601, 0.06400000303983688, 0.5280000250786543, 0.9120000433176756, 0.0, 0.0, 0.0, 0.0, 0.0, 1.7632253144649427E9, 0.0, 2025-11-15 11:48:34.464
53.0, 4512.022870991845, 4602.792112866417, 3647.7880897312425, -1650.2289854981937, 0.06400000303983688, 0.5280000250786543, 0.9120000433176756, 0.0, 0.0, 0.0, 0.0, 0.0, 1.7632253144649427E9, 0.0, 2025-11-15 11:48:34.464
54.0, 4531.507749760989, 4574.914898596704, 3582.1304061091505, -1694.9768884680234, 0.06400000303983688, 0.5280000250786543, 0.9120000433176756, 0.0, 0.0, 0.0, 0.0, 0.0, 1.763225314465675E9, 0.0, 2025-11-15 11:48:34.465
54.0, 4739.046018002089, 4758.095198426396, 3676.6264582895674, -1743.6535563413054, 0.06400000303983688, 0.5280000250786543, 0.9120000433176756, 0.0, 0.0, 0.0, 0.0, 0.0, 1.763225314465675E9, 0.0, 2025-11-15 11:48:34.465
55.0, 4751.860785200261, 4831.687079804484, 3853.83600784, -1984.4731942880899, 0.06400000303983688, 0.5280000250786543, 0.9120000433176756, 0.0, 0.0, 0.0, 0.0, 0.0, 1.7632253144778073E9, 0.0, 2025-11-15 11:48:34.477
55.0, 4992.420500100125, 5038.251104107127, 4062.752429214772, -2195.811200884171, 0.06400000303983688, 0.5280000250786543, 0.9120000433176756, 0.0, 0.0, 0.0, 0.0, 0.0, 1.7632253144778073E9, 0.0, 2025-11-15 11:48:34.477
56.0, 4982.552774067037, 4993.10116189206, 3939.9434644198045, -2402.5435206848197, 0.06400000303983688, 0.5280000250786543, 0.9120000433176756, 0.0, 0.0, 0.0, 0.0, 0.0, 1.7632253144934804E9, 0.0, 2025-11-15 11:48:34.493
56.0, 5056.995482685044, 5118.137237110641, 4096.346080566756, -2289.2507313271053, 0.06400000303983688, 0.5280000250786543, 0.9120000433176756, 0.0, 0.0, 0.0, 0.0, 0.0, 1.7632253144934804E9, 0.0, 2025-11-15 11:48:34.493
57.0, 4954.234251602553, 5016.0491880201735, 4053.333491176367, -2204.637364779599, 0.06400000303983688, 0.5280000250786543, 0.9120000433176756, 0.0, 0.0, 0.0, 0.0, 0.0, 1.7632253144941866E9, 0.0, 2025-11-15 11:48:34.494
57.0, 4719.819192329887, 5238.378760586027, 4215.884502850473, -2065.902036023326, 0.06400000303983688, 0.5280000250786543, 0.9120000433176756, 0.0, 0.0, 0.0, 0.0, 0.0, 1.7632253144941866E9, 0.0, 2025-11-15 11:48:34.494
58.0, 4796.000954427291, 5327.552935129497, 4257.251536260359, -2155.971916606184, 0.06400000303983688, 0.5280000250786543, 0.9120000433176756, 0.0, 0.0, 0.0, 0.0, 0.0, 1.7632253145078306E9, 0.0, 2025-11-15 11:48:34.507
58.0, 5006.44699488394, 5099.033828136977, 4141.19496083539, -2136.9975341809914, 0.06400000303983688, 0.5280000250786543, 0.9120000433176756, 0.0, 0.0, 0.0, 0.0, 0.0, 1.7632253145078306E9, 0.0, 2025-11-15 11:48:34.507
59.0, 5045.046502326615, 5095.200430682395, 4097.292275255546, -2170.783790380694, 0.06400000303983688, 0.5280000250786543, 0.9120000433176756, 0.0, 0.0, 0.0, 0.0, 0.0, 1.763225314523244E9, 0.0, 2025-11-15 11:48:34.523
59.0, 5253.029818662442, 5270.497021405492, 4191.952883034013, -2208.218318987172, 0.06400000303983688, 0.5280000250786543, 0.9120000433176756, 0.0, 0.0, 0.0, 0.0, 0.0, 1.763225314523244E9, 0.0, 2025-11-15 11:48:34.523
60.0, 5229.165517045185, 5315.972334916703, 4333.397769308183, -1994.7205201666802, 0.06400000303983688, 0.5280000250786543, 0.8800000417977571, 0.0, 0.0, 0.0, 0.0, 0.0, 1.7632253145385282E9, 0.0, 2025-11-15 11:48:34.538
60.0, 4985.006148437969, 5528.785732045304, 4548.4476266102865, -2203.2797810956836, 0.06400000303983688, 0.5280000250786543, 0.8800000417977571, 0.0, 0.0, 0.0, 0.0, 0.0, 1.7632253145385282E9, 0.0, 2025-11-15 11:48:34.538
61.0, 4986.591866019182, 5491.15672864113, 4427.8938214886, -2397.547014344018, 0.06400000303983688, 0.5440000258386135, 0.8800000417977571, 0.0, 0.0, 0.0, 0.0, 0.0, 1.7632253145392067E9, 0.0, 2025-11-15 11:48:34.539
61.0, 5068.495675048791, 5622.251441787928, 4597.094375283923, -2278.618195753079, 0.06400000303983688, 0.5440000258386135, 0.8800000417977571, 0.0, 0.0, 0.0, 0.0, 0.0, 1.7632253145392067E9, 0.0, 2025-11-15 11:48:34.539
62.0, 4946.017691399902, 5503.401161096059, 4526.17091252422, -2235.4092616150156, 0.06400000303983688, 0.5440000258386135, 0.8800000417977571, 0.0, 0.0, 0.0, 0.0, 0.0, 1.7632253145535681E9, 0.0, 2025-11-15 11:48:34.553
62.0, 4726.5098733506165, 5724.533965676092, 4701.273028449621, -2086.3742483807728, 0.06400000303983688, 0.5440000258386135, 0.8800000417977571, 0.0, 0.0, 0.0, 0.0, 0.0, 1.7632253145535681E9, 0.0, 2025-11-15 11:48:34.553
63.0, 4810.908195650671, 5819.407747752033, 4752.30396334501, -2157.434217488859, 0.06400000303983688, 0.5440000258386135, 0.8800000417977571, 0.0, 0.0, 0.0, 0.0, 0.0, 1.76322531455425E9, 0.0, 2025-11-15 11:48:34.554
63.0, 5017.461000253446, 5585.039437228814, 4620.543548006099, -2157.8007276845165, 0.06400000303983688, 0.5440000258386135, 0.8800000417977571, 0.0, 0.0, 0.0, 0.0, 0.0, 1.76322531455425E9, 0.0, 2025-11-15 11:48:34.554
64.0, 5049.295028676279, 5582.294350661337, 4583.858869340736, -2172.3788577117957, 0.06400000303983688, 0.5440000258386135, 0.8800000417977571, 0.0, 0.0, 0.0, 0.0, 0.0, 1.7632253145678465E9, 0.0, 2025-11-15 11:48:34.567
64.0, 5252.850303464569, 5750.930179563351, 4662.5052255089395, -2250.585775635205, 0.06400000303983688, 0.5440000258386135, 0.8800000417977571, 0.0, 0.0, 0.0, 0.0, 0.0, 1.7632253145678465E9, 0.0, 2025-11-15 11:48:34.567
65.0, 5247.595744026825, 5814.659944758285, 4831.752528053708, -2494.6516467435285, 0.06400000303983688, 0.5440000258386135, 0.8800000417977571, 0.0, 0.0, 0.0, 0.0, 0.0, 1.7632253145835388E9, 0.0, 2025-11-15 11:48:34.583
65.0, 5486.839014142286, 6022.686269943602, 5030.298206851352, -2714.9392339335755, 0.06400000303983688, 0.5440000258386135, 0.8800000417977571, 0.0, 0.0, 0.0, 0.0, 0.0, 1.7632253145835388E9, 0.0, 2025-11-15 11:48:34.583
66.0, 5483.306678634137, 5984.903930641245, 4920.328318604268, -2907.9685602965765, 0.06400000303983688, 0.5440000258386135, 0.8800000417977571, 0.0, 0.0, 0.0, 0.0, 0.0, 1.7632253145842323E9, 0.0, 2025-11-15 11:48:34.584
66.0, 5582.567363358103, 6139.088786114473, 5106.422000499442, -2763.911353903357, 0.06400000303983688, 0.5440000258386135, 0.8800000417977571, 0.0, 0.0, 0.0, 0.0, 0.0, 1.7632253145842323E9, 0.0, 2025-11-15 11:48:34.584
67.0, 5446.614520168863, 6015.716966376174, 5038.482977904379, -2704.273039259948, 0.06400000303983688, 0.5440000258386135, 0.8800000417977571, 0.0, 0.0, 0.0, 0.0, 0.0, 1.7632253146143053E9, 0.0, 2025-11-15 11:48:34.614
67.0, 5208.33614424197, 6227.84035196295, 5192.671573277563, -2584.5887608779594, 0.06400000303983688, 0.5440000258386135, 0.8800000417977571, 0.0, 0.0, 0.0, 0.0, 0.0, 1.7632253146143053E9, 0.0, 2025-11-15 11:48:34.614
68.0, 5314.7774368808605, 6332.9427604177035, 5257.214766712859, -2642.532900841441, 0.06400000303983688, 0.5440000258386135, 0.8800000417977571, 0.0, 0.0, 0.0, 0.0, 0.0, 1.7632253146149156E9, 0.0, 2025-11-15 11:48:34.614
68.0, 5503.333842896856, 6096.431487219874, 5130.592973913066, -2635.8328700708225, 0.06400000303983688, 0.5440000258386135, 0.8800000417977571, 0.0, 0.0, 0.0, 0.0, 0.0, 1.7632253146149156E9, 0.0, 2025-11-15 11:48:34.614
69.0, 5543.605085619725, 6078.442568433005, 5070.840592321008, -2675.071900405921, 0.06400000303983688, 0.5440000258386135, 0.8800000417977571, 0.0, 0.0, 0.0, 0.0, 0.0, 1.763225314615651E9, 0.0, 2025-11-15 11:48:34.615
69.0, 5752.6243542432785, 6268.36216798285, 5173.87109620031, -2704.3160481094383, 0.06400000303983688, 0.5440000258386135, 0.8800000417977571, 0.0, 0.0, 0.0, 0.0, 0.0, 1.763225314615651E9, 0.0, 2025-11-15 11:48:34.615
70.0, 5740.548217286356, 6322.603806990199, 5332.575620769989, -2490.3694612942636, 0.06400000303983688, 0.5440000258386135, 0.8800000417977571, 0.0, 0.0, 0.0, 0.0, 0.0, 1.7632253146278627E9, 0.0, 2025-11-15 11:48:34.627
70.0, 5501.224539321847, 6532.597319552209, 5542.389618134126, -2686.385097771883, 0.06400000303983688, 0.5440000258386135, 0.8800000417977571, 0.0, 0.0, 0.0, 0.0, 0.0, 1.7632253146278627E9, 0.0, 2025-11-15 11:48:34.627
71.0, 5499.319060294423, 6498.65211760439, 5432.266393988859, -2883.2777407891117, 0.06400000303983688, 0.5440000258386135, 0.8800000417977571, 0.0, 0.0, 0.0, 0.0, 0.0, 1.763225314643525E9, 0.0, 2025-11-15 11:48:34.643
71.0, 5573.806647711899, 6627.798342874274, 5590.636197512504, -2769.6558402352966, 0.06400000303983688, 0.5440000258386135, 0.8800000417977571, 0.0, 0.0, 0.0, 0.0, 0.0, 1.763225314643525E9, 0.0, 2025-11-15 11:48:34.643
72.0, 5459.223592869472, 6519.722713954747, 5540.7459321036, -2703.450261269696, 0.06400000303983688, 0.5440000258386135, 0.8800000417977571, 0.0, 0.0, 0.0, 0.0, 0.0, 1.7632253146442432E9, 0.0, 2025-11-15 11:48:34.644
72.0, 5701.337236200925, 6721.550154963508, 5689.365816442762, -2580.74414372351, 0.06400000303983688, 0.5440000258386135, 0.8800000417977571, 0.0, 0.0, 0.0, 0.0, 0.0, 1.7632253146442432E9, 0.0, 2025-11-15 11:48:34.644
73.0, 5783.686093325261, 6806.6590582551435, 5734.842999903951, -2661.613870415371, 0.06400000303983688, 0.5440000258386135, 0.8800000417977571, 0.0, 0.0, 0.0, 0.0, 0.0, 1.76322531465785E9, 0.0, 2025-11-15 11:48:34.657
73.0, 6004.45799755957, 6594.101844273508, 5623.304223625455, -2635.6757942726836, 0.06400000303983688, 0.5440000258386135, 0.8800000417977571, 0.0, 0.0, 0.0, 0.0, 0.0, 1.76322531465785E9, 0.0, 2025-11-15 11:48:34.657
74.0, 6043.1397828012705, 6576.075526487082, 5572.146132131573, -2658.7734163990244, 0.06400000303983688, 0.5440000258386135, 0.8800000417977571, 0.0, 0.0, 0.0, 0.0, 0.0, 1.7632253146735327E9, 0.0, 2025-11-15 11:48:34.673
74.0, 6236.290655912831, 6748.054825949483, 5653.301961170044, -2721.792600602377, 0.06400000303983688, 0.5440000258386135, 0.8800000417977571, 0.0, 0.0, 0.0, 0.0, 0.0, 1.7632253146735327E9, 0.0, 2025-11-15 11:48:34.673
75.0, 6210.42550781928, 6800.624729676638, 5818.09130296763, -2481.3600423010066, 0.06400000303983688, 0.5440000258386135, 0.8800000417977571, 0.0, 0.0, 0.0, 0.0, 0.0, 1.763225314674232E9, 0.0, 2025-11-15 11:48:34.674
75.0, 5965.832310817204, 7013.47178590484, 6026.854388444219, -2680.887444837019, 0.06400000303983688, 0.5440000258386135, 0.8800000417977571, 0.0, 0.0, 0.0, 0.0, 0.0, 1.763225314674232E9, 0.0, 2025-11-15 11:48:34.674
76.0, 5980.010271549225, 6974.376741718035, 5909.453318985179, -2906.6895145117305, 0.06400000303983688, 0.5440000258386135, 0.8800000417977571, 0.0, 0.0, 0.0, 0.0, 0.0, 1.7632253147041855E9, 0.0, 2025-11-15 11:48:34.704
76.0, 6066.20374582801, 7108.553132428322, 6074.6895788274705, -2776.226844457444, 0.06400000303983688, 0.5440000258386135, 0.8800000417977571, 0.0, 0.0, 0.0, 0.0, 0.0, 1.7632253147041855E9, 0.0, 2025-11-15 11:48:34.704
77.0, 5932.801514408551, 7000.114733213093, 6024.877851317637, -2695.8807037593797, 0.06400000303983688, 0.5440000258386135, 0.8800000417977571, 0.0, 0.0, 0.0, 0.0, 0.0, 1.76322531470489E9, 0.0, 2025-11-15 11:48:34.704
77.0, 5715.653573231306, 7215.7536247582175, 6184.111571731046, -2572.0937551259995, 0.06400000303983688, 0.5440000258386135, 0.8800000417977571, 0.0, 0.0, 0.0, 0.0, 0.0, 1.76322531470489E9, 0.0, 2025-11-15 11:48:34.704
78.0, 5777.406801299658, 7291.000411866698, 6217.628555133939, -2664.602050479967, 0.06400000303983688, 0.5440000258386135, 0.8800000417977571, 0.0, 0.0, 0.0, 0.0, 0.0, 1.7632253147056181E9, 0.0, 2025-11-15 11:48:34.705
78.0, 5993.83668168541, 7068.53620290244, 6105.382937763818, -2641.8167099999264, 0.06400000303983688, 0.5440000258386135, 0.8800000417977571, 0.0, 0.0, 0.0, 0.0, 0.0, 1.7632253147056181E9, 0.0, 2025-11-15 11:48:34.705
79.0, 6061.031464189291, 7084.883305608761, 6078.982983976603, -2645.960519150831, 0.06400000303983688, 0.5440000258386135, 0.8800000417977571, 0.0, 0.0, 0.0, 0.0, 0.0, 1.7632253147342403E9, 0.0, 2025-11-15 11:48:34.734
79.0, 6244.967223810032, 7245.807460802142, 6152.378520607017, -2709.0507614533417, 0.06400000303983688, 0.5440000258386135, 0.8800000417977571, 0.0, 0.0, 0.0, 0.0, 0.0, 1.7632253147342403E9, 0.0, 2025-11-15 11:48:34.734
80.0, 6222.75595797319, 7298.089392232709, 6325.728493403178, -2944.8626733594574, 0.06400000303983688, 0.5440000258386135, 0.8640000410377979, 0.0, 0.0, 0.0, 0.0, 0.0, 1.7632253147349262E9, 0.0, 2025-11-15 11:48:34.734
80.0, 5979.337089557201, 7508.228760892991, 6521.39444923494, -3177.0057434090413, 0.06400000303983688, 0.5440000258386135, 0.8640000410377979, 0.0, 0.0, 0.0, 0.0, 0.0, 1.7632253147349262E9, 0.0, 2025-11-15 11:48:34.734
81.0, 5971.780621696729, 7464.3578644627705, 6392.182775715832, -3391.6105526164174, 0.06400000303983688, 0.5440000258386135, 0.8640000410377979, 0.0, 0.0, 0.0, 0.0, 0.0, 1.7632253147356658E9, 0.0, 2025-11-15 11:48:34.735
81.0, 6047.1433457038365, 7592.191384848207, 6562.112610002514, -3262.9131153412163, 0.06400000303983688, 0.5440000258386135, 0.8640000410377979, 0.0, 0.0, 0.0, 0.0, 0.0, 1.7632253147356658E9, 0.0, 2025-11-15 11:48:34.735
82.0, 5942.94599303836, 7487.605082587339, 6511.534203001764, -3176.975824209396, 0.06400000303983688, 0.5440000258386135, 0.8640000410377979, 0.0, 0.0, 0.0, 0.0, 0.0, 1.7632253147478366E9, 0.0, 2025-11-15 11:48:34.747
82.0, 5699.558913771994, 7697.963235395029, 6661.059143130202, -3074.371668925043, 0.06400000303983688, 0.5440000258386135, 0.8640000410377979, 0.0, 0.0, 0.0, 0.0, 0.0, 1.7632253147478366E9, 0.0, 2025-11-15 11:48:34.747
83.0, 5790.591818593442, 7795.095917044207, 6712.179835624527, -3140.203257895075, 0.06400000303983688, 0.5440000258386135, 0.8640000410377979, 0.0, 0.0, 0.0, 0.0, 0.0, 1.763225314763338E9, 0.0, 2025-11-15 11:48:34.763
83.0, 6003.371556622442, 7567.422027441673, 6603.363706513774, -3119.239248693455, 0.06400000303983688, 0.5440000258386135, 0.8640000410377979, 0.0, 0.0, 0.0, 0.0, 0.0, 1.763225314763338E9, 0.0, 2025-11-15 11:48:34.763
84.0, 6026.903007143643, 7548.292439168319, 6547.912209870759, -3151.35750951292, 0.06400000303983688, 0.5440000258386135, 0.8640000410377979, 0.0, 0.0, 0.0, 0.0, 0.0, 1.7632253147785473E9, 0.0, 2025-11-15 11:48:34.778
84.0, 6234.216881387401, 7724.209853284061, 6626.472548339982, -3219.597594054416, 0.06400000303983688, 0.5440000258386135, 0.8640000410377979, 0.0, 0.0, 0.0, 0.0, 0.0, 1.7632253147785473E9, 0.0, 2025-11-15 11:48:34.778
85.0, 6221.179590141866, 7783.986544225831, 6798.195664655417, -3453.367520584725, 0.06400000303983688, 0.5440000258386135, 0.8640000410377979, 0.0, 0.0, 0.0, 0.0, 0.0, 1.7632253147792544E9, 0.0, 2025-11-15 11:48:34.779
85.0, 5979.204323108774, 7992.596293804236, 6999.370493121911, -3671.9235340952873, 0.06400000303983688, 0.5440000258386135, 0.8640000410377979, 0.0, 0.0, 0.0, 0.0, 0.0, 1.7632253147792544E9, 0.0, 2025-11-15 11:48:34.779
86.0, 5963.408855645917, 7946.163565904368, 6881.243883071467, -3877.4815253098495, 0.06400000303983688, 0.5440000258386135, 0.8640000410377979, 0.0, 0.0, 0.0, 0.0, 0.0, 1.7632253147935262E9, 0.0, 2025-11-15 11:48:34.793
86.0, 6055.702106752433, 8086.103142446373, 7052.456503042951, -3753.133591683116, 0.06400000303983688, 0.5440000258386135, 0.8640000410377979, 0.0, 0.0, 0.0, 0.0, 0.0, 1.7632253147935262E9, 0.0, 2025-11-15 11:48:34.793
87.0, 5938.564700240269, 7977.922796328086, 7008.464059864171, -3666.5044190594926, 0.06400000303983688, 0.5440000258386135, 0.8640000410377979, 0.0, 0.0, 0.0, 0.0, 0.0, 1.763225314794245E9, 0.0, 2025-11-15 11:48:34.794
87.0, 5721.760829858948, 8199.504388902802, 7167.518265079707, -3542.466897129081, 0.06400000303983688, 0.5440000258386135, 0.8640000410377979, 0.0, 0.0, 0.0, 0.0, 0.0, 1.763225314794245E9, 0.0, 2025-11-15 11:48:34.794
88.0, 5779.056097180117, 8277.675777776632, 7203.290408155881, -3627.592629970517, 0.06400000303983688, 0.5440000258386135, 0.8640000410377979, 0.0, 0.0, 0.0, 0.0, 0.0, 1.763225314807803E9, 0.0, 2025-11-15 11:48:34.807
88.0, 5985.78467708081, 8048.098279096652, 7086.770085136406, -3624.1837111609057, 0.06400000303983688, 0.5440000258386135, 0.8640000410377979, 0.0, 0.0, 0.0, 0.0, 0.0, 1.763225314807803E9, 0.0, 2025-11-15 11:48:34.807
89.0, 6033.666616213508, 8040.031314892229, 7039.95401749108, -3642.741094741039, 0.06400000303983688, 0.5440000258386135, 0.8640000410377979, 0.0, 0.0, 0.0, 0.0, 0.0, 1.7632253148235812E9, 0.0, 2025-11-15 11:48:34.823
89.0, 6224.192079556175, 8210.82132616872, 7114.957711102441, -3717.9560926998965, 0.06400000303983688, 0.5440000258386135, 0.8640000410377979, 0.0, 0.0, 0.0, 0.0, 0.0, 1.7632253148235812E9, 0.0, 2025-11-15 11:48:34.823
90.0, 6217.763191532344, 8266.136316463351, 7285.783251428511, -3954.4524062979035, 0.06400000303983688, 0.5440000258386135, 0.8800000417977571, 0.0, 0.0, 0.0, 0.0, 0.0, 1.7632253148242471E9, 0.0, 2025-11-15 11:48:34.824
90.0, 6461.961829089094, 8480.980479267891, 7492.781104126014, -4160.423656457569, 0.06400000303983688, 0.5440000258386135, 0.8800000417977571, 0.0, 0.0, 0.0, 0.0, 0.0, 1.7632253148242471E9, 0.0, 2025-11-15 11:48:34.824
91.0, 6460.400420857593, 8440.628828695975, 7375.6530473637395, -4371.2848258093, 0.06400000303983688, 0.5440000258386135, 0.8800000417977571, 0.0, 0.0, 0.0, 0.0, 0.0, 1.7632253148378274E9, 0.0, 2025-11-15 11:48:34.837
91.0, 6533.377088692971, 8570.358478358947, 7544.157979767304, -4246.52550318744, 0.06400000303983688, 0.5440000258386135, 0.8800000417977571, 0.0, 0.0, 0.0, 0.0, 0.0, 1.7632253148378274E9, 0.0, 2025-11-15 11:48:34.837
92.0, 6421.314726420678, 8471.643819028512, 7502.087845165748, -4154.106965432409, 0.0800000037997961, 0.5440000258386135, 0.8800000417977571, 0.0, 0.0, 0.0, 0.0, 0.0, 1.7632253148535428E9, 0.0, 2025-11-15 11:48:34.853
92.0, 6194.899313153233, 8683.29597722087, 7657.862158120144, -4020.8805093108676, 0.0800000037997961, 0.5440000258386135, 0.8800000417977571, 0.0, 0.0, 0.0, 0.0, 0.0, 1.7632253148535428E9, 0.0, 2025-11-15 11:48:34.853
93.0, 6277.147192978766, 8772.22705826722, 7699.943512421567, -4129.421755774878, 0.0800000037997961, 0.5440000258386135, 0.8800000417977571, 0.0, 0.0, 0.0, 0.0, 0.0, 1.7632253148542404E9, 0.0, 2025-11-15 11:48:34.854
93.0, 6481.06336811278, 8535.487651172094, 7578.385544161778, -4111.3000705395825, 0.0800000037997961, 0.5440000258386135, 0.8800000417977571, 0.0, 0.0, 0.0, 0.0, 0.0, 1.7632253148542404E9, 0.0, 2025-11-15 11:48:34.854
94.0, 6516.435341893695, 8519.293884363957, 7522.384282225277, -4142.068227475043, 0.0800000037997961, 0.5440000258386135, 0.8800000417977571, 0.0, 0.0, 0.0, 0.0, 0.0, 1.76322531486782E9, 0.0, 2025-11-15 11:48:34.867
94.0, 6706.1642065458, 8689.55282984674, 7603.240919267293, -4198.965195450932, 0.0800000037997961, 0.5440000258386135, 0.8800000417977571, 0.0, 0.0, 0.0, 0.0, 0.0, 1.76322531486782E9, 0.0, 2025-11-15 11:48:34.867
95.0, 6716.278765975963, 8770.108404942323, 7794.2394799543545, -4433.97676876653, 0.0800000037997961, 0.5440000258386135, 0.8800000417977571, 0.0, 0.0, 0.0, 0.0, 0.0, 1.7632253148836355E9, 0.0, 2025-11-15 11:48:34.883
95.0, 6943.0158106395975, 8978.13473012764, 7992.4186485563405, -4645.5354294599965, 0.0800000037997961, 0.5440000258386135, 0.8800000417977571, 0.0, 0.0, 0.0, 0.0, 0.0, 1.7632253148836355E9, 0.0, 2025-11-15 11:48:34.883
96.0, 6944.235018025152, 8934.117977599148, 7879.509198944084, -4838.38898052508, 0.0800000037997961, 0.5440000258386135, 0.8800000417977571, 0.0, 0.0, 0.0, 0.0, 0.0, 1.7632253148842623E9, 0.0, 2025-11-15 11:48:34.884
96.0, 7039.606206795201, 9078.76234828541, 8048.896747737192, -4722.908349693287, 0.0800000037997961, 0.5440000258386135, 0.8800000417977571, 0.0, 0.0, 0.0, 0.0, 0.0, 1.7632253148842623E9, 0.0, 2025-11-15 11:48:34.884
97.0, 6927.95897341799, 8964.089535844047, 7992.341980607249, -4649.776476009749, 0.0800000037997961, 0.5440000258386135, 0.8800000417977571, 0.0, 0.0, 0.0, 0.0, 0.0, 1.7632253148978536E9, 0.0, 2025-11-15 11:48:34.897
97.0, 7171.011331638321, 9162.0013015992, 8139.454685264267, -4528.828111442737, 0.0800000037997961, 0.5440000258386135, 0.8800000417977571, 0.0, 0.0, 0.0, 0.0, 0.0, 1.7632253148978536E9, 0.0, 2025-11-15 11:48:34.897
98.0, 7243.606529678218, 9252.82477202313, 8184.913169225678, -4618.307087832596, 0.0800000037997961, 0.5440000258386135, 0.8800000417977571, 0.0, 0.0, 0.0, 0.0, 0.0, 1.7632253149135396E9, 0.0, 2025-11-15 11:48:34.913
98.0, 7483.2574488888495, 9045.054629984777, 8086.086312896572, -4578.329427256249, 0.0800000037997961, 0.5440000258386135, 0.8800000417977571, 0.0, 0.0, 0.0, 0.0, 0.0, 1.7632253149135396E9, 0.0, 2025-11-15 11:48:34.913
99.0, 7498.475101808552, 9008.878577713389, 8016.516693920828, -4631.7501582233235, 0.0800000037997961, 0.5440000258386135, 0.8800000417977571, 0.0, 0.0, 0.0, 0.0, 0.0, 1.7632253149142387E9, 0.0, 2025-11-15 11:48:34.914
99.0, 7678.715840273071, 9175.760393536184, 8093.6184714073315, -4686.885633320082, 0.0800000037997961, 0.5440000258386135, 0.8800000417977571, 0.0, 0.0, 0.0, 0.0, 0.0, 1.7632253149142387E9, 0.0, 2025-11-15 11:48:34.914
100.0, 7691.70638276916, 9259.655699292198, 8279.06702056015, -4930.181085037533, 0.0800000037997961, 0.5440000258386135, 0.8800000417977571, 0.0, 0.0, 0.0, 0.0, 0.0, 1.7632253149285638E9, 0.0, 2025-11-15 11:48:34.928
100.0, 7936.185512822587, 9476.500708573032, 8492.766773978248, -5136.006479098927, 0.0800000037997961, 0.5440000258386135, 0.8800000417977571, 0.0, 0.0, 0.0, 0.0, 0.0, 1.7632253149285638E9, 0.0, 2025-11-15 11:48:34.928
0.0, 94.46239308081567, 124.08240072987974, 40.432058420963585, 51.530211539473385, 0.0800000037997961, 0.5440000258386135, 0.8800000417977571, 0.0, 0.0, 0.0, 0.0, 0.0, 1.7632253149292493E9, 0.0, 2025-11-15 11:48:34.929
1.0, 166.01415903307498, 246.36964948102832, 201.4646707130596, 173.11809899890795, 0.0800000037997961, 0.5440000258386135, 0.8800000417977571, 0.0, 0.0, 0.0, 0.0, 0.0, 1.7632253149429152E9, 0.0, 2025-11-15 11:48:34.942
1.0, 70.25028076767921, 157.6255634324625, 169.6755210896954, 274.62833354622126, 0.0800000037997961, 0.5440000258386135, 0.8800000417977571, 0.0, 0.0, 0.0, 0.0, 0.0, 1.7632253149429152E9, 0.0, 2025-11-15 11:48:34.942
2.0, -163.86184660857543, 361.4949898170307, 324.9337278502062, 401.5156592428684, 0.0800000037997961, 0.5440000258386135, 0.8800000417977571, 0.0, 0.0, 0.0, 0.0, 0.0, 1.7632253149585412E9, 0.0, 2025-11-15 11:48:34.958
2.0, -99.27003447385505, 438.7314037019387, 354.37048040144145, 301.3181295800023, 0.0800000037997961, 0.5440000258386135, 0.8800000417977571, 0.0, 0.0, 0.0, 0.0, 0.0, 1.7632253149585412E9, 0.0, 2025-11-15 11:48:34.958
3.0, 127.81108098570257, 233.97188112791628, 255.3080103751272, 336.1945666167885, 0.0800000037997961, 0.5440000258386135, 0.8800000417977571, 0.0, 0.0, 0.0, 0.0, 0.0, 1.7632253149592383E9, 0.0, 2025-11-15 11:48:34.959
3.0, 150.407556517981, 212.7703882791102, 202.4295649016276, 301.56683292705566, 0.0800000037997961, 0.5440000258386135, 0.8800000417977571, 0.0, 0.0, 0.0, 0.0, 0.0, 1.7632253149592383E9, 0.0, 2025-11-15 11:48:34.959
4.0, 363.0620078984648, 399.09594397153705, 305.3029929827899, 280.64770252490416, 0.0800000037997961, 0.5440000258386135, 0.8800000417977571, 0.0, 0.0, 0.0, 0.0, 0.0, 1.7632253149728684E9, 0.0, 2025-11-15 11:48:34.972
4.0, 359.5839009396732, 459.9459862005897, 472.5793682509102, 504.1946125263348, 0.0800000037997961, 0.5440000258386135, 0.8800000417977571, 0.0, 0.0, 0.0, 0.0, 0.0, 1.7632253149728684E9, 0.0, 2025-11-15 11:48:34.972
5.0, 580.4792218725197, 665.3282021172345, 666.9550585979596, 269.542069606483, 0.0800000037997961, 0.5440000258386135, 0.8800000417977571, 0.0, 0.0, 0.0, 0.0, 0.0, 1.7632253149885504E9, 0.0, 2025-11-15 11:48:34.988
5.0, 576.4494796702638, 617.7024461315013, 555.6500260666944, 87.78106180997565, 0.0800000037997961, 0.5440000258386135, 0.8800000417977571, 0.0, 0.0, 0.0, 0.0, 0.0, 1.7632253149885504E9, 0.0, 2025-11-15 11:48:34.988
6.0, 656.5880559207872, 737.5363205117173, 714.4760973849334, 205.79360491177067, 0.0800000037997961, 0.5440000258386135, 0.8800000417977571, 0.0, 0.0, 0.0, 0.0, 0.0, 1.763225314989238E9, 0.0, 2025-11-15 11:48:34.989
6.0, 555.8650703141466, 643.3656396274455, 668.8493179255165, 292.00390874035656, 0.0800000037997961, 0.5440000258386135, 0.8800000417977571, 0.0, 0.0, 0.0, 0.0, 0.0, 1.763225314989238E9, 0.0, 2025-11-15 11:48:34.989
7.0, 791.1197371268645, 844.699413842056, 819.4962280406617, 413.02333140652627, 0.0800000037997961, 0.5440000258386135, 0.8800000417977571, 0.0, 0.0, 0.0, 0.0, 0.0, 1.7632253150028937E9, 0.0, 2025-11-15 11:48:35.002
7.0, 856.3174130544066, 916.0716645964421, 845.7091868300922, 314.9089260189794, 0.0800000037997961, 0.5440000258386135, 0.8800000417977571, 0.0, 0.0, 0.0, 0.0, 0.0, 1.7632253150028937E9, 0.0, 2025-11-15 11:48:35.002
8.0, 1086.6597212753259, 702.7328115240671, 732.9923420655541, 335.02397793065757, 0.0800000037997961, 0.5440000258386135, 0.8800000417977571, 0.0, 0.0, 0.0, 0.0, 0.0, 1.763225315018581E9, 0.0, 2025-11-15 11:48:35.018
8.0, 1145.0732186832465, 701.2555510415696, 697.848502181936, 331.8151437686756, 0.0800000037997961, 0.5440000258386135, 0.8800000417977571, 0.0, 0.0, 0.0, 0.0, 0.0, 1.763225315018581E9, 0.0, 2025-11-15 11:48:35.018
9.0, 1357.043268371839, 875.2132575805299, 793.0850545535795, 302.80660976236686, 0.0800000037997961, 0.5440000258386135, 0.8800000417977571, 0.0, 0.0, 0.0, 0.0, 0.0, 1.7632253150192423E9, 0.0, 2025-11-15 11:48:35.019
9.0, 1288.0009752898477, 924.2713952492923, 937.4695021929219, 472.9701877962798, 0.0800000037997961, 0.5440000258386135, 0.8800000417977571, 0.0, 0.0, 0.0, 0.0, 0.0, 1.7632253150192423E9, 0.0, 2025-11-15 11:48:35.019
10.0, 1531.4254535557702, 1121.1902175662108, 1131.0111948498525, 253.58017659559846, 0.0800000037997961, 0.5440000258386135, 0.8800000417977571, 0.0, 0.0, 0.0, 0.0, 0.0, 1.7632253150329208E9, 0.0, 2025-11-15 11:48:35.032
10.0, 1521.0304016289301, 1076.8069548420608, 1014.0626532854512, 74.14912647148594, 0.0800000037997961, 0.5440000258386135, 0.8800000417977571, 0.0, 0.0, 0.0, 0.0, 0.0, 1.7632253150329208E9, 0.0, 2025-11-15 11:48:35.032
11.0, 1605.0435142335482, 1201.8018911611289, 1180.7499943105504, 194.06527865072712, 0.0800000037997961, 0.5440000258386135, 0.8800000417977571, 0.0, 0.0, 0.0, 0.0, 0.0, 1.7632253150485525E9, 0.0, 2025-11-15 11:48:35.048
11.0, 1501.904553255532, 1101.1088247541338, 1117.4634072603658, 239.64156946074218, 0.0800000037997961, 0.5440000258386135, 0.8800000417977571, 0.0, 0.0, 0.0, 0.0, 0.0, 1.7632253150485525E9, 0.0, 2025-11-15 11:48:35.048
12.0, 1288.6984666315839, 1310.8798132687807, 1273.6528491098434, 365.71359696704894, 0.06400000303983688, 0.5440000258386135, 0.8800000417977571, 0.0, 0.0, 0.0, 0.0, 0.0, 1.763225315049245E9, 0.0, 2025-11-15 11:48:35.049
12.0, 1338.783206838183, 1393.804614986293, 1317.5143957901746, 294.350695962552, 0.06400000303983688, 0.5440000258386135, 0.8800000417977571, 0.0, 0.0, 0.0, 0.0, 0.0, 1.763225315049245E9, 0.0, 2025-11-15 11:48:35.049
13.0, 1556.163021812681, 1172.3987977094948, 1191.3862697845325, 307.39359705802053, 0.06400000303983688, 0.5440000258386135, 0.8800000417977571, 0.0, 0.0, 0.0, 0.0, 0.0, 1.7632253150628903E9, 0.0, 2025-11-15 11:48:35.062
13.0, 1616.6858227956109, 1163.4940959149972, 1154.9484245162457, 292.75562863145024, 0.06400000303983688, 0.5440000258386135, 0.8800000417977571, 0.0, 0.0, 0.0, 0.0, 0.0, 1.7632253150628903E9, 0.0, 2025-11-15 11:48:35.062
14.0, 1818.868554300163, 1344.9877008646727, 1249.197643299587, 249.08668679883704, 0.06400000303983688, 0.5440000258386135, 0.8800000417977571, 0.0, 0.0, 0.0, 0.0, 0.0, 1.7632253150942533E9, 0.0, 2025-11-15 11:48:35.094
14.0, 1832.5995969874784, 1388.9782740934752, 1388.450948199723, 455.0373675087467, 0.06400000303983688, 0.5440000258386135, 0.8800000417977571, 0.0, 0.0, 0.0, 0.0, 0.0, 1.7632253150942533E9, 0.0, 2025-11-15 11:48:35.094
15.0, 1971.2919168942608, 1577.523460409604, 1587.1911017950624, 237.80901848245412, 0.06400000303983688, 0.5440000258386135, 0.8800000417977571, 0.0, 0.0, 0.0, 0.0, 0.0, 1.763225315094952E9, 0.0, 2025-11-15 11:48:35.094
15.0, 2010.86005842546, 1559.1811210769229, 1494.581829142291, 58.8604154526256, 0.06400000303983688, 0.5440000258386135, 0.8800000417977571, 0.0, 0.0, 0.0, 0.0, 0.0, 1.763225315094952E9, 0.0, 2025-11-15 11:48:35.094
16.0, 2114.1037366022356, 1697.067492543254, 1663.9581582355313, 185.9571755467914, 0.06400000303983688, 0.5440000258386135, 0.8800000417977571, 0.0, 0.0, 0.0, 0.0, 0.0, 1.7632253150957017E9, 0.0, 2025-11-15 11:48:35.095
16.0, 1987.1752720060758, 1579.9525254308246, 1594.867246454116, 225.63938402663916, 0.06400000303983688, 0.5440000258386135, 0.8800000417977571, 0.0, 0.0, 0.0, 0.0, 0.0, 1.7632253150957017E9, 0.0, 2025-11-15 11:48:35.095
17.0, 1767.7609514556825, 1806.1828136504628, 1773.5746259368025, 380.3328658938408, 0.06400000303983688, 0.5440000258386135, 0.8800000417977571, 0.0, 0.0, 0.0, 0.0, 0.0, 1.7632253151085532E9, 0.0, 2025-11-15 11:48:35.108
17.0, 1848.5914091980085, 1892.858735023532, 1817.7727636131458, 307.8031161031686, 0.06400000303983688, 0.5440000258386135, 0.8800000417977571, 0.0, 0.0, 0.0, 0.0, 0.0, 1.7632253151085532E9, 0.0, 2025-11-15 11:48:35.108
18.0, 2075.373332661111, 1675.6827445966192, 1698.1258842307143, 319.13314301893115, 0.06400000303983688, 0.5440000258386135, 0.8800000417977571, 0.0, 0.0, 0.0, 0.0, 0.0, 1.763225315109265E9, 0.0, 2025-11-15 11:48:35.109
18.0, 2091.95604906464, 1646.7770578390919, 1633.0927639012225, 266.69974564015865, 0.06400000303983688, 0.5440000258386135, 0.8800000417977571, 0.0, 0.0, 0.0, 0.0, 0.0, 1.763225315109265E9, 0.0, 2025-11-15 11:48:35.109
19.0, 2283.356648996938, 1823.2479771482758, 1732.9630523179658, 246.7604690263979, 0.06400000303983688, 0.5440000258386135, 0.8800000417977571, 0.0, 0.0, 0.0, 0.0, 0.0, 1.7632253151229253E9, 0.0, 2025-11-15 11:48:35.122
19.0, 2286.941343104467, 1889.8724249089137, 1891.9667688841, 460.57241944316775, 0.06400000303983688, 0.5440000258386135, 0.8800000417977571, 0.0, 0.0, 0.0, 0.0, 0.0, 1.7632253151229253E9, 0.0, 2025-11-15 11:48:35.122
20.0, 2511.4755866941996, 2080.452116800938, 2082.93167047156, 218.2568215141073, 0.06400000303983688, 0.5440000258386135, 0.8800000417977571, 0.0, 0.0, 0.0, 0.0, 0.0, 1.7632253151385949E9, 0.0, 2025-11-15 11:48:35.138
20.0, 2519.8978413944133, 2054.6561568565667, 1986.0925709689036, 59.65701414318755, 0.06400000303983688, 0.5440000258386135, 0.8800000417977571, 0.0, 0.0, 0.0, 0.0, 0.0, 1.7632253151385949E9, 0.0, 2025-11-15 11:48:35.138
21.0, 2622.3524006805383, 2193.036195117049, 2157.2790116406977, 185.72530174953863, 0.06400000303983688, 0.5600000265985727, 0.8800000417977571, 0.0, 0.0, 0.0, 0.0, 0.0, 1.7632253151392772E9, 0.0, 2025-11-15 11:48:35.139
21.0, 2529.7001191782765, 2091.378234521486, 2086.0750563843176, 224.71562873758376, 0.06400000303983688, 0.5600000265985727, 0.8800000417977571, 0.0, 0.0, 0.0, 0.0, 0.0, 1.7632253151392772E9, 0.0, 2025-11-15 11:48:35.139
22.0, 2767.288483563345, 2295.202782106586, 2258.2263912446797, 378.97154230996966, 0.06400000303983688, 0.5600000265985727, 0.8800000417977571, 0.0, 0.0, 0.0, 0.0, 0.0, 1.7632253151528208E9, 0.0, 2025-11-15 11:48:35.152
22.0, 2791.30238117883, 2371.3695846041664, 2298.950161862187, 298.88719460880384, 0.06400000303983688, 0.5600000265985727, 0.8800000417977571, 0.0, 0.0, 0.0, 0.0, 0.0, 1.7632253151528208E9, 0.0, 2025-11-15 11:48:35.152
23.0, 2560.53559431294, 2166.5427438309416, 2182.407399442978, 299.41639045253396, 0.06400000303983688, 0.5600000265985727, 0.8800000417977571, 0.0, 0.0, 0.0, 0.0, 0.0, 1.7632253151685789E9, 0.0, 2025-11-15 11:48:35.168
23.0, 2572.316279173363, 2135.1724630026147, 2130.030100563541, 269.9796379012987, 0.06400000303983688, 0.5600000265985727, 0.8800000417977571, 0.0, 0.0, 0.0, 0.0, 0.0, 1.7632253151685789E9, 0.0, 2025-11-15 11:48:35.168
24.0, 2785.064228052739, 2322.9827589774504, 2231.583343960345, 263.78449362469837, 0.06400000303983688, 0.5600000265985727, 0.8800000417977571, 0.0, 0.0, 0.0, 0.0, 0.0, 1.763225315169273E9, 0.0, 2025-11-15 11:48:35.169
24.0, 2802.336955998093, 2392.1241594082676, 2391.7875684122555, 442.4974829573184, 0.06400000303983688, 0.5600000265985727, 0.8800000417977571, 0.0, 0.0, 0.0, 0.0, 0.0, 1.763225315169273E9, 0.0, 2025-11-15 11:48:35.169
25.0, 3013.792769442778, 2586.4325315561146, 2579.771769735031, 226.4023236175999, 0.06400000303983688, 0.5600000265985727, 0.8800000417977571, 0.0, 0.0, 0.0, 0.0, 0.0, 1.7632253151828516E9, 0.0, 2025-11-15 11:48:35.182
25.0, 3010.776540128514, 2545.1945246947, 2478.616825683508, 56.02183138625696, 0.06400000303983688, 0.5600000265985727, 0.8800000417977571, 0.0, 0.0, 0.0, 0.0, 0.0, 1.7632253151828516E9, 0.0, 2025-11-15 11:48:35.182
26.0, 3095.1150240292773, 2674.000419068616, 2638.250715392176, 173.660384492483, 0.06400000303983688, 0.5600000265985727, 0.8800000417977571, 0.0, 0.0, 0.0, 0.0, 0.0, 1.763225315198593E9, 0.0, 2025-11-15 11:48:35.198
26.0, 2988.0716074975207, 2572.5257135708816, 2590.8848824533634, 232.24404734838754, 0.06400000303983688, 0.5600000265985727, 0.8800000417977571, 0.0, 0.0, 0.0, 0.0, 0.0, 1.763225315198593E9, 0.0, 2025-11-15 11:48:35.198
27.0, 2743.9103689403273, 2776.477417754475, 2743.6560557433404, 373.0625003799796, 0.06400000303983688, 0.5600000265985727, 0.8800000417977571, 0.0, 0.0, 0.0, 0.0, 0.0, 1.7632253151992867E9, 0.0, 2025-11-15 11:48:35.199
27.0, 2829.905628521461, 2874.612392591778, 2797.2899610078894, 306.10146162332967, 0.06400000303983688, 0.5600000265985727, 0.8800000417977571, 0.0, 0.0, 0.0, 0.0, 0.0, 1.7632253151992867E9, 0.0, 2025-11-15 11:48:35.199
28.0, 3050.782249954529, 2645.850192102138, 2661.1015041214414, 290.382662109565, 0.06400000303983688, 0.5600000265985727, 0.8800000417977571, 0.0, 0.0, 0.0, 0.0, 0.0, 1.7632253152128613E9, 0.0, 2025-11-15 11:48:35.212
28.0, 3066.6132464669645, 2619.401619615499, 2611.6974257067777, 265.72550170170143, 0.06400000303983688, 0.5600000265985727, 0.8800000417977571, 0.0, 0.0, 0.0, 0.0, 0.0, 1.7632253152128613E9, 0.0, 2025-11-15 11:48:35.212
29.0, 3273.818663612008, 2805.2260287138633, 2714.2155632921495, 235.8867099052295, 0.06400000303983688, 0.5600000265985727, 0.8800000417977571, 0.0, 0.0, 0.0, 0.0, 0.0, 1.7632253152286136E9, 0.0, 2025-11-15 11:48:35.228
29.0, 3289.3224188783206, 2877.243412210606, 2875.33980313316, 458.1994529212825, 0.06400000303983688, 0.5600000265985727, 0.8800000417977571, 0.0, 0.0, 0.0, 0.0, 0.0, 1.7632253152286136E9, 0.0, 2025-11-15 11:48:35.228
30.0, 3513.075023377314, 3076.9222806948237, 3075.3664823132567, 234.10090767638758, 0.06400000303983688, 0.5600000265985727, 0.8800000417977571, 0.0, 0.0, 0.0, 0.0, 0.0, 1.7632253152292883E9, 0.0, 2025-11-15 11:48:35.229
30.0, 3499.194384691771, 3044.357101830654, 2969.6002416163683, 70.72898796200752, 0.06400000303983688, 0.5600000265985727, 0.8800000417977571, 0.0, 0.0, 0.0, 0.0, 0.0, 1.7632253152292883E9, 0.0, 2025-11-15 11:48:35.229
31.0, 3609.3867969862185, 3180.1603490216658, 3137.510529926978, 178.96169267967343, 0.06400000303983688, 0.576000027358532, 0.8800000417977571, 0.0, 0.0, 0.0, 0.0, 0.0, 1.7632253152428706E9, 0.0, 2025-11-15 11:48:35.242
31.0, 3473.6097290948965, 3051.118840950541, 3059.5672749504447, 207.17362799542025, 0.06400000303983688, 0.576000027358532, 0.8800000417977571, 0.0, 0.0, 0.0, 0.0, 0.0, 1.7632253152428706E9, 0.0, 2025-11-15 11:48:35.242
32.0, 3671.181163954083, 3247.949775618501, 3217.0582019845024, 349.60771780787036, 0.06400000303983688, 0.576000027358532, 0.8800000417977571, 0.0, 0.0, 0.0, 0.0, 0.0, 1.7632253152586076E9, 0.0, 2025-11-15 11:48:35.258
32.0, 3802.1524604023434, 3365.337755427696, 3289.3729075277224, 300.68047663755715, 0.06400000303983688, 0.576000027358532, 0.8800000417977571, 0.0, 0.0, 0.0, 0.0, 0.0, 1.7632253152586076E9, 0.0, 2025-11-15 11:48:35.258
33.0, 4034.832206095569, 3142.2564629707485, 3160.510914654471, 295.9121041940525, 0.06400000303983688, 0.576000027358532, 0.8800000417977571, 0.0, 0.0, 0.0, 0.0, 0.0, 1.7632253152592847E9, 0.0, 2025-11-15 11:48:35.259
33.0, 4055.0987239554524, 3119.8507223362103, 3110.9497604416683, 277.40707921329886, 0.06400000303983688, 0.576000027358532, 0.8800000417977571, 0.0, 0.0, 0.0, 0.0, 0.0, 1.7632253152592847E9, 0.0, 2025-11-15 11:48:35.259
34.0, 4271.504294991493, 3314.101126034744, 3224.3622265979648, 265.15703690843657, 0.06400000303983688, 0.576000027358532, 0.8800000417977571, 0.0, 0.0, 0.0, 0.0, 0.0, 1.7632253152728941E9, 0.0, 2025-11-15 11:48:35.272
34.0, 4263.833760182373, 3372.2173013961874, 3379.7644195067696, 492.39522816613317, 0.06400000303983688, 0.576000027358532, 0.8800000417977571, 0.0, 0.0, 0.0, 0.0, 0.0, 1.7632253152728941E9, 0.0, 2025-11-15 11:48:35.272
35.0, 4489.385256560054, 3571.57079858426, 3568.69855541829, 721.6828845995478, 0.06400000303983688, 0.576000027358532, 0.8800000417977571, 0.0, 0.0, 0.0, 0.0, 0.0, 1.7632253152885432E9, 0.0, 2025-11-15 11:48:35.288
35.0, 4506.8393696532585, 3536.1857351535, 3475.412360873539, 575.3649086831138, 0.06400000303983688, 0.576000027358532, 0.8800000417977571, 0.0, 0.0, 0.0, 0.0, 0.0, 1.7632253152885432E9, 0.0, 2025-11-15 11:48:35.288
36.0, 4592.004371444229, 3663.4657503454946, 3616.8030185983516, 634.4029693836346, 0.06400000303983688, 0.576000027358532, 0.8800000417977571, 0.0, 0.0, 0.0, 0.0, 0.0, 1.7632253152892585E9, 0.0, 2025-11-15 11:48:35.289
36.0, 4390.73043562891, 3529.4875743328594, 3547.5886901183985, 692.8669554409571, 0.06400000303983688, 0.576000027358532, 0.8800000417977571, 0.0, 0.0, 0.0, 0.0, 0.0, 1.7632253152892585E9, 0.0, 2025-11-15 11:48:35.289
37.0, 4200.3190392348915, 3755.953476249706, 3720.484265069943, 847.7810914055444, 0.06400000303983688, 0.576000027358532, 0.8800000417977571, 0.0, 0.0, 0.0, 0.0, 0.0, 1.7632253153028307E9, 0.0, 2025-11-15 11:48:35.302
37.0, 4316.154960562475, 3858.2360001378693, 3780.28900526138, 789.0179133517668, 0.06400000303983688, 0.576000027358532, 0.8800000417977571, 0.0, 0.0, 0.0, 0.0, 0.0, 1.7632253153028307E9, 0.0, 2025-11-15 11:48:35.302
38.0, 4511.446926398668, 3618.063364883419, 3633.8457426964305, 774.6529576219618, 0.06400000303983688, 0.576000027358532, 0.8800000417977571, 0.0, 0.0, 0.0, 0.0, 0.0, 1.763225315334201E9, 0.0, 2025-11-15 11:48:35.334
38.0, 4577.774052112829, 3618.025965883862, 3603.481494956184, 768.717736392282, 0.06400000303983688, 0.576000027358532, 0.8800000417977571, 0.0, 0.0, 0.0, 0.0, 0.0, 1.763225315334201E9, 0.0, 2025-11-15 11:48:35.334
39.0, 4770.236783632543, 3809.6920987130143, 3722.6945459437557, 764.7777517889626, 0.06400000303983688, 0.576000027358532, 0.8800000417977571, 0.0, 0.0, 0.0, 0.0, 0.0, 1.7632253153349135E9, 0.0, 2025-11-15 11:48:35.334
39.0, 4682.390273573343, 3825.5137454755604, 3835.297323759645, 934.1559508321807, 0.06400000303983688, 0.576000027358532, 0.8800000417977571, 0.0, 0.0, 0.0, 0.0, 0.0, 1.7632253153349135E9, 0.0, 2025-11-15 11:48:35.334
40.0, 4461.152751794551, 4036.6180083244108, 4043.0281968484633, 708.4978673057631, 0.06400000303983688, 0.576000027358532, 0.8640000410377979, 0.0, 0.0, 0.0, 0.0, 0.0, 1.763225315335654E9, 0.0, 2025-11-15 11:48:35.335
40.0, 4493.345810613129, 4031.862725530751, 3962.6072581512854, 555.3919729697518, 0.06400000303983688, 0.576000027358532, 0.8640000410377979, 0.0, 0.0, 0.0, 0.0, 0.0, 1.763225315335654E9, 0.0, 2025-11-15 11:48:35.335
41.0, 4563.259500384796, 4148.252152051777, 4111.171043991111, 664.7803067737259, 0.06400000303983688, 0.576000027358532, 0.8640000410377979, 0.0, 0.0, 0.0, 0.0, 0.0, 1.763225315348573E9, 0.0, 2025-11-15 11:48:35.348
41.0, 4457.768142334651, 4042.0389933101833, 4051.4186623990536, 724.3513032179326, 0.06400000303983688, 0.576000027358532, 0.8640000410377979, 0.0, 0.0, 0.0, 0.0, 0.0, 1.763225315348573E9, 0.0, 2025-11-15 11:48:35.348
42.0, 4237.732998391613, 4264.338646676391, 4223.562517459504, 874.7925188355148, 0.06400000303983688, 0.576000027358532, 0.8640000410377979, 0.0, 0.0, 0.0, 0.0, 0.0, 1.7632253153492475E9, 0.0, 2025-11-15 11:48:35.349
42.0, 4341.788234858774, 4373.588604182005, 4288.3974230913445, 814.402484301012, 0.06400000303983688, 0.576000027358532, 0.8640000410377979, 0.0, 0.0, 0.0, 0.0, 0.0, 1.7632253153492475E9, 0.0, 2025-11-15 11:48:35.349
43.0, 4488.1697890744545, 4586.476799309719, 4103.104079786688, 754.9044159059413, 0.06400000303983688, 0.576000027358532, 0.8640000410377979, 0.0, 0.0, 0.0, 0.0, 0.0, 1.763225315362872E9, 0.0, 2025-11-15 11:48:35.362
43.0, 4543.610066017602, 4586.009311815258, 4076.8200628980994, 742.3981904541142, 0.06400000303983688, 0.576000027358532, 0.8640000410377979, 0.0, 0.0, 0.0, 0.0, 0.0, 1.763225315362872E9, 0.0, 2025-11-15 11:48:35.362
44.0, 4773.269842496607, 4795.1594769372605, 4210.009120020084, 753.3747968240641, 0.06400000303983688, 0.576000027358532, 0.8640000410377979, 0.0, 0.0, 0.0, 0.0, 0.0, 1.763225315378563E9, 0.0, 2025-11-15 11:48:35.378
44.0, 4776.8395770043135, 4843.705248312093, 4349.344702719245, 964.2995444750413, 0.06400000303983688, 0.576000027358532, 0.8640000410377979, 0.0, 0.0, 0.0, 0.0, 0.0, 1.763225315378563E9, 0.0, 2025-11-15 11:48:35.378
45.0, 4916.661346697714, 5013.977283444721, 4521.157576633617, 1197.024168967735, 0.06400000303983688, 0.576000027358532, 0.8640000410377979, 0.0, 0.0, 0.0, 0.0, 0.0, 1.7632253153792584E9, 0.0, 2025-11-15 11:48:35.379
45.0, 4986.990165364463, 5017.649865201209, 4456.436737950426, 1048.1630610814318, 0.06400000303983688, 0.576000027358532, 0.8640000410377979, 0.0, 0.0, 0.0, 0.0, 0.0, 1.7632253153792584E9, 0.0, 2025-11-15 11:48:35.379
46.0, 5051.181808203924, 5125.370203624945, 4600.14239374781, 1152.0612217504531, 0.06400000303983688, 0.576000027358532, 0.8640000410377979, 0.0, 0.0, 0.0, 0.0, 0.0, 1.7632253153929107E9, 0.0, 2025-11-15 11:48:35.392
46.0, 4934.706363983918, 5019.676890977193, 4535.288788616192, 1216.707262434531, 0.06400000303983688, 0.576000027358532, 0.8640000410377979, 0.0, 0.0, 0.0, 0.0, 0.0, 1.7632253153929107E9, 0.0, 2025-11-15 11:48:35.392
47.0, 4721.477837960236, 5244.0783681184985, 4711.464255828876, 1361.9500171137042, 0.06400000303983688, 0.576000027358532, 0.8640000410377979, 0.0, 0.0, 0.0, 0.0, 0.0, 1.7632253154085555E9, 0.0, 2025-11-15 11:48:35.408
47.0, 4813.35596017167, 5345.80738681322, 4771.706564315129, 1288.6461080322042, 0.06400000303983688, 0.576000027358532, 0.8640000410377979, 0.0, 0.0, 0.0, 0.0, 0.0, 1.7632253154085555E9, 0.0, 2025-11-15 11:48:35.408
48.0, 5013.090927155223, 5589.362761577591, 4618.445464130957, 1268.7311407681555, 0.06400000303983688, 0.576000027358532, 0.8640000410377979, 0.0, 0.0, 0.0, 0.0, 0.0, 1.7632253154092617E9, 0.0, 2025-11-15 11:48:35.409
48.0, 5039.027133347932, 5574.560237552971, 4572.381116376724, 1245.5101019432768, 0.06400000303983688, 0.576000027358532, 0.8640000410377979, 0.0, 0.0, 0.0, 0.0, 0.0, 1.7632253154092617E9, 0.0, 2025-11-15 11:48:35.409
49.0, 5243.236890628468, 5774.312034086324, 4693.269642544445, 1231.457427859772, 0.06400000303983688, 0.576000027358532, 0.8640000410377979, 0.0, 0.0, 0.0, 0.0, 0.0, 1.7632253154228735E9, 0.0, 2025-11-15 11:48:35.422
49.0, 5214.989426263142, 5815.482722748537, 4834.751927818172, 1438.5300785563886, 0.06400000303983688, 0.576000027358532, 0.8640000410377979, 0.0, 0.0, 0.0, 0.0, 0.0, 1.7632253154228735E9, 0.0, 2025-11-15 11:48:35.422
50.0, 5049.700807821471, 6041.516666220501, 5051.249126403127, 1265.7429607035592, 0.06400000303983688, 0.576000027358532, 0.8640000410377979, 0.0, 0.0, 0.0, 0.0, 0.0, 1.7632253154385493E9, 0.0, 2025-11-15 11:48:35.438
50.0, 4949.398560959846, 5980.057020298671, 4934.913928431459, 1043.1833842904307, 0.06400000303983688, 0.576000027358532, 0.8640000410377979, 0.0, 0.0, 0.0, 0.0, 0.0, 1.7632253154385493E9, 0.0, 2025-11-15 11:48:35.438
51.0, 5031.975551981479, 6097.575896606315, 5078.226894733496, 1133.4608293208294, 0.06400000303983688, 0.576000027358532, 0.8640000410377979, 0.0, 0.0, 0.0, 0.0, 0.0, 1.7632253154392557E9, 0.0, 2025-11-15 11:48:35.439
51.0, 4934.13228934072, 5988.823345794808, 5012.730026809499, 1184.5684321653098, 0.06400000303983688, 0.576000027358532, 0.8640000410377979, 0.0, 0.0, 0.0, 0.0, 0.0, 1.7632253154392557E9, 0.0, 2025-11-15 11:48:35.439
52.0, 4723.4468952869065, 6233.581098394934, 5214.572427418083, 1372.4610059391707, 0.06400000303983688, 0.576000027358532, 0.8640000410377979, 0.0, 0.0, 0.0, 0.0, 0.0, 1.7632253154528525E9, 0.0, 2025-11-15 11:48:35.452
52.0, 4815.930881291162, 6322.654295639601, 5259.638221884146, 1291.0751730534248, 0.06400000303983688, 0.576000027358532, 0.8640000410377979, 0.0, 0.0, 0.0, 0.0, 0.0, 1.7632253154528525E9, 0.0, 2025-11-15 11:48:35.452
53.0, 5028.05239692796, 6088.723553411197, 5117.95585196279, 1294.8805212583393, 0.06400000303983688, 0.576000027358532, 0.8640000410377979, 0.0, 0.0, 0.0, 0.0, 0.0, 1.7632253154685135E9, 0.0, 2025-11-15 11:48:35.468
53.0, 5010.987233430147, 6049.914611571003, 5043.808595441282, 1222.3376818178222, 0.06400000303983688, 0.576000027358532, 0.8640000410377979, 0.0, 0.0, 0.0, 0.0, 0.0, 1.7632253154685135E9, 0.0, 2025-11-15 11:48:35.468
54.0, 4784.807433859911, 6271.802875942085, 5196.680746030062, 1243.0903866719455, 0.06400000303983688, 0.576000027358532, 0.8640000410377979, 0.0, 0.0, 0.0, 0.0, 0.0, 1.7632253154692304E9, 0.0, 2025-11-15 11:48:35.469
54.0, 4710.061793345492, 6280.234480392188, 5304.361815504264, 1420.9618985145353, 0.06400000303983688, 0.576000027358532, 0.8640000410377979, 0.0, 0.0, 0.0, 0.0, 0.0, 1.7632253154692304E9, 0.0, 2025-11-15 11:48:35.469
55.0, 4477.2904201033525, 6507.801782845985, 5520.817875189707, 1204.380552180577, 0.06400000303983688, 0.576000027358532, 0.8640000410377979, 0.0, 0.0, 0.0, 0.0, 0.0, 1.7632253154828668E9, 0.0, 2025-11-15 11:48:35.482
55.0, 4525.404233033303, 6507.388523900881, 5451.930787955876, 1054.5358506059274, 0.06400000303983688, 0.576000027358532, 0.8640000410377979, 0.0, 0.0, 0.0, 0.0, 0.0, 1.7632253154828668E9, 0.0, 2025-11-15 11:48:35.482
56.0, 4606.043955877889, 6614.3160035340115, 5599.204308310989, 1176.3107330631465, 0.06400000303983688, 0.576000027358532, 0.8640000410377979, 0.0, 0.0, 0.0, 0.0, 0.0, 1.7632253154985204E9, 0.0, 2025-11-15 11:48:35.498
56.0, 4415.7092274329625, 6489.552941012196, 5526.792365368921, 1225.1182974348776, 0.06400000303983688, 0.576000027358532, 0.8640000410377979, 0.0, 0.0, 0.0, 0.0, 0.0, 1.7632253154985204E9, 0.0, 2025-11-15 11:48:35.498
57.0, 4227.257538615726, 6716.4938102234155, 5700.563076910097, 1374.4375430657528, 0.06400000303983688, 0.576000027358532, 0.8640000410377979, 0.0, 0.0, 0.0, 0.0, 0.0, 1.7632253154992282E9, 0.0, 2025-11-15 11:48:35.499
57.0, 4305.159654692747, 6815.698396448046, 5751.0928652114235, 1275.8593900837004, 0.06400000303983688, 0.576000027358532, 0.8640000410377979, 0.0, 0.0, 0.0, 0.0, 0.0, 1.7632253154992282E9, 0.0, 2025-11-15 11:48:35.499
58.0, 4530.928065267857, 6578.461582658812, 5601.481907384004, 1258.4052769904956, 0.06400000303983688, 0.576000027358532, 0.8640000410377979, 0.0, 0.0, 0.0, 0.0, 0.0, 1.7632253155128784E9, 0.0, 2025-11-15 11:48:35.512
58.0, 4530.812128369231, 6555.431278731674, 5556.977097911295, 1242.8211138751358, 0.06400000303983688, 0.576000027358532, 0.8640000410377979, 0.0, 0.0, 0.0, 0.0, 0.0, 1.7632253155128784E9, 0.0, 2025-11-15 11:48:35.512
59.0, 4289.803625474684, 6776.44814641308, 5701.860822194722, 1256.9990746071562, 0.06400000303983688, 0.576000027358532, 0.8640000410377979, 0.0, 0.0, 0.0, 0.0, 0.0, 1.7632253155285292E9, 0.0, 2025-11-15 11:48:35.528
59.0, 4232.426080354489, 6777.960935945157, 5798.127717004158, 1424.7204979700036, 0.06400000303983688, 0.576000027358532, 0.8640000410377979, 0.0, 0.0, 0.0, 0.0, 0.0, 1.7632253155285292E9, 0.0, 2025-11-15 11:48:35.528
60.0, 4474.223702139687, 6990.4975804770365, 6009.280598552432, 1232.4859003475867, 0.06400000303983688, 0.576000027358532, 0.8640000410377979, 0.0, 0.0, 0.0, 0.0, 0.0, 1.7632253155292387E9, 0.0, 2025-11-15 11:48:35.529
60.0, 4549.133898252156, 7018.576749344356, 5955.884176935069, 1060.2242384385318, 0.06400000303983688, 0.576000027358532, 0.8640000410377979, 0.0, 0.0, 0.0, 0.0, 0.0, 1.7632253155292387E9, 0.0, 2025-11-15 11:48:35.529
61.0, 4562.0889116986655, 7097.761651106179, 6076.163099410012, 1154.0620682267472, 0.06400000303983688, 0.576000027358532, 0.8640000410377979, 0.0, 0.0, 0.0, 0.0, 0.0, 1.7632253155428631E9, 0.0, 2025-11-15 11:48:35.542
61.0, 4476.834152308758, 6976.5926324417815, 5999.611087216996, 1191.646192831453, 0.06400000303983688, 0.576000027358532, 0.8640000410377979, 0.0, 0.0, 0.0, 0.0, 0.0, 1.7632253155428631E9, 0.0, 2025-11-15 11:48:35.542
62.0, 4688.837861096952, 7196.4688306367025, 6180.263214676641, 1359.8706327383406, 0.06400000303983688, 0.576000027358532, 0.8640000410377979, 0.0, 0.0, 0.0, 0.0, 0.0, 1.7632253155585177E9, 0.0, 2025-11-15 11:48:35.558
62.0, 4797.553012908902, 7298.12305133231, 6237.191971802153, 1286.4021680587903, 0.06400000303983688, 0.576000027358532, 0.8640000410377979, 0.0, 0.0, 0.0, 0.0, 0.0, 1.7632253155585177E9, 0.0, 2025-11-15 11:48:35.558
63.0, 5000.579091853462, 7540.9304461055435, 6084.196404514834, 1266.6816755924374, 0.06400000303983688, 0.576000027358532, 0.8640000410377979, 0.0, 0.0, 0.0, 0.0, 0.0, 1.763225315559229E9, 0.0, 2025-11-15 11:48:35.559
63.0, 5034.993651245721, 7532.53437070502, 6040.671448830515, 1232.4877702975646, 0.06400000303983688, 0.576000027358532, 0.8640000410377979, 0.0, 0.0, 0.0, 0.0, 0.0, 1.763225315559229E9, 0.0, 2025-11-15 11:48:35.559
64.0, 5271.523623943329, 7752.212354202289, 6184.878251221962, 1246.7330492287874, 0.06400000303983688, 0.576000027358532, 0.8640000410377979, 0.0, 0.0, 0.0, 0.0, 0.0, 1.7632253155728648E9, 0.0, 2025-11-15 11:48:35.572
64.0, 5244.1625158675015, 7777.196755856276, 6302.859005174134, 1434.447977754753, 0.06400000303983688, 0.576000027358532, 0.8640000410377979, 0.0, 0.0, 0.0, 0.0, 0.0, 1.7632253155728648E9, 0.0, 2025-11-15 11:48:35.572
65.0, 5460.184747158084, 7977.485228033271, 6503.712202244438, 1210.7271624053828, 0.06400000303983688, 0.576000027358532, 0.8640000410377979, 0.0, 0.0, 0.0, 0.0, 0.0, 1.7632253155885215E9, 0.0, 2025-11-15 11:48:35.588
65.0, 5495.433304240461, 7980.05453930283, 6438.748270064127, 1083.8641460584477, 0.06400000303983688, 0.576000027358532, 0.8640000410377979, 0.0, 0.0, 0.0, 0.0, 0.0, 1.7632253155885215E9, 0.0, 2025-11-15 11:48:35.588
66.0, 5541.9501798893325, 8078.129675740842, 6562.912948593032, 1157.6748115839437, 0.06400000303983688, 0.576000027358532, 0.8640000410377979, 0.0, 0.0, 0.0, 0.0, 0.0, 1.763225315589227E9, 0.0, 2025-11-15 11:48:35.589
66.0, 5427.2063093488105, 7955.045828299131, 6487.797057983, 1180.8341420595534, 0.06400000303983688, 0.576000027358532, 0.8640000410377979, 0.0, 0.0, 0.0, 0.0, 0.0, 1.763225315589227E9, 0.0, 2025-11-15 11:48:35.589
67.0, 5214.8790992144495, 8192.409798686858, 6679.31733471388, 1379.3293322077952, 0.06400000303983688, 0.576000027358532, 0.8640000410377979, 0.0, 0.0, 0.0, 0.0, 0.0, 1.763225315602844E9, 0.0, 2025-11-15 11:48:35.602
67.0, 5359.587048199959, 8302.964981277008, 6741.556749776471, 1303.0335031617433, 0.06400000303983688, 0.576000027358532, 0.8640000410377979, 0.0, 0.0, 0.0, 0.0, 0.0, 1.763225315602844E9, 0.0, 2025-11-15 11:48:35.602
68.0, 5463.977005713154, 8506.858717011288, 6563.982559980359, 1254.482121936977, 0.06400000303983688, 0.576000027358532, 0.8640000410377979, 0.0, 0.0, 0.0, 0.0, 0.0, 1.7632253156185243E9, 0.0, 2025-11-15 11:48:35.618
68.0, 5515.2846932052635, 8502.718647760339, 6528.554487700108, 1238.632425924763, 0.06400000303983688, 0.576000027358532, 0.8640000410377979, 0.0, 0.0, 0.0, 0.0, 0.0, 1.7632253156185243E9, 0.0, 2025-11-15 11:48:35.618
69.0, 5737.98451586673, 8725.19781632442, 6677.496003435459, 1258.7904866859317, 0.06400000303983688, 0.576000027358532, 0.8640000410377979, 0.0, 0.0, 0.0, 0.0, 0.0, 1.7632253156192212E9, 0.0, 2025-11-15 11:48:35.619
69.0, 5707.986778322142, 8743.988943651784, 6765.535118342377, 1402.1090628379025, 0.06400000303983688, 0.576000027358532, 0.8640000410377979, 0.0, 0.0, 0.0, 0.0, 0.0, 1.7632253156192212E9, 0.0, 2025-11-15 11:48:35.619
70.0, 5947.809732930735, 8954.408804808743, 6978.7748640659265, 1196.8857926693745, 0.06400000303983688, 0.576000027358532, 0.8480000402778387, 0.0, 0.0, 0.0, 0.0, 0.0, 1.7632253156492796E9, 0.0, 2025-11-15 11:48:35.649
70.0, 5982.946093014441, 8958.597492759116, 6920.4978730063885, 1077.8765662293881, 0.06400000303983688, 0.576000027358532, 0.8480000402778387, 0.0, 0.0, 0.0, 0.0, 0.0, 1.7632253156492796E9, 0.0, 2025-11-15 11:48:35.649
71.0, 6041.797158717178, 9056.94938179385, 7056.540473794565, 1153.4150655344129, 0.06400000303983688, 0.576000027358532, 0.8480000402778387, 0.0, 0.0, 0.0, 0.0, 0.0, 1.7632253156499362E9, 0.0, 2025-11-15 11:48:35.649
71.0, 5916.192618705332, 8936.71907801833, 6982.180042975582, 1205.442683767993, 0.06400000303983688, 0.576000027358532, 0.8480000402778387, 0.0, 0.0, 0.0, 0.0, 0.0, 1.7632253156499362E9, 0.0, 2025-11-15 11:48:35.649
72.0, 5715.058929138351, 9175.253637092188, 7168.943166962825, 1372.5002748887055, 0.06400000303983688, 0.576000027358532, 0.8480000402778387, 0.0, 0.0, 0.0, 0.0, 0.0, 1.763225315650694E9, 0.0, 2025-11-15 11:48:35.650
72.0, 5805.792641963344, 9275.198723508045, 7231.0404658271, 1291.9858386926353, 0.06400000303983688, 0.576000027358532, 0.8480000402778387, 0.0, 0.0, 0.0, 0.0, 0.0, 1.763225315650694E9, 0.0, 2025-11-15 11:48:35.650
73.0, 5975.054904107936, 9495.970627742354, 7051.716002851725, 1259.9498556721956, 0.06400000303983688, 0.576000027358532, 0.8480000402778387, 0.0, 0.0, 0.0, 0.0, 0.0, 1.7632253156628957E9, 0.0, 2025-11-15 11:48:35.662
73.0, 6002.790002179332, 9484.18994288193, 7012.271278019063, 1243.8608060628176, 0.06400000303983688, 0.576000027358532, 0.8480000402778387, 0.0, 0.0, 0.0, 0.0, 0.0, 1.7632253156628957E9, 0.0, 2025-11-15 11:48:35.662
74.0, 6242.427831740119, 9709.331920214463, 7163.505352427252, 1259.7927798740566, 0.06400000303983688, 0.576000027358532, 0.8480000402778387, 0.0, 0.0, 0.0, 0.0, 0.0, 1.7632253156785614E9, 0.0, 2025-11-15 11:48:35.678
74.0, 6162.951217781752, 9711.77220493555, 7252.711316120345, 1400.5532644563355, 0.06400000303983688, 0.576000027358532, 0.8480000402778387, 0.0, 0.0, 0.0, 0.0, 0.0, 1.7632253156785614E9, 0.0, 2025-11-15 11:48:35.678
75.0, 5938.7068164385855, 9927.96273172414, 7471.418795579113, 1194.080867702607, 0.06400000303983688, 0.576000027358532, 0.8480000402778387, 0.0, 0.0, 0.0, 0.0, 0.0, 1.7632253156792607E9, 0.0, 2025-11-15 11:48:35.679
75.0, 5995.859967561439, 9943.509495839942, 7416.006567885634, 1068.7287709377706, 0.06400000303983688, 0.576000027358532, 0.8480000402778387, 0.0, 0.0, 0.0, 0.0, 0.0, 1.7632253156792607E9, 0.0, 2025-11-15 11:48:35.679
76.0, 6049.85664312169, 10039.920376797672, 7549.861327199731, 1161.8111409349367, 0.06400000303983688, 0.576000027358532, 0.8480000402778387, 0.0, 0.0, 0.0, 0.0, 0.0, 1.7632253156928723E9, 0.0, 2025-11-15 11:48:35.692
76.0, 5899.3892482044175, 9908.548911054153, 7463.061989128124, 1185.4416988049634, 0.06400000303983688, 0.576000027358532, 0.8480000402778387, 0.0, 0.0, 0.0, 0.0, 0.0, 1.7632253156928723E9, 0.0, 2025-11-15 11:48:35.692
77.0, 5703.854188871104, 10152.93267365871, 7659.402996901888, 1362.7054769047536, 0.06400000303983688, 0.576000027358532, 0.8480000402778387, 0.0, 0.0, 0.0, 0.0, 0.0, 1.7632253157085423E9, 0.0, 2025-11-15 11:48:35.708
77.0, 5811.544608095195, 10262.328487262595, 7730.240441962611, 1316.399905603379, 0.06400000303983688, 0.576000027358532, 0.8480000402778387, 0.0, 0.0, 0.0, 0.0, 0.0, 1.7632253157085423E9, 0.0, 2025-11-15 11:48:35.708
78.0, 5959.3061853945255, 10486.612157555297, 7553.0290224622, 1257.002814507112, 0.06400000303983688, 0.576000027358532, 0.8480000402778387, 0.0, 0.0, 0.0, 0.0, 0.0, 1.7632253157092688E9, 0.0, 2025-11-15 11:48:35.709
78.0, 6020.812580065802, 10483.167709696107, 7521.026698541362, 1247.836319715716, 0.06400000303983688, 0.576000027358532, 0.8480000402778387, 0.0, 0.0, 0.0, 0.0, 0.0, 1.7632253157092688E9, 0.0, 2025-11-15 11:48:35.709
79.0, 6265.641390765086, 10704.225716277026, 7666.467667918187, 1259.6618833756074, 0.06400000303983688, 0.576000027358532, 0.8480000402778387, 0.0, 0.0, 0.0, 0.0, 0.0, 1.7632253157229238E9, 0.0, 2025-11-15 11:48:35.722
79.0, 6201.992033419199, 10718.693519255612, 7770.506074835546, 1428.3033221275546, 0.06400000303983688, 0.576000027358532, 0.8480000402778387, 0.0, 0.0, 0.0, 0.0, 0.0, 1.7632253157229238E9, 0.0, 2025-11-15 11:48:35.722
80.0, 6446.074734077323, 10915.515104173683, 7965.33803297719, 1206.4711562558077, 0.06400000303983688, 0.576000027358532, 0.8480000402778387, 0.0, 0.0, 0.0, 0.0, 0.0, 1.7632253157385516E9, 0.0, 2025-11-15 11:48:35.738
80.0, 6486.22630000161, 10933.769555857405, 7914.720357026905, 1060.5982284341007, 0.06400000303983688, 0.576000027358532, 0.8480000402778387, 0.0, 0.0, 0.0, 0.0, 0.0, 1.7632253157385516E9, 0.0, 2025-11-15 11:48:35.738
81.0, 6573.5155649674125, 11038.127724220976, 8047.6924999514595, 1157.0278088916093, 0.06400000303983688, 0.576000027358532, 0.8480000402778387, 0.0, 0.0, 0.0, 0.0, 0.0, 1.7632253157392523E9, 0.0, 2025-11-15 11:48:35.739
81.0, 6343.635134391021, 10876.478028436191, 7951.169421995059, 1189.5929877557792, 0.06400000303983688, 0.576000027358532, 0.8480000402778387, 0.0, 0.0, 0.0, 0.0, 0.0, 1.7632253157392523E9, 0.0, 2025-11-15 11:48:35.739
82.0, 6198.899136155844, 10650.402946064714, 8155.46145707462, 1356.7926950748079, 0.06400000303983688, 0.576000027358532, 0.8480000402778387, 0.0, 0.0, 0.0, 0.0, 0.0, 1.7632253157528975E9, 0.0, 2025-11-15 11:48:35.752
82.0, 6292.886561942287, 10747.027001319919, 8212.098502003588, 1291.1630607023835, 0.06400000303983688, 0.576000027358532, 0.8480000402778387, 0.0, 0.0, 0.0, 0.0, 0.0, 1.7632253157528975E9, 0.0, 2025-11-15 11:48:35.752
83.0, 6444.960243890528, 10967.941021752544, 8040.13416214101, 1254.9421296315268, 0.06400000303983688, 0.576000027358532, 0.8480000402778387, 0.0, 0.0, 0.0, 0.0, 0.0, 1.7632253157685792E9, 0.0, 2025-11-15 11:48:35.768
83.0, 6512.009170296136, 10974.69528107252, 8019.721788182855, 1258.0612061945722, 0.06400000303983688, 0.576000027358532, 0.8480000402778387, 0.0, 0.0, 0.0, 0.0, 0.0, 1.7632253157685792E9, 0.0, 2025-11-15 11:48:35.768
84.0, 6740.449739389587, 11185.188070278615, 8144.155739508569, 1242.7668853257783, 0.06400000303983688, 0.576000027358532, 0.8480000402778387, 0.0, 0.0, 0.0, 0.0, 0.0, 1.7632253157692738E9, 0.0, 2025-11-15 11:48:35.769
84.0, 6668.254710644949, 11177.038828275166, 8238.137555445079, 1412.1824833685532, 0.06400000303983688, 0.576000027358532, 0.8480000402778387, 0.0, 0.0, 0.0, 0.0, 0.0, 1.7632253157692738E9, 0.0, 2025-11-15 11:48:35.769
85.0, 6912.270093103871, 11390.955495890696, 8444.753938347101, 1189.2994056092575, 0.06400000303983688, 0.576000027358532, 0.8480000402778387, 0.0, 0.0, 0.0, 0.0, 0.0, 1.763225315782894E9, 0.0, 2025-11-15 11:48:35.782
85.0, 6950.783582847565, 11394.141890652943, 8378.33144518407, 1043.553634386044, 0.06400000303983688, 0.576000027358532, 0.8480000402778387, 0.0, 0.0, 0.0, 0.0, 0.0, 1.763225315782894E9, 0.0, 2025-11-15 11:48:35.782
86.0, 6998.287792084739, 11486.689454956446, 8505.757316474337, 1128.699936677236, 0.06400000303983688, 0.576000027358532, 0.8480000402778387, 0.0, 0.0, 0.0, 0.0, 0.0, 1.7632253157983065E9, 0.0, 2025-11-15 11:48:35.798
86.0, 6883.831893840805, 11367.001436674502, 8432.698370839935, 1191.0945575879887, 0.06400000303983688, 0.576000027358532, 0.8480000402778387, 0.0, 0.0, 0.0, 0.0, 0.0, 1.7632253157983065E9, 0.0, 2025-11-15 11:48:35.798
87.0, 6679.451971112285, 11605.909985743929, 8619.188482130412, 1335.8025065734982, 0.06400000303983688, 0.576000027358532, 0.8480000402778387, 0.0, 0.0, 0.0, 0.0, 0.0, 1.763225315813598E9, 0.0, 2025-11-15 11:48:35.813
87.0, 6736.365768637974, 11689.956757448148, 8675.328120365273, 1278.4978895024396, 0.06400000303983688, 0.576000027358532, 0.8480000402778387, 0.0, 0.0, 0.0, 0.0, 0.0, 1.763225315813598E9, 0.0, 2025-11-15 11:48:35.813
88.0, 6936.2802508194, 11920.968507761136, 8506.673591963481, 1241.1512485449202, 0.06400000303983688, 0.576000027358532, 0.8480000402778387, 0.0, 0.0, 0.0, 0.0, 0.0, 1.7632253158143027E9, 0.0, 2025-11-15 11:48:35.814
88.0, 6984.326745550148, 11933.082043717615, 8478.201733600814, 1215.0691862539388, 0.06400000303983688, 0.576000027358532, 0.8480000402778387, 0.0, 0.0, 0.0, 0.0, 0.0, 1.7632253158143027E9, 0.0, 2025-11-15 11:48:35.814
89.0, 6746.007230723742, 12156.238134173676, 8619.139863430988, 1234.0005598296411, 0.06400000303983688, 0.576000027358532, 0.8480000402778387, 0.0, 0.0, 0.0, 0.0, 0.0, 1.7632253158285444E9, 0.0, 2025-11-15 11:48:35.828
89.0, 6642.426961550955, 12139.988268866204, 8710.821640894748, 1405.4992821477354, 0.06400000303983688, 0.576000027358532, 0.8480000402778387, 0.0, 0.0, 0.0, 0.0, 0.0, 1.7632253158285444E9, 0.0, 2025-11-15 11:48:35.828
90.0, 6462.444276183378, 12375.585136524867, 8933.620570905041, 1189.0114333126694, 0.06400000303983688, 0.576000027358532, 0.8640000410377979, 0.0, 0.0, 0.0, 0.0, 0.0, 1.7632253158292596E9, 0.0, 2025-11-15 11:48:35.829
90.0, 6445.09675023891, 12359.924305460416, 8853.97379149869, 1042.1137729031034, 0.06400000303983688, 0.576000027358532, 0.8640000410377979, 0.0, 0.0, 0.0, 0.0, 0.0, 1.7632253158292596E9, 0.0, 2025-11-15 11:48:35.829
91.0, 6473.927638997324, 12443.742943267338, 8977.37927033659, 1117.4914565100335, 0.06400000303983688, 0.576000027358532, 0.8640000410377979, 0.0, 0.0, 0.0, 0.0, 0.0, 1.7632253158428705E9, 0.0, 2025-11-15 11:48:35.842
91.0, 6392.8241685582325, 12350.929846066982, 8922.911367381923, 1176.2695941636339, 0.06400000303983688, 0.576000027358532, 0.8640000410377979, 0.0, 0.0, 0.0, 0.0, 0.0, 1.7632253158428705E9, 0.0, 2025-11-15 11:48:35.842
92.0, 6178.12960175192, 12580.021157752723, 9106.155245510861, 1343.3346650842577, 0.06400000303983688, 0.576000027358532, 0.8640000410377979, 0.0, 0.0, 0.0, 0.0, 0.0, 1.7632253158585536E9, 0.0, 2025-11-15 11:48:35.858
92.0, 6267.049463098403, 12679.248183377087, 9162.623994941823, 1269.2752962117083, 0.06400000303983688, 0.576000027358532, 0.8640000410377979, 0.0, 0.0, 0.0, 0.0, 0.0, 1.7632253158585536E9, 0.0, 2025-11-15 11:48:35.858
93.0, 6463.018350826576, 12910.58530498622, 8998.281571188942, 1229.6809753808193, 0.06400000303983688, 0.576000027358532, 0.8640000410377979, 0.0, 0.0, 0.0, 0.0, 0.0, 1.7632253158592596E9, 0.0, 2025-11-15 11:48:35.859
93.0, 6470.969378132373, 12899.212269220967, 8965.71826227475, 1227.2313409098424, 0.06400000303983688, 0.576000027358532, 0.8640000410377979, 0.0, 0.0, 0.0, 0.0, 0.0, 1.7632253158592596E9, 0.0, 2025-11-15 11:48:35.859
94.0, 6259.8800748833455, 13136.60615880834, 9122.57340631634, 1252.2886706129648, 0.06400000303983688, 0.576000027358532, 0.8640000410377979, 0.0, 0.0, 0.0, 0.0, 0.0, 1.7632253158729005E9, 0.0, 2025-11-15 11:48:35.872
94.0, 6185.897373959888, 13132.409991058055, 9209.281116839033, 1417.732494902797, 0.06400000303983688, 0.576000027358532, 0.8640000410377979, 0.0, 0.0, 0.0, 0.0, 0.0, 1.7632253158729005E9, 0.0, 2025-11-15 11:48:35.872
95.0, 6394.230370941572, 13331.378278550692, 9406.876861047931, 1188.6112640174106, 0.06400000303983688, 0.576000027358532, 0.8640000410377979, 0.0, 0.0, 0.0, 0.0, 0.0, 1.763225315888572E9, 0.0, 2025-11-15 11:48:35.888
95.0, 6465.471725197509, 13346.360317773186, 9351.909681449179, 1039.0769741390832, 0.06400000303983688, 0.576000027358532, 0.8640000410377979, 0.0, 0.0, 0.0, 0.0, 0.0, 1.763225315888572E9, 0.0, 2025-11-15 11:48:35.888
96.0, 6555.655672729015, 13463.389267186634, 9495.3759836494, 1140.0841921423562, 0.06400000303983688, 0.576000027358532, 0.8640000410377979, 0.0, 0.0, 0.0, 0.0, 0.0, 1.7632253158892746E9, 0.0, 2025-11-15 11:48:35.889
96.0, 6389.106708002277, 13339.333045756444, 9423.31185140321, 1186.95448833704, 0.06400000303983688, 0.576000027358532, 0.8640000410377979, 0.0, 0.0, 0.0, 0.0, 0.0, 1.7632253158892746E9, 0.0, 2025-11-15 11:48:35.889
97.0, 6148.72276840033, 13555.286088897847, 9593.368842288386, 1337.7659540502355, 0.06400000303983688, 0.576000027358532, 0.8640000410377979, 0.0, 0.0, 0.0, 0.0, 0.0, 1.7632253159028862E9, 0.0, 2025-11-15 11:48:35.902
97.0, 6257.460359612014, 13665.938508886844, 9659.157422408927, 1273.6771584595554, 0.06400000303983688, 0.576000027358532, 0.8640000410377979, 0.0, 0.0, 0.0, 0.0, 0.0, 1.7632253159028862E9, 0.0, 2025-11-15 11:48:35.902
98.0, 6439.524299304932, 13888.681340397801, 9485.872897861991, 1228.622583693359, 0.06400000303983688, 0.576000027358532, 0.8640000410377979, 0.0, 0.0, 0.0, 0.0, 0.0, 1.7632253159185524E9, 0.0, 2025-11-15 11:48:35.918
98.0, 6499.8750648899, 13897.421486594249, 9462.85381363472, 1229.3892631842755, 0.06400000303983688, 0.576000027358532, 0.8640000410377979, 0.0, 0.0, 0.0, 0.0, 0.0, 1.7632253159185524E9, 0.0, 2025-11-15 11:48:35.918
99.0, 6724.179304632358, 14111.216607461218, 9597.523871139158, 1236.8316640960984, 0.06400000303983688, 0.576000027358532, 0.8640000410377979, 0.0, 0.0, 0.0, 0.0, 0.0, 1.763225315919259E9, 0.0, 2025-11-15 11:48:35.919
99.0, 6660.290593689308, 14113.709250781685, 9701.001293063164, 1411.9992282707244, 0.06400000303983688, 0.576000027358532, 0.8640000410377979, 0.0, 0.0, 0.0, 0.0, 0.0, 1.763225315919259E9, 0.0, 2025-11-15 11:48:35.919
100.0, 6423.113618299365, 14329.593105773907, 9910.003732136916, 1192.066931576468, 0.06400000303983688, 0.576000027358532, 0.8640000410377979, 0.0, 0.0, 0.0, 0.0, 0.0, 1.7632253159335945E9, 0.0, 2025-11-15 11:48:35.933
100.0, 6476.134179971181, 14343.228781012353, 9857.497406709008, 1051.912310787011, 0.06400000303983688, 0.576000027358532, 0.8640000410377979, 0.0, 0.0, 0.0, 0.0, 0.0, 1.7632253159335945E9, 0.0, 2025-11-15 11:48:35.933
0.0, 155.40593280876055, 225.05969953350723, 186.44897239096463, 163.73282006010413, 0.06400000303983688, 0.576000027358532, 0.8640000410377979, 0.0, 0.0, 0.0, 0.0, 0.0, 1.763225315934254E9, 0.0, 2025-11-15 11:48:35.934
1.0, 92.03332805959508, 126.19918410480022, 125.04729491844773, 216.47849908517674, 0.06400000303983688, 0.576000027358532, 0.8640000410377979, 0.0, 0.0, 0.0, 0.0, 0.0, 1.7632253159478672E9, 0.0, 2025-11-15 11:48:35.947
1.0, 270.35175794688985, 322.6636085771024, 282.8112346492708, 358.95372779713944, 0.06400000303983688, 0.576000027358532, 0.8640000410377979, 0.0, 0.0, 0.0, 0.0, 0.0, 1.7632253159478672E9, 0.0, 2025-11-15 11:48:35.947
2.0, 356.72100752359256, 417.8964210487902, 347.0963749876246, 303.5601996034384, 0.06400000303983688, 0.576000027358532, 0.8640000410377979, 0.0, 0.0, 0.0, 0.0, 0.0, 1.7632253159635715E9, 0.0, 2025-11-15 11:48:35.963
2.0, 561.3328040493652, 654.7910339920782, 185.06894930731505, 267.21585183404386, 0.06400000303983688, 0.576000027358532, 0.8640000410377979, 0.0, 0.0, 0.0, 0.0, 0.0, 1.7632253159635715E9, 0.0, 2025-11-15 11:48:35.963
3.0, 633.3670170959085, 670.9548816005699, 164.12924945540726, 266.9802381368354, 0.06400000303983688, 0.576000027358532, 0.8640000410377979, 0.0, 0.0, 0.0, 0.0, 0.0, 1.7632253159642508E9, 0.0, 2025-11-15 11:48:35.964
3.0, 860.7005758024752, 892.869325271342, 306.46236196905375, 263.05147323338315, 0.06400000303983688, 0.576000027358532, 0.8640000410377979, 0.0, 0.0, 0.0, 0.0, 0.0, 1.7632253159642508E9, 0.0, 2025-11-15 11:48:35.964
4.0, 788.6214839564636, 884.9519570651464, 393.78341608447954, 438.3648935062811, 0.06400000303983688, 0.576000027358532, 0.8640000410377979, 0.0, 0.0, 0.0, 0.0, 0.0, 1.7632253159778757E9, 0.0, 2025-11-15 11:48:35.977
4.0, 1030.3555274424143, 1096.800460005179, 601.0655011786148, 209.359599519521, 0.06400000303983688, 0.576000027358532, 0.8640000410377979, 0.0, 0.0, 0.0, 0.0, 0.0, 1.7632253159778757E9, 0.0, 2025-11-15 11:48:35.977
5.0, 1090.0892095346935, 1116.8388439677656, 553.1929117958061, 78.93619841476902, 0.06400000303983688, 0.576000027358532, 0.8640000410377979, 0.0, 0.0, 0.0, 0.0, 0.0, 1.7632253159935377E9, 0.0, 2025-11-15 11:48:35.993
5.0, 1138.39749726234, 1206.794657601975, 682.9150816588663, 174.86463227821514, 0.06400000303983688, 0.576000027358532, 0.8640000410377979, 0.0, 0.0, 0.0, 0.0, 0.0, 1.7632253159935377E9, 0.0, 2025-11-15 11:48:35.993
6.0, 996.0569049487822, 1074.439598170109, 596.5869709816761, 205.6907576629892, 0.06400000303983688, 0.576000027358532, 0.8640000410377979, 0.0, 0.0, 0.0, 0.0, 0.0, 1.7632253159942536E9, 0.0, 2025-11-15 11:48:35.994
6.0, 841.8440002258867, 849.7445388822816, 795.2616763277911, 365.9230313645676, 0.06400000303983688, 0.576000027358532, 0.8640000410377979, 0.0, 0.0, 0.0, 0.0, 0.0, 1.7632253159942536E9, 0.0, 2025-11-15 11:48:35.994
7.0, 886.8836153922603, 933.0134113957174, 849.4790059854276, 308.7680102917366, 0.06400000303983688, 0.576000027358532, 0.8640000410377979, 0.0, 0.0, 0.0, 0.0, 0.0, 1.7632253160078456E9, 0.0, 2025-11-15 11:48:36.007
7.0, 1032.5396290165372, 1143.8334418479353, 669.5972979166545, 255.86712541850284, 0.06400000303983688, 0.576000027358532, 0.8640000410377979, 0.0, 0.0, 0.0, 0.0, 0.0, 1.7632253160078456E9, 0.0, 2025-11-15 11:48:36.007
8.0, 1098.8218759312294, 1150.7223375663161, 644.8802991094999, 261.00948785757646, 0.06400000303983688, 0.576000027358532, 0.8640000410377979, 0.0, 0.0, 0.0, 0.0, 0.0, 1.7632253160235465E9, 0.0, 2025-11-15 11:48:36.023
8.0, 883.5850236313418, 1391.9084857087582, 796.6529191113077, 290.79779100464657, 0.06400000303983688, 0.576000027358532, 0.8640000410377979, 0.0, 0.0, 0.0, 0.0, 0.0, 1.7632253160235465E9, 0.0, 2025-11-15 11:48:36.023
9.0, 774.6791369216517, 1372.7003595363349, 884.1235692249611, 433.11033406853676, 0.06400000303983688, 0.576000027358532, 0.8640000410377979, 0.0, 0.0, 0.0, 0.0, 0.0, 1.7632253160242527E9, 0.0, 2025-11-15 11:48:36.024
9.0, 553.1199837466702, 1581.4971041125245, 1082.654288422782, 205.44392426591367, 0.06400000303983688, 0.576000027358532, 0.8640000410377979, 0.0, 0.0, 0.0, 0.0, 0.0, 1.7632253160242527E9, 0.0, 2025-11-15 11:48:36.024
10.0, 624.5296335006133, 1619.4084699633531, 1059.666993345134, 99.59540577000007, 0.06400000303983688, 0.576000027358532, 0.8640000410377979, 0.0, 0.0, 0.0, 0.0, 0.0, 1.7632253160385933E9, 0.0, 2025-11-15 11:48:36.038
10.0, 603.9302645446733, 1674.5645145098679, 1150.2511101718992, 138.16499401303008, 0.06400000303983688, 0.576000027358532, 0.8640000410377979, 0.0, 0.0, 0.0, 0.0, 0.0, 1.7632253160385933E9, 0.0, 2025-11-15 11:48:36.038
11.0, 527.1762977540493, 1572.8616751148365, 1089.698389989324, 198.095020852983, 0.06400000303983688, 0.576000027358532, 0.8640000410377979, 0.0, 0.0, 0.0, 0.0, 0.0, 1.7632253160535614E9, 0.0, 2025-11-15 11:48:36.053
11.0, 311.3186220615171, 1817.6156878150068, 1283.945053787902, 381.08084588497877, 0.06400000303983688, 0.576000027358532, 0.8640000410377979, 0.0, 0.0, 0.0, 0.0, 0.0, 1.7632253160535614E9, 0.0, 2025-11-15 11:48:36.053
12.0, 395.5075099640526, 1908.3269612402655, 1335.7239686744288, 304.80745623866096, 0.06400000303983688, 0.576000027358532, 0.8640000410377979, 0.0, 0.0, 0.0, 0.0, 0.0, 1.7632253160542543E9, 0.0, 2025-11-15 11:48:36.054
12.0, 564.1302492162213, 2132.214202137664, 1162.6787977246568, 258.85904538305476, 0.06400000303983688, 0.576000027358532, 0.8640000410377979, 0.0, 0.0, 0.0, 0.0, 0.0, 1.7632253160542543E9, 0.0, 2025-11-15 11:48:36.054
13.0, 617.9885484781116, 2139.4471686519682, 1140.9836380816996, 274.8545974935405, 0.06400000303983688, 0.576000027358532, 0.8640000410377979, 0.0, 0.0, 0.0, 0.0, 0.0, 1.763225316067897E9, 0.0, 2025-11-15 11:48:36.067
13.0, 398.7649628254585, 2370.4383495151997, 1284.8800287768245, 276.68714847182855, 0.06400000303983688, 0.576000027358532, 0.8640000410377979, 0.0, 0.0, 0.0, 0.0, 0.0, 1.763225316067897E9, 0.0, 2025-11-15 11:48:36.067
14.0, 272.5246398211457, 2346.001843204722, 1364.437050584238, 406.4560670843348, 0.06400000303983688, 0.576000027358532, 0.8640000410377979, 0.0, 0.0, 0.0, 0.0, 0.0, 1.7632253160835447E9, 0.0, 2025-11-15 11:48:36.083
14.0, 57.903001063968986, 2558.4524700376205, 1578.5893318969756, 217.71453602053225, 0.06400000303983688, 0.576000027358532, 0.8640000410377979, 0.0, 0.0, 0.0, 0.0, 0.0, 1.7632253160835447E9, 0.0, 2025-11-15 11:48:36.083
15.0, 94.77093482716009, 2583.9735473352484, 1534.2397282724269, 78.40139272110537, 0.06400000303983688, 0.576000027358532, 0.8640000410377979, 0.0, 0.0, 0.0, 0.0, 0.0, 1.763225316084252E9, 0.0, 2025-11-15 11:48:36.084
15.0, 137.94807981560007, 2669.452700722497, 1652.0390970767476, 156.5353825953789, 0.06400000303983688, 0.576000027358532, 0.8640000410377979, 0.0, 0.0, 0.0, 0.0, 0.0, 1.763225316084252E9, 0.0, 2025-11-15 11:48:36.084
16.0, 21.15474409935996, 2539.9399652569555, 1564.6264154124074, 190.24871074594557, 0.06400000303983688, 0.576000027358532, 0.8640000410377979, 0.0, 0.0, 0.0, 0.0, 0.0, 1.7632253160978515E9, 0.0, 2025-11-15 11:48:36.097
16.0, -181.39262765087187, 2297.925429274328, 1767.1606975127943, 370.2164365136996, 0.06400000303983688, 0.576000027358532, 0.8640000410377979, 0.0, 0.0, 0.0, 0.0, 0.0, 1.7632253160978515E9, 0.0, 2025-11-15 11:48:36.097
17.0, -82.15438232664019, 2418.2828896483406, 1845.0740332896821, 340.94610951049253, 0.06400000303983688, 0.576000027358532, 0.8640000410377979, 0.0, 0.0, 0.0, 0.0, 0.0, 1.7632253161292615E9, 0.0, 2025-11-15 11:48:36.129
17.0, 54.79888410074636, 2606.3830278697424, 1642.1134025943466, 255.60159252164885, 0.06400000303983688, 0.576000027358532, 0.8640000410377979, 0.0, 0.0, 0.0, 0.0, 0.0, 1.7632253161292615E9, 0.0, 2025-11-15 11:48:36.129
18.0, 175.92302396567538, 2642.25614824472, 1628.5338258552365, 247.78894151421264, 0.06400000303983688, 0.576000027358532, 0.8640000410377979, 0.0, 0.0, 0.0, 0.0, 0.0, 1.7632253161299672E9, 0.0, 2025-11-15 11:48:36.129
18.0, 386.0941817755811, 2859.2900224733166, 1777.5314400899224, 290.5172985079698, 0.06400000303983688, 0.576000027358532, 0.8640000410377979, 0.0, 0.0, 0.0, 0.0, 0.0, 1.7632253161299672E9, 0.0, 2025-11-15 11:48:36.129
19.0, 256.2598149138503, 2832.388922092039, 1861.3070690473542, 432.5680485749617, 0.06400000303983688, 0.576000027358532, 0.8640000410377979, 0.0, 0.0, 0.0, 0.0, 0.0, 1.763225316130708E9, 0.0, 2025-11-15 11:48:36.130
19.0, 51.44419384049252, 3056.478117587045, 2068.9968032366596, 198.5438088476658, 0.06400000303983688, 0.576000027358532, 0.8640000410377979, 0.0, 0.0, 0.0, 0.0, 0.0, 1.763225316130708E9, 0.0, 2025-11-15 11:48:36.130
20.0, 123.13807599106804, 3082.548960178159, 2023.4429518263787, 81.18761818809435, 0.06400000303983688, 0.576000027358532, 0.8640000410377979, 0.0, 0.0, 0.0, 0.0, 0.0, 1.7632253161435564E9, 0.0, 2025-11-15 11:48:36.143
20.0, 124.53305867454037, 3160.645551052876, 2141.066545332782, 157.73215058119968, 0.06400000303983688, 0.576000027358532, 0.8640000410377979, 0.0, 0.0, 0.0, 0.0, 0.0, 1.7632253161435564E9, 0.0, 2025-11-15 11:48:36.143
21.0, 7.874359356705099, 3037.266251514666, 2062.562305362895, 204.8717195726931, 0.06400000303983688, 0.576000027358532, 0.8640000410377979, 0.0, 0.0, 0.0, 0.0, 0.0, 1.7632253161442735E9, 0.0, 2025-11-15 11:48:36.144
21.0, -177.4208538979292, 2799.885451577138, 2261.5549022052437, 374.6669174609706, 0.06400000303983688, 0.576000027358532, 0.8640000410377979, 0.0, 0.0, 0.0, 0.0, 0.0, 1.7632253161442735E9, 0.0, 2025-11-15 11:48:36.144
22.0, -97.54407064430416, 2896.5095068323426, 2315.8881687615067, 311.1017078640871, 0.06400000303983688, 0.576000027358532, 0.8640000410377979, 0.0, 0.0, 0.0, 0.0, 0.0, 1.76322531615789E9, 0.0, 2025-11-15 11:48:36.157
22.0, 67.93341274512932, 3104.7826654147357, 2133.2576342253014, 260.2951669660397, 0.06400000303983688, 0.576000027358532, 0.8640000410377979, 0.0, 0.0, 0.0, 0.0, 0.0, 1.76322531615789E9, 0.0, 2025-11-15 11:48:36.157
23.0, 129.2303730188869, 3117.8311763601378, 2126.03962731082, 288.187340835575, 0.06400000303983688, 0.576000027358532, 0.8640000410377979, 0.0, 0.0, 0.0, 0.0, 0.0, 1.7632253161735804E9, 0.0, 2025-11-15 11:48:36.173
23.0, -112.84774126298726, 3336.5255661690608, 2255.2830899795517, 249.4513270445168, 0.06400000303983688, 0.576000027358532, 0.8640000410377979, 0.0, 0.0, 0.0, 0.0, 0.0, 1.7632253161735804E9, 0.0, 2025-11-15 11:48:36.173
24.0, -199.88643293175846, 3318.1701371865347, 2330.707522335928, 400.85930680064484, 0.06400000303983688, 0.576000027358532, 0.8640000410377979, 0.0, 0.0, 0.0, 0.0, 0.0, 1.7632253161742876E9, 0.0, 2025-11-15 11:48:36.174
24.0, 30.104324693325907, 3535.269459664356, 2545.394609342329, 196.35783732356504, 0.06400000303983688, 0.576000027358532, 0.8640000410377979, 0.0, 0.0, 0.0, 0.0, 0.0, 1.7632253161742876E9, 0.0, 2025-11-15 11:48:36.174
25.0, 105.53436689963564, 3563.636600828264, 2510.701427403372, 85.9279413819313, 0.06400000303983688, 0.576000027358532, 0.8640000410377979, 0.0, 0.0, 0.0, 0.0, 0.0, 1.7632253161885657E9, 0.0, 2025-11-15 11:48:36.188
25.0, 163.38313941424713, 3668.80632748222, 2647.4134702836163, 191.5688954303041, 0.06400000303983688, 0.576000027358532, 0.8640000410377979, 0.0, 0.0, 0.0, 0.0, 0.0, 1.7632253161885657E9, 0.0, 2025-11-15 11:48:36.188
26.0, 50.81215074798092, 3538.889682821464, 2550.4191649327986, 201.1149900672026, 0.06400000303983688, 0.576000027358532, 0.8640000410377979, 0.0, 0.0, 0.0, 0.0, 0.0, 1.7632253162036057E9, 0.0, 2025-11-15 11:48:36.203
26.0, 262.15763714397326, 3760.60965169454, 2732.780426672194, 358.669495400507, 0.06400000303983688, 0.576000027358532, 0.8640000410377979, 0.0, 0.0, 0.0, 0.0, 0.0, 1.7632253162036057E9, 0.0, 2025-11-15 11:48:36.203
27.0, 389.81912213144824, 3877.5563233089633, 2811.4454823401757, 311.3765905108303, 0.06400000303983688, 0.576000027358532, 0.8640000410377979, 0.0, 0.0, 0.0, 0.0, 0.0, 1.7632253162042885E9, 0.0, 2025-11-15 11:48:36.204
27.0, 561.1869479510933, 4084.6701129050925, 2620.5011502024718, 251.54941091965884, 0.06400000303983688, 0.576000027358532, 0.8640000410377979, 0.0, 0.0, 0.0, 0.0, 0.0, 1.7632253162042885E9, 0.0, 2025-11-15 11:48:36.204
28.0, 613.5530271306634, 4091.1251802286133, 2597.339949776884, 257.7613847460598, 0.06400000303983688, 0.576000027358532, 0.8640000410377979, 0.0, 0.0, 0.0, 0.0, 0.0, 1.7632253162179043E9, 0.0, 2025-11-15 11:48:36.217
28.0, 404.00456266338006, 4331.746603477746, 2759.3935547568835, 279.0152361942455, 0.06400000303983688, 0.576000027358532, 0.8640000410377979, 0.0, 0.0, 0.0, 0.0, 0.0, 1.7632253162179043E9, 0.0, 2025-11-15 11:48:36.217
29.0, 289.8179372162558, 4311.091136022471, 2845.379464588128, 437.49910666653886, 0.06400000303983688, 0.576000027358532, 0.8640000410377979, 0.0, 0.0, 0.0, 0.0, 0.0, 1.7632253162335825E9, 0.0, 2025-11-15 11:48:36.233
29.0, 517.7442700657994, 4517.939392721746, 3046.008267661091, 214.40285460976884, 0.06400000303983688, 0.576000027358532, 0.8640000410377979, 0.0, 0.0, 0.0, 0.0, 0.0, 1.7632253162335825E9, 0.0, 2025-11-15 11:48:36.233
30.0, 591.3230617940426, 4551.549873623531, 3007.440549368039, 90.83843002375215, 0.06400000303983688, 0.576000027358532, 0.8640000410377979, 0.0, 0.0, 0.0, 0.0, 0.0, 1.7632253162342868E9, 0.0, 2025-11-15 11:48:36.234
30.0, 638.4981598351151, 4642.201308649499, 3133.108667679131, 173.3780220458284, 0.06400000303983688, 0.576000027358532, 0.8640000410377979, 0.0, 0.0, 0.0, 0.0, 0.0, 1.7632253162342868E9, 0.0, 2025-11-15 11:48:36.234
31.0, 499.826409378089, 4507.968819439877, 3039.652307686396, 191.12571728555486, 0.06400000303983688, 0.576000027358532, 0.8640000410377979, 0.0, 0.0, 0.0, 0.0, 0.0, 1.7632253162479243E9, 0.0, 2025-11-15 11:48:36.247
31.0, 316.2029314036481, 4272.155037583783, 3247.624404322356, 375.76831799792126, 0.06400000303983688, 0.576000027358532, 0.8640000410377979, 0.0, 0.0, 0.0, 0.0, 0.0, 1.7632253162479243E9, 0.0, 2025-11-15 11:48:36.247
32.0, 393.41316598886624, 4364.683902387507, 3294.5339694665745, 313.13060359004885, 0.06400000303983688, 0.576000027358532, 0.8640000410377979, 0.0, 0.0, 0.0, 0.0, 0.0, 1.76322531626359E9, 0.0, 2025-11-15 11:48:36.263
32.0, 581.995751304552, 4588.077476490755, 3120.086336033419, 266.3145359447226, 0.06400000303983688, 0.576000027358532, 0.8640000410377979, 0.0, 0.0, 0.0, 0.0, 0.0, 1.76322531626359E9, 0.0, 2025-11-15 11:48:36.263
33.0, 605.2691487288103, 4579.16155499639, 3088.401903608814, 252.17023431230336, 0.06400000303983688, 0.576000027358532, 0.8640000410377979, 0.0, 0.0, 0.0, 0.0, 0.0, 1.7632253162642837E9, 0.0, 2025-11-15 11:48:36.264
33.0, 411.86583237024024, 4342.476376450621, 3268.186374278739, 307.82368555292487, 0.06400000303983688, 0.576000027358532, 0.8640000410377979, 0.0, 0.0, 0.0, 0.0, 0.0, 1.7632253162642837E9, 0.0, 2025-11-15 11:48:36.264
34.0, 315.6793454098515, 4311.106095622294, 3332.757616963703, 440.84257722692564, 0.06400000303983688, 0.576000027358532, 0.8640000410377979, 0.0, 0.0, 0.0, 0.0, 0.0, 1.763225316277958E9, 0.0, 2025-11-15 11:48:36.277
34.0, 509.12006076797843, 4522.10938117234, 3547.9757697638124, 233.0200765891932, 0.06400000303983688, 0.576000027358532, 0.8640000410377979, 0.0, 0.0, 0.0, 0.0, 0.0, 1.763225316277958E9, 0.0, 2025-11-15 11:48:36.277
35.0, 613.3248932333663, 4565.327665060293, 3499.8675666837953, 69.4424623772502, 0.06400000303983688, 0.576000027358532, 0.8640000410377979, 0.0, 0.0, 0.0, 0.0, 0.0, 1.763225316293583E9, 0.0, 2025-11-15 11:48:36.293
35.0, 640.139975915663, 4642.395783447195, 3618.665488776285, 169.7802382884547, 0.06400000303983688, 0.576000027358532, 0.8640000410377979, 0.0, 0.0, 0.0, 0.0, 0.0, 1.763225316293583E9, 0.0, 2025-11-15 11:48:36.293
36.0, 521.4430311219767, 4524.443078744691, 3548.691960605327, 219.20862605283037, 0.06400000303983688, 0.576000027358532, 0.8640000410377979, 0.0, 0.0, 0.0, 0.0, 0.0, 1.763225316294278E9, 0.0, 2025-11-15 11:48:36.294
36.0, 341.6529506021179, 4285.992667419836, 3746.917877956759, 409.92856419319287, 0.06400000303983688, 0.576000027358532, 0.8640000410377979, 0.0, 0.0, 0.0, 0.0, 0.0, 1.763225316294278E9, 0.0, 2025-11-15 11:48:36.294
37.0, 378.5395838650875, 4365.607657676563, 3792.944826711435, 303.5901188030839, 0.06400000303983688, 0.576000027358532, 0.8640000410377979, 0.0, 0.0, 0.0, 0.0, 0.0, 1.7632253163079412E9, 0.0, 2025-11-15 11:48:36.307
37.0, 560.3118113614619, 4578.192920907866, 3608.197508800309, 261.979991896078, 0.06400000303983688, 0.576000027358532, 0.8640000410377979, 0.0, 0.0, 0.0, 0.0, 0.0, 1.7632253163079412E9, 0.0, 2025-11-15 11:48:36.307
38.0, 623.4226231137291, 4596.682986288797, 3595.78852074733, 268.88010731432587, 0.06400000303983688, 0.576000027358532, 0.8640000410377979, 0.0, 0.0, 0.0, 0.0, 0.0, 1.763225316323567E9, 0.0, 2025-11-15 11:48:36.323
38.0, 387.81827565515414, 4830.456652719062, 3750.115492418874, 294.63305840920657, 0.06400000303983688, 0.576000027358532, 0.8640000410377979, 0.0, 0.0, 0.0, 0.0, 0.0, 1.763225316323567E9, 0.0, 2025-11-15 11:48:36.323
39.0, 312.2797763501294, 4815.21282049967, 3825.087396880612, 436.65762917650864, 0.06400000303983688, 0.576000027358532, 0.8640000410377979, 0.0, 0.0, 0.0, 0.0, 0.0, 1.7632253163242764E9, 0.0, 2025-11-15 11:48:36.324
39.0, 552.132650158368, 5028.288010625169, 4043.6265808413737, 232.52266989508644, 0.06400000303983688, 0.576000027358532, 0.8640000410377979, 0.0, 0.0, 0.0, 0.0, 0.0, 1.7632253163242764E9, 0.0, 2025-11-15 11:48:36.324
40.0, 608.661237988621, 5048.075821290724, 3989.6542146308348, 104.44418606255203, 0.06400000303983688, 0.576000027358532, 0.8640000410377979, 0.0, 0.0, 0.0, 0.0, 0.0, 1.76322531633789E9, 0.0, 2025-11-15 11:48:36.337
40.0, 656.2178058251739, 5142.5157749718055, 4116.9080505231395, 181.7142590470612, 0.06400000303983688, 0.576000027358532, 0.8640000410377979, 0.0, 0.0, 0.0, 0.0, 0.0, 1.76322531633789E9, 0.0, 2025-11-15 11:48:36.337
41.0, 517.265562871471, 5014.431681289338, 4030.7594550438225, 215.29669069917873, 0.06400000303983688, 0.576000027358532, 0.8640000410377979, 0.0, 0.0, 0.0, 0.0, 0.0, 1.7632253163535607E9, 0.0, 2025-11-15 11:48:36.353
41.0, 312.74726384459063, 4769.6870183390565, 4230.870281972922, 386.4681717711501, 0.06400000303983688, 0.576000027358532, 0.8640000410377979, 0.0, 0.0, 0.0, 0.0, 0.0, 1.7632253163535607E9, 0.0, 2025-11-15 11:48:36.353
42.0, 408.48870271025226, 4868.442816569004, 4290.256153369322, 318.3814231278375, 0.06400000303983688, 0.576000027358532, 0.8640000410377979, 0.0, 0.0, 0.0, 0.0, 0.0, 1.7632253163542805E9, 0.0, 2025-11-15 11:48:36.354
42.0, 572.7469787141308, 5076.259707356803, 4105.987542652525, 263.9135201731697, 0.06400000303983688, 0.576000027358532, 0.8640000410377979, 0.0, 0.0, 0.0, 0.0, 0.0, 1.7632253163542805E9, 0.0, 2025-11-15 11:48:36.354
43.0, 618.0895257769153, 5082.527779682539, 4082.411213331856, 265.6750130522996, 0.06400000303983688, 0.576000027358532, 0.8640000410377979, 0.0, 0.0, 0.0, 0.0, 0.0, 1.7632253163678906E9, 0.0, 2025-11-15 11:48:36.367
43.0, 384.3027696968056, 5314.966301828623, 4236.427773307078, 289.8347667660564, 0.06400000303983688, 0.576000027358532, 0.8640000410377979, 0.0, 0.0, 0.0, 0.0, 0.0, 1.7632253163678906E9, 0.0, 2025-11-15 11:48:36.367
44.0, 306.1313808229752, 5305.171503844671, 4323.808665821794, 438.3331043566577, 0.06400000303983688, 0.576000027358532, 0.8640000410377979, 0.0, 0.0, 0.0, 0.0, 0.0, 1.7632253163835685E9, 0.0, 2025-11-15 11:48:36.383
44.0, 70.95899180928245, 5524.855097191874, 4533.2636327901855, 228.99594423687086, 0.06400000303983688, 0.576000027358532, 0.8640000410377979, 0.0, 0.0, 0.0, 0.0, 0.0, 1.7632253163835685E9, 0.0, 2025-11-15 11:48:36.383
45.0, 148.03085009614006, 5553.6485869507305, 4489.25809996156, 89.27141194231808, 0.06400000303983688, 0.576000027358532, 0.8640000410377979, 0.0, 0.0, 0.0, 0.0, 0.0, 1.7632253163842678E9, 0.0, 2025-11-15 11:48:36.384
45.0, 145.80934952246025, 5624.220499114599, 4605.980377578642, 172.31589045841247, 0.06400000303983688, 0.576000027358532, 0.8640000410377979, 0.0, 0.0, 0.0, 0.0, 0.0, 1.7632253163842678E9, 0.0, 2025-11-15 11:48:36.384
46.0, 24.326179261785, 5494.285154954065, 4520.946272286121, 207.95900698611513, 0.06400000303983688, 0.576000027358532, 0.8640000410377979, 0.0, 0.0, 0.0, 0.0, 0.0, 1.7632253163978896E9, 0.0, 2025-11-15 11:48:36.397
46.0, -170.524478379637, 5258.452673598193, 4719.699515531305, 386.44199247146025, 0.06400000303983688, 0.576000027358532, 0.8640000410377979, 0.0, 0.0, 0.0, 0.0, 0.0, 1.7632253163978896E9, 0.0, 2025-11-15 11:48:36.397
47.0, -73.1823623329401, 5369.475343682803, 4790.435983293224, 321.47432039119303, 0.06400000303983688, 0.576000027358532, 0.8640000410377979, 0.0, 0.0, 0.0, 0.0, 0.0, 1.7632253164135823E9, 0.0, 2025-11-15 11:48:36.413
47.0, 81.21379748778418, 5568.211757378187, 4597.6553602772765, 273.29318926203996, 0.06400000303983688, 0.576000027358532, 0.8640000410377979, 0.0, 0.0, 0.0, 0.0, 0.0, 1.7632253164135823E9, 0.0, 2025-11-15 11:48:36.413
48.0, 120.06387822749093, 5573.219483418856, 4573.940654658247, 253.20992649998516, 0.06400000303983688, 0.576000027358532, 0.8640000410377979, 0.0, 0.0, 0.0, 0.0, 0.0, 1.7632253164142797E9, 0.0, 2025-11-15 11:48:36.414
48.0, -85.25849928986281, 5331.713573830202, 4740.111889489461, 293.8401996186003, 0.06400000303983688, 0.576000027358532, 0.8640000410377979, 0.0, 0.0, 0.0, 0.0, 0.0, 1.7632253164142797E9, 0.0, 2025-11-15 11:48:36.414
49.0, -203.73478998616338, 5287.111526958644, 4791.922593525611, 410.698983584065, 0.06400000303983688, 0.576000027358532, 0.8640000410377979, 0.0, 0.0, 0.0, 0.0, 0.0, 1.7632253164443347E9, 0.0, 2025-11-15 11:48:36.444
49.0, -435.0176830459386, 5512.251634341199, 5014.844940234441, 229.717744928319, 0.06400000303983688, 0.576000027358532, 0.8640000410377979, 0.0, 0.0, 0.0, 0.0, 0.0, 1.7632253164443347E9, 0.0, 2025-11-15 11:48:36.444
50.0, -352.22751772683114, 5543.823869767133, 4973.232943377458, 85.49785288702697, 0.06400000303983688, 0.576000027358532, 0.8640000410377979, 0.0, 0.0, 0.0, 0.0, 0.0, 1.7632253164450014E9, 0.0, 2025-11-15 11:48:36.445
50.0, -343.1582603342831, 5619.182853874285, 5085.661815845408, 170.42350108083338, 0.06400000303983688, 0.576000027358532, 0.8640000410377979, 0.0, 0.0, 0.0, 0.0, 0.0, 1.7632253164450014E9, 0.0, 2025-11-15 11:48:36.445
51.0, -464.5890719955787, 5496.435597428586, 5006.633989881724, 207.3419234934263, 0.06400000303983688, 0.576000027358532, 0.8640000410377979, 0.0, 0.0, 0.0, 0.0, 0.0, 1.7632253164457567E9, 0.0, 2025-11-15 11:48:36.445
51.0, -628.4995373035781, 5269.504077967256, 5218.331026873551, 382.99380471231416, 0.06400000303983688, 0.576000027358532, 0.8640000410377979, 0.0, 0.0, 0.0, 0.0, 0.0, 1.7632253164457567E9, 0.0, 2025-11-15 11:48:36.445
52.0, -599.0740044522099, 5349.392080920748, 5265.0760364197195, 310.6211307197809, 0.06400000303983688, 0.576000027358532, 0.8640000410377979, 0.0, 0.0, 0.0, 0.0, 0.0, 1.763225316457886E9, 0.0, 2025-11-15 11:48:36.457
52.0, -428.11756762769073, 5550.342515389901, 5073.581938988529, 257.2003997527063, 0.06400000303983688, 0.576000027358532, 0.8640000410377979, 0.0, 0.0, 0.0, 0.0, 0.0, 1.763225316457886E9, 0.0, 2025-11-15 11:48:36.457
53.0, -362.0971137098968, 5572.045154832769, 5056.748649287969, 265.6413539526984, 0.06400000303983688, 0.576000027358532, 0.8640000410377979, 0.0, 0.0, 0.0, 0.0, 0.0, 1.7632253164736345E9, 0.0, 2025-11-15 11:48:36.473
53.0, -579.0730194891803, 5329.787525353022, 5221.8016540324315, 291.19235044997185, 0.06400000303983688, 0.576000027358532, 0.8640000410377979, 0.0, 0.0, 0.0, 0.0, 0.0, 1.7632253164736345E9, 0.0, 2025-11-15 11:48:36.473
54.0, -679.0667246044613, 5286.801115262322, 5280.213281490374, 418.4106572926976, 0.06400000303983688, 0.576000027358532, 0.8640000410377979, 0.0, 0.0, 0.0, 0.0, 0.0, 1.7632253164743133E9, 0.0, 2025-11-15 11:48:36.474
54.0, -892.9441232704557, 5514.675089512486, 5499.182553946041, 207.0763905965723, 0.06400000303983688, 0.576000027358532, 0.8640000410377979, 0.0, 0.0, 0.0, 0.0, 0.0, 1.7632253164743133E9, 0.0, 2025-11-15 11:48:36.474
55.0, -847.4557201093994, 5549.650633898098, 5466.048910288606, 102.16284708958119, 0.06400000303983688, 0.576000027358532, 0.8640000410377979, 0.0, 0.0, 0.0, 0.0, 0.0, 1.763225316487883E9, 0.0, 2025-11-15 11:48:36.487
55.0, -861.4466858436354, 5603.946501454804, 5567.534835486207, 163.2952517652884, 0.06400000303983688, 0.576000027358532, 0.8640000410377979, 0.0, 0.0, 0.0, 0.0, 0.0, 1.763225316487883E9, 0.0, 2025-11-15 11:48:36.487
56.0, -952.3599138665013, 5497.303254218306, 5499.33027999429, 206.13019590778276, 0.06400000303983688, 0.576000027358532, 0.8640000410377979, 0.0, 0.0, 0.0, 0.0, 0.0, 1.7632253165042496E9, 0.0, 2025-11-15 11:48:36.504
56.0, -1161.5381282381713, 5741.4813223253, 5692.122122710105, 372.95591323124245, 0.06400000303983688, 0.576000027358532, 0.8640000410377979, 0.0, 0.0, 0.0, 0.0, 0.0, 1.7632253165042496E9, 0.0, 2025-11-15 11:48:36.504
57.0, -1060.3476551370695, 5848.10587006202, 5760.603430798743, 323.54622496664524, 0.06400000303983688, 0.576000027358532, 0.8640000410377979, 0.0, 0.0, 0.0, 0.0, 0.0, 1.7632253165049741E9, 0.0, 2025-11-15 11:48:36.504
57.0, -899.0364202982746, 6057.452379931696, 5574.793981300201, 269.7290646042675, 0.06400000303983688, 0.576000027358532, 0.8640000410377979, 0.0, 0.0, 0.0, 0.0, 0.0, 1.7632253165049741E9, 0.0, 2025-11-15 11:48:36.504
58.0, -848.846962892916, 6059.976812401786, 5551.247571179178, 264.07433587126434, 0.06400000303983688, 0.576000027358532, 0.8640000410377979, 0.0, 0.0, 0.0, 0.0, 0.0, 1.7632253165178711E9, 0.0, 2025-11-15 11:48:36.517
58.0, -1069.1775589324534, 6303.822029412724, 5711.412526681554, 291.75333544332534, 0.06400000303983688, 0.576000027358532, 0.8640000410377979, 0.0, 0.0, 0.0, 0.0, 0.0, 1.7632253165178711E9, 0.0, 2025-11-15 11:48:36.517
59.0, -1153.0822144383565, 6294.128208727576, 5800.663369174115, 437.9217153615318, 0.06400000303983688, 0.576000027358532, 0.8640000410377979, 0.0, 0.0, 0.0, 0.0, 0.0, 1.7632253165335922E9, 0.0, 2025-11-15 11:48:36.533
59.0, -937.2731574452482, 6496.200613183435, 6003.491233421024, 233.03129628906026, 0.06400000303983688, 0.576000027358532, 0.8640000410377979, 0.0, 0.0, 0.0, 0.0, 0.0, 1.7632253165335922E9, 0.0, 2025-11-15 11:48:36.533
60.0, -883.4148581833579, 6493.8313865615055, 5933.467216600664, 69.94734887126833, 0.06400000303983688, 0.576000027358532, 0.8640000410377979, 0.0, 0.0, 0.0, 0.0, 0.0, 1.7632253165343096E9, 0.0, 2025-11-15 11:48:36.534
60.0, -824.2533807842992, 6597.568731532432, 6069.120867793448, 163.17183506675065, 0.06400000303983688, 0.576000027358532, 0.8640000410377979, 0.0, 0.0, 0.0, 0.0, 0.0, 1.7632253165343096E9, 0.0, 2025-11-15 11:48:36.534
61.0, -950.119713793043, 6476.837281162851, 5989.195465840399, 213.07145022554323, 0.06400000303983688, 0.576000027358532, 0.8640000410377979, 0.0, 0.0, 0.0, 0.0, 0.0, 1.763225316548008E9, 0.0, 2025-11-15 11:48:36.548
61.0, -1175.6786899706349, 6701.410793702118, 6171.261275483295, 360.16545538278297, 0.06400000303983688, 0.576000027358532, 0.8640000410377979, 0.0, 0.0, 0.0, 0.0, 0.0, 1.763225316548008E9, 0.0, 2025-11-15 11:48:36.548
62.0, -1061.028316929005, 6822.95754226204, 6254.152418101206, 335.29699062742293, 0.06400000303983688, 0.576000027358532, 0.8640000410377979, 0.0, 0.0, 0.0, 0.0, 0.0, 1.7632253165636096E9, 0.0, 2025-11-15 11:48:36.563
62.0, -879.2486096327193, 7057.357641934883, 6085.292195201851, 287.90123848896474, 0.06400000303983688, 0.576000027358532, 0.8640000410377979, 0.0, 0.0, 0.0, 0.0, 0.0, 1.7632253165636096E9, 0.0, 2025-11-15 11:48:36.563
63.0, -849.5912029840983, 7043.677087896969, 6041.325931322761, 262.4586990904063, 0.06400000303983688, 0.576000027358532, 0.8640000410377979, 0.0, 0.0, 0.0, 0.0, 0.0, 1.7632253165643191E9, 0.0, 2025-11-15 11:48:36.564
63.0, -619.7145123076625, 7254.700942896772, 6178.643837995827, 269.1568599110469, 0.06400000303983688, 0.576000027358532, 0.8640000410377979, 0.0, 0.0, 0.0, 0.0, 0.0, 1.7632253165643191E9, 0.0, 2025-11-15 11:48:36.564
64.0, -665.4684483655728, 7274.48688361235, 6287.020528861787, 444.98264647787437, 0.06400000303983688, 0.576000027358532, 0.8640000410377979, 0.0, 0.0, 0.0, 0.0, 0.0, 1.7632253165779476E9, 0.0, 2025-11-15 11:48:36.577
64.0, -895.5209143399261, 7483.283628188539, 6495.570440040901, 244.58758715214208, 0.06400000303983688, 0.576000027358532, 0.8640000410377979, 0.0, 0.0, 0.0, 0.0, 0.0, 1.7632253165779476E9, 0.0, 2025-11-15 11:48:36.577
65.0, -899.1804064465687, 7465.218041452579, 6408.129709126893, 65.82971902005374, 0.06400000303983688, 0.576000027358532, 0.8640000410377979, 0.0, 0.0, 0.0, 0.0, 0.0, 1.7632253165935843E9, 0.0, 2025-11-15 11:48:36.593
65.0, -838.6538655636832, 7573.738718466833, 6554.4121559937485, 169.8176372880116, 0.06400000303983688, 0.576000027358532, 0.8640000410377979, 0.0, 0.0, 0.0, 0.0, 0.0, 1.7632253165935843E9, 0.0, 2025-11-15 11:48:36.593
66.0, -928.194550302811, 7470.554878689349, 6492.823483523447, 227.91511314967647, 0.06400000303983688, 0.576000027358532, 0.8640000410377979, 0.0, 0.0, 0.0, 0.0, 0.0, 1.763225316594293E9, 0.0, 2025-11-15 11:48:36.594
66.0, -1154.5015064715408, 7701.538579752669, 6675.008969964925, 384.4635853949003, 0.06400000303983688, 0.576000027358532, 0.8640000410377979, 0.0, 0.0, 0.0, 0.0, 0.0, 1.763225316594293E9, 0.0, 2025-11-15 11:48:36.594
67.0, -1032.4797906172462, 7812.179780041799, 6736.410647437442, 314.2600533766672, 0.06400000303983688, 0.576000027358532, 0.8640000410377979, 0.0, 0.0, 0.0, 0.0, 0.0, 1.7632253166079504E9, 0.0, 2025-11-15 11:48:36.607
67.0, -919.1664318097755, 8014.379341096152, 6550.369324141648, 264.44832586683333, 0.06400000303983688, 0.576000027358532, 0.8640000410377979, 0.0, 0.0, 0.0, 0.0, 0.0, 1.7632253166079504E9, 0.0, 2025-11-15 11:48:36.607
68.0, -859.0363203221932, 8023.863727383781, 6529.605399587657, 261.2058326052502, 0.06400000303983688, 0.576000027358532, 0.8640000410377979, 0.0, 0.0, 0.0, 0.0, 0.0, 1.7632253166236076E9, 0.0, 2025-11-15 11:48:36.623
68.0, -1095.5195442703553, 8250.464265699033, 6683.84635356022, 285.00281602330506, 0.06400000303983688, 0.576000027358532, 0.8640000410377979, 0.0, 0.0, 0.0, 0.0, 0.0, 1.7632253166236076E9, 0.0, 2025-11-15 11:48:36.623
69.0, -1160.747139397543, 8242.315023695584, 6763.268738969229, 431.9303956325166, 0.06400000303983688, 0.576000027358532, 0.8640000410377979, 0.0, 0.0, 0.0, 0.0, 0.0, 1.7632253166243112E9, 0.0, 2025-11-15 11:48:36.624
69.0, -918.3960124189034, 8449.44003299158, 6976.643121091183, 224.74741788720712, 0.06400000303983688, 0.576000027358532, 0.8640000410377979, 0.0, 0.0, 0.0, 0.0, 0.0, 1.7632253166243112E9, 0.0, 2025-11-15 11:48:36.624
70.0, -868.4122495111078, 8459.874353867956, 6918.044498635456, 83.87099640630186, 0.06400000303983688, 0.576000027358532, 0.8640000410377979, 0.0, 0.0, 0.0, 0.0, 0.0, 1.7632253166380036E9, 0.0, 2025-11-15 11:48:36.638
70.0, -840.815527738072, 8542.398986290209, 7033.82806136366, 163.39248916413635, 0.06400000303983688, 0.576000027358532, 0.8640000410377979, 0.0, 0.0, 0.0, 0.0, 0.0, 1.7632253166380036E9, 0.0, 2025-11-15 11:48:36.638
