%OpenBCI Raw EXG Data
%Number of channels = 4
%Sample Rate = 200 Hz
%Board = OpenBCI_GUI$BoardGanglionBLE
Sample Index, EXG Channel 0, EXG Channel 1, EXG Channel 2, EXG Channel 3, Accel Channel 0, Accel Channel 1, Accel Channel 2, Other, Other, Other, Other, Other, Timestamp, Marker Channel, Timestamp (Formatted)
75.0, -68.43081943923607, -120.49770662235096, -205.41961491620168, 224.82408583629876, 0.0, 0.0, 0.0, 0.0, 0.0, 0.0, 0.0, 0.0, 1.7632259940857453E9, 0.0, 2025-11-15 11:59:54.085
75.0, -142.6790532595478, -251.92153096524999, -249.27742169657722, 183.4159135269001, 0.0, 0.0, 0.0, 0.0, 0.0, 0.0, 0.0, 0.0, 1.7632259940857453E9, 0.0, 2025-11-15 11:59:54.085
0.0, -235.0583220650442, -145.72894167341292, -184.6388608124107, -130.6870640516281, 0.0, 0.0, 0.0, 0.0, 0.0, 0.0, 0.0, 0.0, 1.7632259941097996E9, 0.0, 2025-11-15 11:59:54.109
1.0, -453.72092272434384, -387.1712729628198, 41.628826406784356, 73.83310492523015, 0.0, 0.1600000075995922, 0.0, 0.0, 0.0, 0.0, 0.0, 0.0, 1.7632259941402063E9, 0.0, 2025-11-15 11:59:54.140
1.0, -683.1862244056538, -585.7936197095551, -105.69705254770815, -70.11564436927438, 0.0, 0.1600000075995922, 0.0, 0.0, 0.0, 0.0, 0.0, 0.0, 1.7632259941402063E9, 0.0, 2025-11-15 11:59:54.140
2.0, -766.2120034219697, -667.4094564425759, -205.02879537083209, -156.54847224522382, -0.04800000227987766, 0.1600000075995922, 0.0, 0.0, 0.0, 0.0, 0.0, 0.0, 1.7632259941415808E9, 0.0, 2025-11-15 11:59:54.141
2.0, -998.9515875144862, -446.7815383565612, -23.636167719960213, 10.09025008045137, -0.04800000227987766, 0.1600000075995922, 0.0, 0.0, 0.0, 0.0, 0.0, 0.0, 1.7632259941415808E9, 0.0, 2025-11-15 11:59:54.141
3.0, -1069.7404138757847, -493.19743670662865, -29.911719845607877, 3.137776062823832, -0.04800000227987766, 0.1600000075995922, 0.0, 0.0, 0.0, 0.0, 0.0, 0.0, 1.763225994142305E9, 0.0, 2025-11-15 11:59:54.142
3.0, -1273.2508098646067, -697.5642697853036, -231.39882995840162, -179.92658686824143, -0.04800000227987766, 0.1600000075995922, 0.0, 0.0, 0.0, 0.0, 0.0, 0.0, 1.763225994142305E9, 0.0, 2025-11-15 11:59:54.142
4.0, -1119.3763660877012, -558.5484485323541, -120.73519026953727, -77.71512107923627, -0.04800000227987766, 0.1600000075995922, 0.0, 0.0, 0.0, 0.0, 0.0, 0.0, 1.763225994153098E9, 0.0, 2025-11-15 11:59:54.153
4.0, -976.7702408772893, -402.2505495841615, 42.68347819428891, 69.39010377787054, -0.04800000227987766, 0.1600000075995922, 0.0, 0.0, 0.0, 0.0, 0.0, 0.0, 1.763225994153098E9, 0.0, 2025-11-15 11:59:54.153
5.0, -750.9532116027549, -171.27245837077498, -196.0941743766889, -164.36112325266004, -0.04800000227987766, 0.1600000075995922, 0.0, 0.0, 0.0, 0.0, 0.0, 0.0, 1.7632259941688132E9, 0.0, 2025-11-15 11:59:54.168
5.0, -729.037397862412, -162.9250016696751, -204.49772957712412, -156.1520428499207, -0.04800000227987766, 0.1600000075995922, 0.0, 0.0, 0.0, 0.0, 0.0, 0.0, 1.7632259941688132E9, 0.0, 2025-11-15 11:59:54.168
6.0, -955.8230612254702, 78.37708337139338, 10.198707179166377, 28.049249667674303, -0.04800000227987766, 0.1600000075995922, 0.0, 0.0, 0.0, 0.0, 0.0, 0.0, 1.7632259941695073E9, 0.0, 2025-11-15 11:59:54.169
6.0, -1169.7939573903568, -100.70428610686213, -119.95729107875377, -89.34994984138757, -0.04800000227987766, 0.1600000075995922, 0.0, 0.0, 0.0, 0.0, 0.0, 0.0, 1.7632259941695073E9, 0.0, 2025-11-15 11:59:54.169
7.0, -1253.6425143969245, -180.4239935623482, -221.83590577170253, -175.25919172354043, -0.04800000227987766, 0.1600000075995922, 0.0, 0.0, 0.0, 0.0, 0.0, 0.0, 1.763225994183126E9, 0.0, 2025-11-15 11:59:54.183
7.0, -1035.8793596769683, 7.5845171101391315, -63.18934965133667, -34.90822618640959, -0.04800000227987766, 0.1600000075995922, 0.0, 0.0, 0.0, 0.0, 0.0, 0.0, 1.763225994183126E9, 0.0, 2025-11-15 11:59:54.183
8.0, -1072.9230687380768, -6.309211225248873, -42.055175001733005, -15.389688317663968, -0.04800000227987766, 0.1600000075995922, 0.0, 0.0, 0.0, 0.0, 0.0, 0.0, 1.7632259941986375E9, 0.0, 2025-11-15 11:59:54.198
8.0, -1275.1469391421415, -205.91889156028628, -238.47472067456692, -204.00406278297305, -0.04800000227987766, 0.1600000075995922, 0.0, 0.0, 0.0, 0.0, 0.0, 0.0, 1.7632259941986375E9, 0.0, 2025-11-15 11:59:54.198
9.0, -1135.394357597921, -96.33608295861632, -153.31719868350774, -123.46157733723521, -0.04800000227987766, 0.1600000075995922, 0.0, 0.0, 0.0, 0.0, 0.0, 0.0, 1.7632259942138224E9, 0.0, 2025-11-15 11:59:54.213
9.0, -952.7675629616715, 89.05449774488807, 36.852974163368344, 71.21517495624721, -0.04800000227987766, 0.1600000075995922, 0.0, 0.0, 0.0, 0.0, 0.0, 0.0, 1.7632259942138224E9, 0.0, 2025-11-15 11:59:54.213
10.0, -794.7623996837065, 284.27914538187906, 257.445363199804, 298.9657325078733, -0.04800000227987766, 0.1600000075995922, 1.0240000486373901, 0.0, 0.0, 0.0, 0.0, 0.0, 1.763225994214518E9, 0.0, 2025-11-15 11:59:54.214
10.0, -753.5898410715163, 311.356021061074, 259.96979566989467, 304.4596455427818, -0.04800000227987766, 0.1600000075995922, 1.0240000486373901, 0.0, 0.0, 0.0, 0.0, 0.0, 1.763225994214518E9, 0.0, 2025-11-15 11:59:54.214
11.0, -957.7154506030492, 85.49785288702697, 16.46677950490266, 545.3017228893004, -0.04800000227987766, 0.09600000455975533, 1.0240000486373901, 0.0, 0.0, 0.0, 0.0, 0.0, 1.763225994228872E9, 0.0, 2025-11-15 11:59:54.228
11.0, -1174.4576126351021, -96.79609065316617, -126.48715640138835, 396.9885103465058, -0.04800000227987766, 0.09600000455975533, 1.0240000486373901, 0.0, 0.0, 0.0, 0.0, 0.0, 1.763225994228872E9, 0.0, 2025-11-15 11:59:54.228
12.0, -1248.619828756433, -187.2343513816595, -229.56627898011357, 293.55409727199003, -0.01600000075995922, 0.09600000455975533, 1.0240000486373901, 0.0, 0.0, 0.0, 0.0, 0.0, 1.763225994229532E9, 0.0, 2025-11-15 11:59:54.229
12.0, -1019.9885247652419, 27.35736817587167, -45.04335506632924, 470.0624155807309, -0.01600000075995922, 0.09600000455975533, 1.0240000486373901, 0.0, 0.0, 0.0, 0.0, 0.0, 1.763225994229532E9, 0.0, 2025-11-15 11:59:54.229
13.0, -1068.3716104920022, 3.7997383549809456, -37.0923277605325, 484.027202015277, -0.01600000075995922, 0.09600000455975533, 1.0240000486373901, 0.0, 0.0, 0.0, 0.0, 0.0, 1.76322599424312E9, 0.0, 2025-11-15 11:59:54.243
13.0, -1258.100475144107, -190.88075383845717, -231.8102189535275, 299.9680256959982, -0.01600000075995922, 0.09600000455975533, 1.0240000486373901, 0.0, 0.0, 0.0, 0.0, 0.0, 1.76322599424312E9, 0.0, 2025-11-15 11:59:54.243
14.0, -1110.1799520966597, -63.376344649121165, -129.45289706625044, 394.176105579827, -0.01600000075995922, 0.09600000455975533, 1.0240000486373901, 0.0, 0.0, 0.0, 0.0, 0.0, 1.7632259942588997E9, 0.0, 2025-11-15 11:59:54.258
14.0, -925.915081279818, 112.11472087167203, 52.19404378160834, 566.5742738372646, -0.01600000075995922, 0.09600000455975533, 1.0240000486373901, 0.0, 0.0, 0.0, 0.0, 0.0, 1.7632259942588997E9, 0.0, 2025-11-15 11:59:54.258
15.0, -743.896020386368, 331.0727736274712, -183.89088082127273, 341.4023773050867, -0.01600000075995922, 0.09600000455975533, 1.0240000486373901, 0.0, 0.0, 0.0, 0.0, 0.0, 1.763225994259544E9, 0.0, 2025-11-15 11:59:54.259
15.0, -693.7701412802562, 359.91862198570743, -179.87048836890608, 346.23806794779375, -0.01600000075995922, 0.09600000455975533, 1.0240000486373901, 0.0, 0.0, 0.0, 0.0, 0.0, 1.763225994259544E9, 0.0, 2025-11-15 11:59:54.259
16.0, -909.7624533711933, 138.27906096167862, 61.008987977169454, 571.140691683162, -0.01600000075995922, 0.09600000455975533, 1.0240000486373901, 0.0, 0.0, 0.0, 0.0, 0.0, 1.7632259942731416E9, 0.0, 2025-11-15 11:59:54.273
16.0, -1130.5362275554799, -72.78967283759266, -115.24501713458449, 398.85846032435074, -0.01600000075995922, 0.09600000455975533, 1.0240000486373901, 0.0, 0.0, 0.0, 0.0, 0.0, 1.7632259942731416E9, 0.0, 2025-11-15 11:59:54.273
17.0, -1228.6936417925172, -162.28173887729645, -206.2106037568301, 320.59357395162806, -0.01600000075995922, 0.09600000455975533, 1.0240000486373901, 0.0, 0.0, 0.0, 0.0, 0.0, 1.7632259942888167E9, 0.0, 2025-11-15 11:59:54.288
17.0, -1452.468685691245, 82.57699102163315, 7.4274413120001554, 527.6232157987542, -0.01600000075995922, 0.09600000455975533, 1.0240000486373901, 0.0, 0.0, 0.0, 0.0, 0.0, 1.7632259942888167E9, 0.0, 2025-11-15 11:59:54.288
18.0, -1503.2378275897354, 50.57466710079461, 9.64894188567996, 527.3838622015901, -0.01600000075995922, 0.09600000455975533, 1.0240000486373901, 0.0, 0.0, 0.0, 0.0, 0.0, 1.7632259942895243E9, 0.0, 2025-11-15 11:59:54.289
18.0, -1721.2702551065013, -151.69034220278263, -194.06340870074928, 336.82473975932226, -0.01600000075995922, 0.09600000455975533, 1.0240000486373901, 0.0, 0.0, 0.0, 0.0, 0.0, 1.7632259942895243E9, 0.0, 2025-11-15 11:59:54.289
19.0, -1580.2797666769475, -38.850080739706755, -100.40509411040694, 432.8466711216606, -0.01600000075995922, 0.09600000455975533, 1.0240000486373901, 0.0, 0.0, 0.0, 0.0, 0.0, 1.7632259943031693E9, 0.0, 2025-11-15 11:59:54.303
19.0, -1400.3120409091935, 137.5796996699646, 80.81175824254751, 593.669849016238, -0.01600000075995922, 0.09600000455975533, 1.0240000486373901, 0.0, 0.0, 0.0, 0.0, 0.0, 1.7632259943031693E9, 0.0, 2025-11-15 11:59:54.303
20.0, -1221.7785667744465, 351.2570136883296, 315.0248629176058, 835.4225920019671, -0.01600000075995922, 0.09600000455975533, 0.5280000250786543, 0.0, 0.0, 0.0, 0.0, 0.0, 1.7632259943187964E9, 0.0, 2025-11-15 11:59:54.318
20.0, -1161.1585283926688, 383.019984012004, 335.0295877805911, 866.8452314296737, -0.01600000075995922, 0.09600000455975533, 0.5280000250786543, 0.0, 0.0, 0.0, 0.0, 0.0, 1.7632259943187964E9, 0.0, 2025-11-15 11:59:54.318
21.0, -1380.1801594477147, 162.27425907738507, 99.06620992626995, 1104.037166419439, -0.01600000075995922, 0.1600000075995922, 0.5280000250786543, 0.0, 0.0, 0.0, 0.0, 0.0, 1.7632259943195038E9, 0.0, 2025-11-15 11:59:54.319
21.0, -1164.3598827547394, 403.4360978701152, -117.97140420228243, 887.0930497897789, -0.01600000075995922, 0.1600000075995922, 0.5280000250786543, 0.0, 0.0, 0.0, 0.0, 0.0, 1.7632259943195038E9, 0.0, 2025-11-15 11:59:54.319
22.0, -1237.1084166928194, 323.03572862269357, -211.66337789222598, 807.0928498376161, -0.03200000151991844, 0.1600000075995922, 0.5280000250786543, 0.0, 0.0, 0.0, 0.0, 0.0, 1.763225994333227E9, 0.0, 2025-11-15 11:59:54.333
22.0, -1445.8528026696295, 84.13652930315584, 17.35687569435686, 1032.410602468066, -0.03200000151991844, 0.1600000075995922, 0.5280000250786543, 0.0, 0.0, 0.0, 0.0, 0.0, 1.763225994333227E9, 0.0, 2025-11-15 11:59:54.333
23.0, -1501.5847918093204, 53.96675636060536, 4.682354744523764, 1007.3607525648549, -0.03200000151991844, 0.1600000075995922, 0.5280000250786543, 0.0, 0.0, 0.0, 0.0, 0.0, 1.7632259943488147E9, 0.0, 2025-11-15 11:59:54.348
23.0, -1723.4767960803583, -165.99171963334084, -208.7238165270537, 802.0701641971245, -0.03200000151991844, 0.1600000075995922, 0.5280000250786543, 0.0, 0.0, 0.0, 0.0, 0.0, 1.7632259943488147E9, 0.0, 2025-11-15 11:59:54.348
24.0, -1600.0376581428573, -48.69349742308259, -107.14065393060446, 907.8569743437693, -0.03200000151991844, 0.1600000075995922, 0.5280000250786543, 0.0, 0.0, 0.0, 0.0, 0.0, 1.7632259943495097E9, 0.0, 2025-11-15 11:59:54.349
24.0, -1401.680844292976, 137.72555576823652, 77.35235078353435, 1086.7363892244175, -0.03200000151991844, 0.1600000075995922, 0.5280000250786543, 0.0, 0.0, 0.0, 0.0, 0.0, 1.7632259943495097E9, 0.0, 2025-11-15 11:59:54.349
25.0, -1223.6260773525573, 345.9201764515601, 307.02895681234077, 1312.0410522050224, -0.03200000151991844, 0.1600000075995922, 0.5280000250786543, 0.0, 0.0, 0.0, 0.0, 0.0, 1.7632259943631833E9, 0.0, 2025-11-15 11:59:54.363
25.0, -1204.043961184565, 354.8809767453931, 300.2260787929408, 1324.8726489529945, -0.03200000151991844, 0.1600000075995922, 0.5280000250786543, 0.0, 0.0, 0.0, 0.0, 0.0, 1.7632259943631833E9, 0.0, 2025-11-15 11:59:54.363
26.0, -1388.4902171492577, 139.86103864293545, 67.24340120330453, 1561.4886393495835, -0.03200000151991844, 0.1600000075995922, 0.5280000250786543, 0.0, 0.0, 0.0, 0.0, 0.0, 1.7632259943788059E9, 0.0, 2025-11-15 11:59:54.378
26.0, -1180.49007126363, 383.9063403015025, -142.55750651098788, 1353.583860912826, -0.03200000151991844, 0.1600000075995922, 0.5280000250786543, 0.0, 0.0, 0.0, 0.0, 0.0, 1.7632259943788059E9, 0.0, 2025-11-15 11:59:54.378
27.0, -1246.7536186785437, 300.9291799846105, -228.53032669238746, 1285.1436917237006, -0.03200000151991844, 0.1600000075995922, 0.5280000250786543, 0.0, 0.0, 0.0, 0.0, 0.0, 1.7632259943795073E9, 0.0, 2025-11-15 11:59:54.379
27.0, -1480.9929026532918, 535.2787910080515, -20.50587145704776, 1479.2033605244942, -0.03200000151991844, 0.1600000075995922, 0.5280000250786543, 0.0, 0.0, 0.0, 0.0, 0.0, 1.7632259943795073E9, 0.0, 2025-11-15 11:59:54.379
28.0, -1535.8684547031298, 517.7835390153341, -13.044771045446396, 1486.4512866386212, -0.03200000151991844, 0.1600000075995922, 0.5280000250786543, 0.0, 0.0, 0.0, 0.0, 0.0, 1.7632259943931773E9, 0.0, 2025-11-15 11:59:54.393
28.0, -1778.0120172342286, 278.587017649319, -249.5223851436749, 1250.5645767333917, -0.03200000151991844, 0.1600000075995922, 0.5280000250786543, 0.0, 0.0, 0.0, 0.0, 0.0, 1.7632259943931773E9, 0.0, 2025-11-15 11:59:54.393
29.0, -1625.5811748402193, 410.01084199221805, -141.27098092623055, 1366.5500940592028, -0.03200000151991844, 0.1600000075995922, 0.5280000250786543, 0.0, 0.0, 0.0, 0.0, 0.0, 1.7632259944092405E9, 0.0, 2025-11-15 11:59:54.409
29.0, -1452.019897696562, 570.1421383949928, 16.53035780414939, 1500.371194273699, -0.03200000151991844, 0.1600000075995922, 0.5280000250786543, 0.0, 0.0, 0.0, 0.0, 0.0, 1.7632259944092405E9, 0.0, 2025-11-15 11:59:54.409
30.0, -1305.522406582255, 755.3214147510007, 224.65018048835918, 1722.9457302866504, -0.03200000151991844, 0.1600000075995922, 0.7840000372380018, 0.0, 0.0, 0.0, 0.0, 0.0, 1.7632259944238112E9, 0.0, 2025-11-15 11:59:54.423
30.0, -1230.986200465355, 797.746839848347, 258.253181590233, 1777.0620826454833, -0.03200000151991844, 0.1600000075995922, 0.7840000372380018, 0.0, 0.0, 0.0, 0.0, 0.0, 1.7632259944238112E9, 0.0, 2025-11-15 11:59:54.423
31.0, -1431.457927740179, 588.9052164726891, 36.75199686456472, 1542.2505939775147, -0.03200000151991844, 0.17600000835955143, 0.7840000372380018, 0.0, 0.0, 0.0, 0.0, 0.0, 1.7632259944245403E9, 0.0, 2025-11-15 11:59:54.424
31.0, -1208.2363890348934, 361.347263768781, -163.96095395740122, 1345.2027451121248, -0.03200000151991844, 0.17600000835955143, 0.7840000372380018, 0.0, 0.0, 0.0, 0.0, 0.0, 1.7632259944245403E9, 0.0, 2025-11-15 11:59:54.424
32.0, -1286.0038687135093, 266.3238856946118, -264.7475178632885, 1257.4048537523486, -0.03200000151991844, 0.17600000835955143, 0.7840000372380018, 0.0, 0.0, 0.0, 0.0, 0.0, 1.763225994454523E9, 0.0, 2025-11-15 11:59:54.454
32.0, -1499.7746802307665, 507.4015767383389, -46.01198915485293, 1461.1359038385563, -0.03200000151991844, 0.17600000835955143, 0.7840000372380018, 0.0, 0.0, 0.0, 0.0, 0.0, 1.763225994454523E9, 0.0, 2025-11-15 11:59:54.454
33.0, -1488.49140206445, 531.3855551541783, -4.241046549752355, 1478.4666002332233, -0.03200000151991844, 0.17600000835955143, 0.7840000372380018, 0.0, 0.0, 0.0, 0.0, 0.0, 1.7632259944551892E9, 0.0, 2025-11-15 11:59:54.455
33.0, -1296.5167274889536, 761.2715955805033, 233.01259678928182, 1253.6686936966144, -0.03200000151991844, 0.17600000835955143, 0.7840000372380018, 0.0, 0.0, 0.0, 0.0, 0.0, 1.7632259944551892E9, 0.0, 2025-11-15 11:59:54.455
34.0, -1127.7425222885795, 909.958798118867, 357.34931071614847, 1373.7531413738616, -0.03200000151991844, 0.17600000835955143, 0.7840000372380018, 0.0, 0.0, 0.0, 0.0, 0.0, 1.763225994455916E9, 0.0, 2025-11-15 11:59:54.455
34.0, -910.4879939625971, 1114.9202752904966, 563.5860937726684, 1560.9500937559642, -0.03200000151991844, 0.17600000835955143, 0.7840000372380018, 0.0, 0.0, 0.0, 0.0, 0.0, 1.763225994455916E9, 0.0, 2025-11-15 11:59:54.455
35.0, -787.2713800724596, 1262.128347396385, 738.963092344813, 1753.4184351256117, -0.03200000151991844, 0.17600000835955143, 0.7840000372380018, 0.0, 0.0, 0.0, 0.0, 0.0, 1.7632259944687955E9, 0.0, 2025-11-15 11:59:54.468
35.0, -769.8135270792991, 1261.9600518983789, 723.2629923308268, 1753.4446144253016, -0.03200000151991844, 0.17600000835955143, 0.7840000372380018, 0.0, 0.0, 0.0, 0.0, 0.0, 1.7632259944687955E9, 0.0, 2025-11-15 11:59:54.468
36.0, -881.33921370795, 1126.7383591504768, 553.5407224916853, 1563.7587586226873, -0.03200000151991844, 0.17600000835955143, 0.7840000372380018, 0.0, 0.0, 0.0, 0.0, 0.0, 1.7632259944694908E9, 0.0, 2025-11-15 11:59:54.469
36.0, -707.9518419122323, 1349.4774507614784, 334.2142895902507, 1352.5030298256315, -0.03200000151991844, 0.17600000835955143, 0.7840000372380018, 0.0, 0.0, 0.0, 0.0, 0.0, 1.7632259944694908E9, 0.0, 2025-11-15 11:59:54.469
37.0, -819.7561510875821, 1226.2327876216732, 205.40091541642323, 1232.0632916525938, -0.03200000151991844, 0.17600000835955143, 0.7840000372380018, 0.0, 0.0, 0.0, 0.0, 0.0, 1.763225994483142E9, 0.0, 2025-11-15 11:59:54.483
37.0, -978.8832843522541, 1036.5207525193691, -10.393181976862252, 1009.7243693368509, -0.03200000151991844, 0.17600000835955143, 0.7840000372380018, 0.0, 0.0, 0.0, 0.0, 0.0, 1.763225994483142E9, 0.0, 2025-11-15 11:59:54.483
38.0, -1030.1984516442753, 1009.2905409419909, -11.425394364632666, 996.6945578912273, -0.03200000151991844, 0.17600000835955143, 0.7840000372380018, 0.0, 0.0, 0.0, 0.0, 0.0, 1.763225994499318E9, 0.0, 2025-11-15 11:59:54.499
38.0, -830.8262549564242, 1227.2687399093993, 216.07832978991792, 751.6525728944689, -0.03200000151991844, 0.17600000835955143, 0.7840000372380018, 0.0, 0.0, 0.0, 0.0, 0.0, 1.763225994499318E9, 0.0, 2025-11-15 11:59:54.499
39.0, -629.103531146422, 1389.150309491437, 344.27462047105655, 879.6207296783105, -0.03200000151991844, 0.17600000835955143, 0.7840000372380018, 0.0, 0.0, 0.0, 0.0, 0.0, 1.7632259945138116E9, 0.0, 2025-11-15 11:59:54.513
39.0, -402.0766442362219, 1618.5744722732343, 574.143831347581, 1090.1957966834307, -0.03200000151991844, 0.17600000835955143, 0.7840000372380018, 0.0, 0.0, 0.0, 0.0, 0.0, 1.7632259945138116E9, 0.0, 2025-11-15 11:59:54.513
40.0, -317.44083828898147, 1741.4918941669166, 734.8230230938643, 1268.531056120526, -0.03200000151991844, 0.17600000835955143, 0.8960000425577164, 0.0, 0.0, 0.0, 0.0, 0.0, 1.7632259945145202E9, 0.0, 2025-11-15 11:59:54.514
40.0, -273.24270061263815, 1769.2045528385788, 742.6207145014778, 1289.61287217075, -0.03200000151991844, 0.17600000835955143, 0.8960000425577164, 0.0, 0.0, 0.0, 0.0, 0.0, 1.7632259945145202E9, 0.0, 2025-11-15 11:59:54.514
41.0, -381.57825257908553, 1633.4330947971903, 574.2709879460745, 1099.3959505744278, -0.03200000151991844, 0.19200000911951065, 0.8960000425577164, 0.0, 0.0, 0.0, 0.0, 0.0, 1.7632259945287836E9, 0.0, 2025-11-15 11:59:54.528
41.0, -206.16011510742828, 1833.1418824810535, 815.7320187352598, 1337.2928567058407, -0.03200000151991844, 0.19200000911951065, 0.8960000425577164, 0.0, 0.0, 0.0, 0.0, 0.0, 1.7632259945287836E9, 0.0, 2025-11-15 11:59:54.528
42.0, -344.82812566449866, 1700.88032054808, 677.153765777126, 1219.5084475013427, -0.03200000151991844, 0.19200000911951065, 0.8960000425577164, 0.0, 0.0, 0.0, 0.0, 0.0, 1.763225994529489E9, 0.0, 2025-11-15 11:59:54.529
42.0, -482.83978377934545, 1529.1908633322455, 465.70169223239645, 992.887339736335, -0.03200000151991844, 0.19200000911951065, 0.8960000425577164, 0.0, 0.0, 0.0, 0.0, 0.0, 1.763225994529489E9, 0.0, 2025-11-15 11:59:54.529
43.0, -553.953981436789, 1497.6672466057353, 477.47863719286397, 992.404892642051, -0.03200000151991844, 0.19200000911951065, 0.8960000425577164, 0.0, 0.0, 0.0, 0.0, 0.0, 1.763225994543126E9, 0.0, 2025-11-15 11:59:54.543
43.0, -342.7711806888692, 1722.201490195468, 706.9832078237087, 753.3841465739533, -0.03200000151991844, 0.19200000911951065, 0.8960000425577164, 0.0, 0.0, 0.0, 0.0, 0.0, 1.763225994543126E9, 0.0, 2025-11-15 11:59:54.543
44.0, -145.6485338243656, 1875.32421408128, 831.323661650531, 873.0272860564291, -0.03200000151991844, 0.19200000911951065, 0.8960000425577164, 0.0, 0.0, 0.0, 0.0, 0.0, 1.7632259945587797E9, 0.0, 2025-11-15 11:59:54.558
44.0, 82.07771437754855, 2107.082074435428, 1065.8228686721995, 1086.0744269322604, -0.03200000151991844, 0.19200000911951065, 0.8960000425577164, 0.0, 0.0, 0.0, 0.0, 0.0, 1.7632259945587797E9, 0.0, 2025-11-15 11:59:54.558
45.0, 185.5738358013332, 2244.8992577525787, 1228.9554347894154, 1270.6141803958453, -0.03200000151991844, 0.19200000911951065, 0.8960000425577164, 0.0, 0.0, 0.0, 0.0, 0.0, 1.763225994559492E9, 0.0, 2025-11-15 11:59:54.559
45.0, 238.64675607252866, 2279.220319645945, 1246.4207675824873, 1300.7241149391048, -0.03200000151991844, 0.19200000911951065, 0.8960000425577164, 0.0, 0.0, 0.0, 0.0, 0.0, 1.763225994559492E9, 0.0, 2025-11-15 11:59:54.559
46.0, 133.5312579679303, 2141.152563031763, 1082.5439613740891, 1102.2195750409737, -0.03200000151991844, 0.19200000911951065, 0.8960000425577164, 0.0, 0.0, 0.0, 0.0, 0.0, 1.763225994573161E9, 0.0, 2025-11-15 11:59:54.573
46.0, 294.3637856123969, 2360.1891536866315, 861.897343788296, 894.0829228069633, -0.03200000151991844, 0.19200000911951065, 0.8960000425577164, 0.0, 0.0, 0.0, 0.0, 0.0, 1.763225994573161E9, 0.0, 2025-11-15 11:59:54.573
47.0, 217.19842982664704, 2249.2936402005143, 737.033303967677, 788.2736732605845, -0.03200000151991844, 0.19200000911951065, 0.8960000425577164, 0.0, 0.0, 0.0, 0.0, 0.0, 1.763225994588545E9, 0.0, 2025-11-15 11:59:54.588
47.0, 47.846410083118826, 2065.6701622260734, 521.5047394712456, 557.9612842393108, -0.03200000151991844, 0.19200000911951065, 0.8960000425577164, 0.0, 0.0, 0.0, 0.0, 0.0, 1.763225994588545E9, 0.0, 2025-11-15 11:59:54.588
48.0, 21.9924816894345, 2062.8951564589515, 545.2381445900537, 566.8285870342515, -0.03200000151991844, 0.19200000911951065, 0.8960000425577164, 0.0, 0.0, 0.0, 0.0, 0.0, 1.7632259946037943E9, 0.0, 2025-11-15 11:59:54.603
48.0, 188.47599816694856, 2243.8371261651628, 732.9979519154876, 770.3483327729627, -0.03200000151991844, 0.19200000911951065, 0.8960000425577164, 0.0, 0.0, 0.0, 0.0, 0.0, 1.7632259946037943E9, 0.0, 2025-11-15 11:59:54.603
49.0, 384.551473043859, 2417.3460447094403, 885.5335115082562, 935.1881632199511, -0.03200000151991844, 0.19200000911951065, 0.8960000425577164, 0.0, 0.0, 0.0, 0.0, 0.0, 1.763225994604484E9, 0.0, 2025-11-15 11:59:54.604
49.0, 143.20637915330008, 2658.2068215557374, 1120.2197135277092, 1138.687339508906, -0.03200000151991844, 0.19200000911951065, 0.8960000425577164, 0.0, 0.0, 0.0, 0.0, 0.0, 1.763225994604484E9, 0.0, 2025-11-15 11:59:54.604
50.0, 239.39473606366664, 2787.728906771168, 1279.4665235909633, 1325.3924950468354, -0.03200000151991844, 0.19200000911951065, 0.9600000455975533, 0.0, 0.0, 0.0, 0.0, 0.0, 1.7632259946186104E9, 0.0, 2025-11-15 11:59:54.618
50.0, 274.6096340464428, 2804.0086912782863, 1279.0439148959704, 1321.8919486883096, -0.03200000151991844, 0.19200000911951065, 0.9600000455975533, 0.0, 0.0, 0.0, 0.0, 0.0, 1.7632259946186104E9, 0.0, 2025-11-15 11:59:54.618
51.0, 176.26709476159886, 2687.2845437112264, 1140.6133879860863, 1156.1339728021994, -0.03200000151991844, 0.19200000911951065, 0.9600000455975533, 0.0, 0.0, 0.0, 0.0, 0.0, 1.7632259946501737E9, 0.0, 2025-11-15 11:59:54.650
51.0, 331.2018001759425, 2875.444520331919, 1378.8581048133783, 918.9233383126557, -0.03200000151991844, 0.19200000911951065, 0.9600000455975533, 0.0, 0.0, 0.0, 0.0, 0.0, 1.7632259946501737E9, 0.0, 2025-11-15 11:59:54.650
52.0, 214.89839135389775, 2753.549961076118, 1241.5476779402234, 798.4387213401496, -0.03200000151991844, 0.19200000911951065, 0.9600000455975533, 0.0, 0.0, 0.0, 0.0, 0.0, 1.7632259946508708E9, 0.0, 2025-11-15 11:59:54.650
52.0, 60.94353972794488, 2559.6679375232197, 1016.538467056118, 558.0248625385575, -0.03200000151991844, 0.19200000911951065, 0.9600000455975533, 0.0, 0.0, 0.0, 0.0, 0.0, 1.7632259946508708E9, 0.0, 2025-11-15 11:59:54.650
53.0, 18.428357031662017, 2535.0780953145586, 1020.9889480033889, 548.2936428538524, -0.03200000151991844, 0.19200000911951065, 0.9600000455975533, 0.0, 0.0, 0.0, 0.0, 0.0, 1.7632259946516154E9, 0.0, 2025-11-15 11:59:54.651
53.0, 186.92767958529294, 2731.783743334003, 1227.152803010773, 780.8836309481412, -0.03200000151991844, 0.19200000911951065, 0.9600000455975533, 0.0, 0.0, 0.0, 0.0, 0.0, 1.7632259946516154E9, 0.0, 2025-11-15 11:59:54.651
54.0, 355.60090748686343, 2889.207352168858, 1359.2498093456961, 922.8689327659085, -0.03200000151991844, 0.19200000911951065, 0.9600000455975533, 0.0, 0.0, 0.0, 0.0, 0.0, 1.7632259946523588E9, 0.0, 2025-11-15 11:59:54.652
54.0, 114.63728339178488, 3123.052076698281, 1595.0692010517232, 1128.3913949308917, -0.03200000151991844, 0.19200000911951065, 0.9600000455975533, 0.0, 0.0, 0.0, 0.0, 0.0, 1.7632259946523588E9, 0.0, 2025-11-15 11:59:54.652
55.0, 206.29662145581096, 3239.338655970525, 1741.3946567680687, 1289.3697786736302, -0.03200000151991844, 0.19200000911951065, 0.9600000455975533, 0.0, 0.0, 0.0, 0.0, 0.0, 1.7632259946631749E9, 0.0, 2025-11-15 11:59:54.663
55.0, 237.0797379910946, 3245.59924849635, 1721.69660370145, 1278.6774047003128, -0.03200000151991844, 0.19200000911951065, 0.9600000455975533, 0.0, 0.0, 0.0, 0.0, 0.0, 1.7632259946631749E9, 0.0, 2025-11-15 11:59:54.663
56.0, 132.44294708082452, 3141.2803490823135, 1591.3068616962992, 1122.7254464980215, -0.03200000151991844, 0.19200000911951065, 0.9600000455975533, 0.0, 0.0, 0.0, 0.0, 0.0, 1.763225994678805E9, 0.0, 2025-11-15 11:59:54.678
56.0, 306.4735816689208, 3337.6643657055683, 1833.8786427723244, 881.4458008566871, -0.03200000151991844, 0.19200000911951065, 0.9600000455975533, 0.0, 0.0, 0.0, 0.0, 0.0, 1.763225994678805E9, 0.0, 2025-11-15 11:59:54.678
57.0, 175.70049991831183, 3209.4493755246513, 1699.8855071598664, 765.72581642773, -0.03200000151991844, 0.19200000911951065, 0.9600000455975533, 0.0, 0.0, 0.0, 0.0, 0.0, 1.7632259946795385E9, 0.0, 2025-11-15 11:59:54.679
57.0, 10.899938420858234, 3016.300372363068, 1468.4810673515312, 525.9776598182507, -0.03200000151991844, 0.19200000911951065, 0.9600000455975533, 0.0, 0.0, 0.0, 0.0, 0.0, 1.7632259946795385E9, 0.0, 2025-11-15 11:59:54.679
58.0, -9.744309334550053, 3011.6180176185444, 1489.5591435017996, 536.5017382935621, -0.03200000151991844, 0.19200000911951065, 0.9600000455975533, 0.0, 0.0, 0.0, 0.0, 0.0, 1.7632259947095807E9, 0.0, 2025-11-15 11:59:54.709
58.0, 175.457406421192, 3209.2511608269997, 1702.9148261239752, 769.3647390846163, -0.03200000151991844, 0.19200000911951065, 0.9600000455975533, 0.0, 0.0, 0.0, 0.0, 0.0, 1.7632259947095807E9, 0.0, 2025-11-15 11:59:54.709
59.0, 338.3786681909114, 3354.3330998080783, 1823.6051375940442, 882.8594830399379, -0.03200000151991844, 0.19200000911951065, 0.9600000455975533, 0.0, 0.0, 0.0, 0.0, 0.0, 1.7632259947102892E9, 0.0, 2025-11-15 11:59:54.710
59.0, 129.51460541551933, 3134.903819657862, 1591.7519097910263, 1121.1808678163216, -0.03200000151991844, 0.19200000911951065, 0.9600000455975533, 0.0, 0.0, 0.0, 0.0, 0.0, 1.7632259947102892E9, 0.0, 2025-11-15 11:59:54.710
60.0, 189.07064225990325, 3237.782857588958, 1740.3961034798995, 1292.3130799387582, -0.03200000151991844, 0.19200000911951065, 0.9920000471174717, 0.0, 0.0, 0.0, 0.0, 0.0, 1.763225994710972E9, 0.0, 2025-11-15 11:59:54.710
60.0, 244.73157330043614, 3269.347613214981, 1747.831024591811, 1312.5608982988633, -0.03200000151991844, 0.19200000911951065, 0.9920000471174717, 0.0, 0.0, 0.0, 0.0, 0.0, 1.763225994710972E9, 0.0, 2025-11-15 11:59:54.710
61.0, 142.28636376420036, 3138.056555320509, 1590.2297705090605, 1125.0928031699732, -0.03200000151991844, 0.19200000911951065, 0.9920000471174717, 0.0, 0.0, 0.0, 0.0, 0.0, 1.7632259947231424E9, 0.0, 2025-11-15 11:59:54.723
61.0, 323.84541696310043, 3357.8299062666483, 1357.406038667541, 898.3389289565384, -0.03200000151991844, 0.19200000911951065, 0.9920000471174717, 0.0, 0.0, 0.0, 0.0, 0.0, 1.7632259947231424E9, 0.0, 2025-11-15 11:59:54.723
62.0, 173.0077719502151, 3207.00348095363, 1203.9803828853182, 763.3734193556011, -0.03200000151991844, 0.19200000911951065, 0.9920000471174717, 0.0, 0.0, 0.0, 0.0, 0.0, 1.7632259947388237E9, 0.0, 2025-11-15 11:59:54.738
62.0, 20.71343590458855, 3018.9856205312535, 985.2205448271707, 533.4200607300736, -0.03200000151991844, 0.19200000911951065, 0.9920000471174717, 0.0, 0.0, 0.0, 0.0, 0.0, 1.7632259947388237E9, 0.0, 2025-11-15 11:59:54.738
63.0, 10.2828549281694, 3032.666174569167, 1021.688309295103, 552.411272705067, -0.03200000151991844, 0.19200000911951065, 0.9920000471174717, 0.0, 0.0, 0.0, 0.0, 0.0, 1.763225994739529E9, 0.0, 2025-11-15 11:59:54.739
63.0, 152.5168600929901, 3199.998648336623, 1201.1305791190825, 753.5337425721809, -0.03200000151991844, 0.19200000911951065, 0.9920000471174717, 0.0, 0.0, 0.0, 0.0, 0.0, 1.763225994739529E9, 0.0, 2025-11-15 11:59:54.739
64.0, 347.00287748873234, 3360.0327073405497, 1341.8779740515165, 903.5822686944157, -0.03200000151991844, 0.19200000911951065, 0.9920000471174717, 0.0, 0.0, 0.0, 0.0, 0.0, 1.763225994753147E9, 0.0, 2025-11-15 11:59:54.753
64.0, 114.9626546879299, 3122.7678443016484, 1585.9625446596183, 1103.8539113216102, -0.03200000151991844, 0.19200000911951065, 0.9920000471174717, 0.0, 0.0, 0.0, 0.0, 0.0, 1.763225994753147E9, 0.0, 2025-11-15 11:59:54.753
65.0, 205.12229286972433, 3247.2186251771636, 1749.9702473664656, 1294.1531107169576, -0.03200000151991844, 0.19200000911951065, 0.9920000471174717, 0.0, 0.0, 0.0, 0.0, 0.0, 1.763225994768803E9, 0.0, 2025-11-15 11:59:54.768
65.0, 241.8892493341118, 3260.6299064182676, 1743.960228137672, 1295.0319872065447, -0.03200000151991844, 0.19200000911951065, 0.9920000471174717, 0.0, 0.0, 0.0, 0.0, 0.0, 1.763225994768803E9, 0.0, 2025-11-15 11:59:54.768
66.0, 123.78881858335808, 3123.7551778899506, 1568.3625754681416, 1103.6220375243574, -0.03200000151991844, 0.19200000911951065, 0.9920000471174717, 0.0, 0.0, 0.0, 0.0, 0.0, 1.7632259947694964E9, 0.0, 2025-11-15 11:59:54.769
66.0, 309.39444353431463, 3340.4505911725573, 1342.6745727420785, 881.4757200563326, -0.03200000151991844, 0.19200000911951065, 0.9920000471174717, 0.0, 0.0, 0.0, 0.0, 0.0, 1.7632259947694964E9, 0.0, 2025-11-15 11:59:54.769
67.0, 199.9874102305621, 3218.8552239132114, 1210.8917180034332, 769.1702642869204, -0.03200000151991844, 0.19200000911951065, 0.9920000471174717, 0.0, 0.0, 0.0, 0.0, 0.0, 1.7632259947831852E9, 0.0, 2025-11-15 11:59:54.783
67.0, 0.723670641425997, 3008.0613727606833, 973.7166125634685, 1005.5244616866112, -0.03200000151991844, 0.19200000911951065, 0.9920000471174717, 0.0, 0.0, 0.0, 0.0, 0.0, 1.7632259947831852E9, 0.0, 2025-11-15 11:59:54.783
68.0, -29.93228929536417, 3000.551653649658, 987.9282323950902, 1004.7727417955175, -0.03200000151991844, 0.19200000911951065, 0.9920000471174717, 0.0, 0.0, 0.0, 0.0, 0.0, 1.7632259947988217E9, 0.0, 2025-11-15 11:59:54.798
68.0, 184.03673691954464, 3218.570991516579, 1225.9896941245534, 781.3473785426468, -0.03200000151991844, 0.19200000911951065, 0.9920000471174717, 0.0, 0.0, 0.0, 0.0, 0.0, 1.7632259947988217E9, 0.0, 2025-11-15 11:59:54.798
69.0, 332.54816415999085, 3347.365666190628, 1331.282837477047, 884.6995138181373, -0.03200000151991844, 0.19200000911951065, 0.9920000471174717, 0.0, 0.0, 0.0, 0.0, 0.0, 1.7632259947995052E9, 0.0, 2025-11-15 11:59:54.799
69.0, 140.1546207894571, 3143.082980860956, 1118.1029301527888, 1129.6854003155604, -0.03200000151991844, 0.19200000911951065, 0.9920000471174717, 0.0, 0.0, 0.0, 0.0, 0.0, 1.7632259947995052E9, 0.0, 2025-11-15 11:59:54.799
70.0, 202.21639060415328, 3252.2039118180983, 1264.4171661692671, 1307.620490457397, -0.03200000151991844, 0.19200000911951065, 1.0240000486373901, 0.0, 0.0, 0.0, 0.0, 0.0, 1.7632259948131907E9, 0.0, 2025-11-15 11:59:54.813
70.0, 227.8085260009393, 3246.4856047858484, 1240.407008453738, 1290.794680556748, -0.03200000151991844, 0.19200000911951065, 1.0240000486373901, 0.0, 0.0, 0.0, 0.0, 0.0, 1.7632259948131907E9, 0.0, 2025-11-15 11:59:54.813
71.0, 137.85084241675213, 3129.731538019143, 1094.9940883265808, 1125.7996442615986, -0.03200000151991844, 0.19200000911951065, 1.0240000486373901, 0.0, 0.0, 0.0, 0.0, 0.0, 1.763225994828801E9, 0.0, 2025-11-15 11:59:54.828
71.0, 321.8109113872051, 3358.4432498593815, 872.5897177616134, 911.5332960002124, -0.03200000151991844, 0.19200000911951065, 1.0240000486373901, 0.0, 0.0, 0.0, 0.0, 0.0, 1.763225994828801E9, 0.0, 2025-11-15 11:59:54.828
72.0, 191.06026903633028, 3219.427428606432, 728.3417764706537, 773.4487098362297, -0.03200000151991844, 0.19200000911951065, 1.0240000486373901, 0.0, 0.0, 0.0, 0.0, 0.0, 1.7632259948295202E9, 0.0, 2025-11-15 11:59:54.829
72.0, 2.8030550167895854, 3008.199749059044, 485.9831696921028, 1015.2332419715822, -0.03200000151991844, 0.19200000911951065, 1.0240000486373901, 0.0, 0.0, 0.0, 0.0, 0.0, 1.7632259948295202E9, 0.0, 2025-11-15 11:59:54.829
73.0, -9.777968434151262, 3015.832884868607, 525.5026925238781, 1042.0034458544105, -0.03200000151991844, 0.19200000911951065, 1.0240000486373901, 0.0, 0.0, 0.0, 0.0, 0.0, 1.7632259948432236E9, 0.0, 2025-11-15 11:59:54.843
73.0, 164.68649454880506, 3205.290606773924, 723.5547045273706, 1263.3288552821614, -0.03200000151991844, 0.19200000911951065, 1.0240000486373901, 0.0, 0.0, 0.0, 0.0, 0.0, 1.7632259948432236E9, 0.0, 2025-11-15 11:59:54.843
74.0, 354.7669097967446, 3359.5502602462657, 856.4445696529001, 1391.2334337667562, -0.03200000151991844, 0.19200000911951065, 1.0240000486373901, 0.0, 0.0, 0.0, 0.0, 0.0, 1.7632259948745222E9, 0.0, 2025-11-15 11:59:54.874
74.0, 120.71462081978098, 3128.5048508336768, 615.3238697596826, 1615.9228832046501, -0.03200000151991844, 0.19200000911951065, 1.0240000486373901, 0.0, 0.0, 0.0, 0.0, 0.0, 1.7632259948745222E9, 0.0, 2025-11-15 11:59:54.874
75.0, 221.697529473342, 3254.522649790626, 767.2666552094743, 1786.3557340353727, -0.03200000151991844, 0.19200000911951065, 1.0240000486373901, 0.0, 0.0, 0.0, 0.0, 0.0, 1.7632259948752832E9, 0.0, 2025-11-15 11:59:54.875
75.0, 201.84614050853997, 3229.353123088833, 731.4159742342308, 1764.716672891751, -0.03200000151991844, 0.19200000911951065, 1.0240000486373901, 0.0, 0.0, 0.0, 0.0, 0.0, 1.7632259948752832E9, 0.0, 2025-11-15 11:59:54.875
76.0, 125.04916486842558, 3120.2209724318236, 597.5930040697567, 1605.64937802637, -0.03200000151991844, 0.19200000911951065, 1.0240000486373901, 0.0, 0.0, 0.0, 0.0, 0.0, 1.7632259948758996E9, 0.0, 2025-11-15 11:59:54.875
76.0, 310.65478981938213, 3339.7624495807104, 360.01585938455537, 1368.924930531066, -0.03200000151991844, 0.19200000911951065, 1.0240000486373901, 0.0, 0.0, 0.0, 0.0, 0.0, 1.7632259948758996E9, 0.0, 2025-11-15 11:59:54.875
77.0, 176.88604820426553, 3208.0581327411346, 226.78566336305812, 1264.0356963737868, -0.03200000151991844, 0.19200000911951065, 1.0240000486373901, 0.0, 0.0, 0.0, 0.0, 0.0, 1.763225994888877E9, 0.0, 2025-11-15 11:59:54.888
77.0, 9.703170435037464, 3003.0087679205462, -12.281831454485655, 1499.357681385707, -0.03200000151991844, 0.19200000911951065, 1.0240000486373901, 0.0, 0.0, 0.0, 0.0, 0.0, 1.763225994888877E9, 0.0, 2025-11-15 11:59:54.888
78.0, -19.325933021027595, 2999.033254267648, 11.496452463790774, 1509.5040299654938, -0.03200000151991844, 0.19200000911951065, 1.0240000486373901, 0.0, 0.0, 0.0, 0.0, 0.0, 1.763225994889562E9, 0.0, 2025-11-15 11:59:54.889
78.0, 148.0289801461622, 3184.766035817098, 213.2285260236822, 1727.4410900333896, -0.03200000151991844, 0.19200000911951065, 1.0240000486373901, 0.0, 0.0, 0.0, 0.0, 0.0, 1.763225994889562E9, 0.0, 2025-11-15 11:59:54.889
79.0, 334.3507959386334, 3354.845466102008, 358.8564903982915, 1882.7815745929256, -0.03200000151991844, 0.19200000911951065, 1.0240000486373901, 0.0, 0.0, 0.0, 0.0, 0.0, 1.7632259949195113E9, 0.0, 2025-11-15 11:59:54.919
79.0, 124.95940726948902, 3125.400733870454, 124.76680242177099, 2110.23854999803, -0.03200000151991844, 0.19200000911951065, 1.0240000486373901, 0.0, 0.0, 0.0, 0.0, 0.0, 1.7632259949195113E9, 0.0, 2025-11-15 11:59:54.919
80.0, 179.33194277528673, 3224.128482850734, 260.4709422639571, 2270.992539743427, -0.03200000151991844, 0.19200000911951065, 1.0240000486373901, 0.0, 0.0, 0.0, 0.0, 0.0, 1.7632259949202192E9, 0.0, 2025-11-15 11:59:54.920
80.0, 218.8439858071506, 3240.714939154219, 254.99946862878278, 2264.7543866173364, -0.03200000151991844, 0.19200000911951065, 1.0240000486373901, 0.0, 0.0, 0.0, 0.0, 0.0, 1.7632259949202192E9, 0.0, 2025-11-15 11:59:54.920
81.0, 120.4827470225282, 3118.048090557568, 101.54950349684805, 2077.0207585915923, -0.03200000151991844, 0.19200000911951065, 1.0240000486373901, 0.0, 0.0, 0.0, 0.0, 0.0, 1.7632259949209454E9, 0.0, 2025-11-15 11:59:54.920
81.0, 327.9293877147138, 3357.2502217735164, -107.35756812803447, 1891.0953721944243, -0.03200000151991844, 0.19200000911951065, 1.0240000486373901, 0.0, 0.0, 0.0, 0.0, 0.0, 1.7632259949209454E9, 0.0, 2025-11-15 11:59:54.920
82.0, 176.95710630342364, 3210.945335506927, -264.03693687170744, 1752.4834601366892, -0.03200000151991844, 0.19200000911951065, 1.0240000486373901, 0.0, 0.0, 0.0, 0.0, 0.0, 1.7632259949331505E9, 0.0, 2025-11-15 11:59:54.933
82.0, 3.939984603319317, 3000.3534389520064, -502.5434466958977, 1985.7933789724484, -0.03200000151991844, 0.19200000911951065, 1.0240000486373901, 0.0, 0.0, 0.0, 0.0, 0.0, 1.7632259949331505E9, 0.0, 2025-11-15 11:59:54.933
83.0, -19.07161982404068, 3014.191068788059, -469.2433774904348, 1995.5881769564003, -0.03200000151991844, 0.19200000911951065, 1.0240000486373901, 0.0, 0.0, 0.0, 0.0, 0.0, 1.7632259949488683E9, 0.0, 2025-11-15 11:59:54.948
83.0, 183.7861636225134, 3225.661841832567, -242.0014463327825, 1768.9988583410159, -0.03200000151991844, 0.19200000911951065, 1.0240000486373901, 0.0, 0.0, 0.0, 0.0, 0.0, 1.7632259949488683E9, 0.0, 2025-11-15 11:59:54.948
84.0, 340.29723686818033, 3353.0390944234096, -128.49548267759383, 1890.5755261005834, -0.03200000151991844, 0.19200000911951065, 1.0240000486373901, 0.0, 0.0, 0.0, 0.0, 0.0, 1.76322599494957E9, 0.0, 2025-11-15 11:59:54.949
84.0, 118.61279704468325, 3128.815262529999, -363.6061633420177, 2120.7289693737403, -0.03200000151991844, 0.19200000911951065, 1.0240000486373901, 0.0, 0.0, 0.0, 0.0, 0.0, 1.76322599494957E9, 0.0, 2025-11-15 11:59:54.949
85.0, 210.09261991083622, 3240.172653660644, -221.96680227015167, 2272.4473608261906, -0.03200000151991844, 0.19200000911951065, 1.0240000486373901, 0.0, 0.0, 0.0, 0.0, 0.0, 1.7632259949632027E9, 0.0, 2025-11-15 11:59:54.963
85.0, 226.89973031170666, 3256.067228472326, -225.02604043390602, 2280.331069932785, -0.03200000151991844, 0.19200000911951065, 1.0240000486373901, 0.0, 0.0, 0.0, 0.0, 0.0, 1.7632259949632027E9, 0.0, 2025-11-15 11:59:54.963
86.0, 149.72876467602327, 3139.043888908811, -375.24847190408036, 2105.369200255722, -0.03200000151991844, 0.19200000911951065, 1.0240000486373901, 0.0, 0.0, 0.0, 0.0, 0.0, 1.763225994978796E9, 0.0, 2025-11-15 11:59:54.978
86.0, 328.32581711001694, 3360.739548432175, -597.4658474712633, 1889.6293314117938, -0.03200000151991844, 0.19200000911951065, 1.0240000486373901, 0.0, 0.0, 0.0, 0.0, 0.0, 1.763225994978796E9, 0.0, 2025-11-15 11:59:54.978
87.0, 172.31215055845678, 3204.5875055822544, -752.4510415350087, 1750.6022904589772, -0.03200000151991844, 0.19200000911951065, 1.0240000486373901, 0.0, 0.0, 0.0, 0.0, 0.0, 1.7632259949795012E9, 0.0, 2025-11-15 11:59:54.979
87.0, 4.22421699995175, 3003.966182309203, -992.7639230377972, 1983.313825301826, -0.03200000151991844, 0.19200000911951065, 1.0240000486373901, 0.0, 0.0, 0.0, 0.0, 0.0, 1.7632259949795012E9, 0.0, 2025-11-15 11:59:54.979
88.0, -0.4095190451480448, 3024.0494450712577, -943.8871705168858, 2042.7744946973398, -0.03200000151991844, 0.19200000911951065, 1.0240000486373901, 0.0, 0.0, 0.0, 0.0, 0.0, 1.7632259949932032E9, 0.0, 2025-11-15 11:59:54.993
88.0, 171.51929176785052, 3219.5882443045266, -729.3085406091996, 2274.156495105941, -0.03200000151991844, 0.19200000911951065, 1.0240000486373901, 0.0, 0.0, 0.0, 0.0, 0.0, 1.7632259949932032E9, 0.0, 2025-11-15 11:59:54.993
89.0, 344.65796021651477, 3355.178317198064, -620.0623230035417, 2366.7040594094433, -0.03200000151991844, 0.19200000911951065, 1.0240000486373901, 0.0, 0.0, 0.0, 0.0, 0.0, 1.7632259950087981E9, 0.0, 2025-11-15 11:59:55.008
89.0, 101.34941884921864, 3595.6277050492354, -388.4203995480202, 2578.143043304328, -0.03200000151991844, 0.19200000911951065, 1.0240000486373901, 0.0, 0.0, 0.0, 0.0, 0.0, 1.7632259950087981E9, 0.0, 2025-11-15 11:59:55.008
90.0, 210.49652910605073, 3739.3913292959332, -209.27358182054013, 2782.436948333867, -0.03200000151991844, 0.19200000911951065, 1.0240000486373901, 0.0, 0.0, 0.0, 0.0, 0.0, 1.763225995009505E9, 0.0, 2025-11-15 11:59:55.009
90.0, 248.08626356068999, 3752.7128529381007, -215.0255479523912, 2775.1441434202716, -0.03200000151991844, 0.19200000911951065, 1.0240000486373901, 0.0, 0.0, 0.0, 0.0, 0.0, 1.763225995009505E9, 0.0, 2025-11-15 11:59:55.009
91.0, 135.80137724103406, 3622.3530301325954, -376.85288898507133, 2586.0080529111437, -0.03200000151991844, 0.19200000911951065, 1.0240000486373901, 0.0, 0.0, 0.0, 0.0, 0.0, 1.7632259950231533E9, 0.0, 2025-11-15 11:59:55.023
91.0, 302.6551438141614, 3839.82260270603, -608.0348047460429, 2369.4005272774957, -0.03200000151991844, 0.19200000911951065, 1.0240000486373901, 0.0, 0.0, 0.0, 0.0, 0.0, 1.7632259950231533E9, 0.0, 2025-11-15 11:59:55.023
92.0, 184.20877231750637, 3699.135046172887, -754.1152970152907, 2239.117372421082, -0.03200000151991844, 0.19200000911951065, 1.0240000486373901, 0.0, 0.0, 0.0, 0.0, 0.0, 1.763225995038797E9, 0.0, 2025-11-15 11:59:55.038
92.0, 3.225663711782545, 3496.527836023364, -987.0792751051486, 2482.6372181358747, -0.03200000151991844, 0.19200000911951065, 1.0240000486373901, 0.0, 0.0, 0.0, 0.0, 0.0, 1.763225995038797E9, 0.0, 2025-11-15 11:59:55.038
93.0, 28.974874906707555, 3526.177762872074, -930.135558379814, 2533.806529329624, -0.03200000151991844, 0.19200000911951065, 1.0240000486373901, 0.0, 0.0, 0.0, 0.0, 0.0, 1.763225995039502E9, 0.0, 2025-11-15 11:59:55.039
93.0, 198.91779884323478, 3725.258247363381, -721.9035386969335, 2774.594378126785, -0.03200000151991844, 0.19200000911951065, 1.0240000486373901, 0.0, 0.0, 0.0, 0.0, 0.0, 1.763225995039502E9, 0.0, 2025-11-15 11:59:55.039
94.0, 350.85871434304863, 3850.9712444739416, -625.1710263430141, 2855.9484218629077, -0.03200000151991844, 0.19200000911951065, 1.0240000486373901, 0.0, 0.0, 0.0, 0.0, 0.0, 1.7632259950531445E9, 0.0, 2025-11-15 11:59:55.053
94.0, 115.21696788491681, 3612.9584014439024, -864.8182056536898, 3087.7324615167454, -0.03200000151991844, 0.19200000911951065, 1.0240000486373901, 0.0, 0.0, 0.0, 0.0, 0.0, 1.7632259950531445E9, 0.0, 2025-11-15 11:59:55.053
95.0, 229.08757178578526, 3752.312683642842, -691.9058011523448, 3273.588659764733, -0.03200000151991844, 0.19200000911951065, 1.0240000486373901, 0.0, 0.0, 0.0, 0.0, 0.0, 1.7632259950688486E9, 0.0, 2025-11-15 11:59:55.068
95.0, 221.56663297489285, 3741.781125367619, -714.5247160843574, 3268.117186129559, -0.03200000151991844, 0.19200000911951065, 1.0240000486373901, 0.0, 0.0, 0.0, 0.0, 0.0, 1.7632259950688486E9, 0.0, 2025-11-15 11:59:55.068
96.0, 130.31868390599266, 3615.3182783159427, -871.9090559696779, 3082.9940082728863, -0.03200000151991844, 0.19200000911951065, 1.0240000486373901, 0.0, 0.0, 0.0, 0.0, 0.0, 1.7632259950695212E9, 0.0, 2025-11-15 11:59:55.069
96.0, 321.42944159172475, 3851.6257269661874, -1084.1558582549915, 2879.70426638145, -0.03200000151991844, 0.19200000911951065, 1.0240000486373901, 0.0, 0.0, 0.0, 0.0, 0.0, 1.7632259950695212E9, 0.0, 2025-11-15 11:59:55.069
97.0, 201.32629441469908, 3717.5727529544383, -1232.061421702616, 2754.56347396411, -0.03200000151991844, 0.19200000911951065, 1.0240000486373901, 0.0, 0.0, 0.0, 0.0, 0.0, 1.763225995083158E9, 0.0, 2025-11-15 11:59:55.083
97.0, 20.137491311412305, 3512.6729841320775, -1460.488901146222, 2992.8885986404493, -0.03200000151991844, 0.19200000911951065, 1.0240000486373901, 0.0, 0.0, 0.0, 0.0, 0.0, 1.763225995083158E9, 0.0, 2025-11-15 11:59:55.083
98.0, 16.607025753241032, 3527.9916143505834, -1423.6471466827206, 3019.6700222231448, -0.03200000151991844, 0.19200000911951065, 1.0240000486373901, 0.0, 0.0, 0.0, 0.0, 0.0, 1.7632259950988045E9, 0.0, 2025-11-15 11:59:55.098
98.0, 184.41072691511363, 3713.0025952085853, -1228.3290015468374, 3235.7371323131956, -0.03200000151991844, 0.19200000911951065, 1.0240000486373901, 0.0, 0.0, 0.0, 0.0, 0.0, 1.7632259950988045E9, 0.0, 2025-11-15 11:59:55.098
99.0, 368.5858401330188, 3857.16825870052, -1100.660036759451, 3356.038494187873, -0.03200000151991844, 0.19200000911951065, 1.0240000486373901, 0.0, 0.0, 0.0, 0.0, 0.0, 1.7632259950995116E9, 0.0, 2025-11-15 11:59:55.099
99.0, 142.37238146318123, 3625.397308696527, -1339.5891552786343, 3596.622518437449, -0.03200000151991844, 0.19200000911951065, 1.0240000486373901, 0.0, 0.0, 0.0, 0.0, 0.0, 1.7632259950995116E9, 0.0, 2025-11-15 11:59:55.099
100.0, 237.97357408050448, 3758.352622071281, -1165.2032301947474, 3798.8557385914028, -0.03200000151991844, 0.19200000911951065, 1.0240000486373901, 0.0, 0.0, 0.0, 0.0, 0.0, 1.7632259951138504E9, 0.0, 2025-11-15 11:59:55.113
100.0, 229.0389530863613, 3747.959440094419, -1210.930986952968, 3753.6291284272447, -0.03200000151991844, 0.19200000911951065, 1.0240000486373901, 0.0, 0.0, 0.0, 0.0, 0.0, 1.7632259951138504E9, 0.0, 2025-11-15 11:59:55.113
0.0, 126.61992284981534, 177.10296240169555, 101.33258929941803, 145.09315868094563, -0.03200000151991844, 0.19200000911951065, 1.0240000486373901, 0.0, 0.0, 0.0, 0.0, 0.0, 1.7632259951145425E9, 0.0, 2025-11-15 11:59:55.114
1.0, 332.5257247602567, 417.93195009836927, -112.52984976675361, -69.15449008066207, -0.03200000151991844, 0.19200000911951065, 1.0240000486373901, 0.0, 0.0, 0.0, 0.0, 0.0, 1.7632259951281655E9, 0.0, 2025-11-15 11:59:55.128
1.0, 206.947364048101, 294.58630965976045, -237.86511698178947, -179.51893777307123, -0.03200000151991844, 0.19200000911951065, 1.0240000486373901, 0.0, 0.0, 0.0, 0.0, 0.0, 1.7632259951281655E9, 0.0, 2025-11-15 11:59:55.128
2.0, 27.50135432416573, 77.11673708632588, 0.33659099601209164, 46.26630235183984, -0.03200000151991844, 0.19200000911951065, 1.0240000486373901, 0.0, 0.0, 0.0, 0.0, 0.0, 1.7632259951595364E9, 0.0, 2025-11-15 11:59:55.159
2.0, -8.25208925222978, 72.2586070438847, 24.20463251322508, 58.24146200995892, -0.03200000151991844, 0.19200000911951065, 1.0240000486373901, 0.0, 0.0, 0.0, 0.0, 0.0, 1.7632259951595364E9, 0.0, 2025-11-15 11:59:55.159
3.0, 191.63995352946222, 277.1134970667772, 246.74550942657515, 297.91482062032446, -0.03200000151991844, 0.19200000911951065, 1.0240000486373901, 0.0, 0.0, 0.0, 0.0, 0.0, 1.7632259951602962E9, 0.0, 2025-11-15 11:59:55.160
3.0, 351.59547463431954, 414.35286584077403, 362.6038701538928, 414.4725426393561, -0.03200000151991844, 0.19200000911951065, 1.0240000486373901, 0.0, 0.0, 0.0, 0.0, 0.0, 1.7632259951602962E9, 0.0, 2025-11-15 11:59:55.160
4.0, 155.24885701062158, 204.59122707601637, 135.4703960949555, 654.4469631961547, -0.03200000151991844, 0.19200000911951065, 1.0240000486373901, 0.0, 0.0, 0.0, 0.0, 0.0, 1.763225995160911E9, 0.0, 2025-11-15 11:59:55.160
4.0, 226.0358134219423, 313.41296603670344, 283.2918117935769, 833.5414223242551, -0.03200000151991844, 0.19200000911951065, 1.0240000486373901, 0.0, 0.0, 0.0, 0.0, 0.0, 1.763225995160911E9, 0.0, 2025-11-15 11:59:55.160
5.0, 234.32343172375113, 320.3916193540208, 270.78932624170557, 825.968124913983, -0.03200000151991844, 0.19200000911951065, 1.0240000486373901, 0.0, 0.0, 0.0, 0.0, 0.0, 1.7632259951738434E9, 0.0, 2025-11-15 11:59:55.173
5.0, 121.20828761393204, 179.50023827329278, 95.16923417244107, 623.60400826158, -0.03200000151991844, 0.19200000911951065, 1.0240000486373901, 0.0, 0.0, 0.0, 0.0, 0.0, 1.7632259951738434E9, 0.0, 2025-11-15 11:59:55.173
6.0, 339.3510421793908, -64.01212764158845, -106.94617913290858, 415.8750051227398, -0.03200000151991844, 0.19200000911951065, 1.0240000486373901, 0.0, 0.0, 0.0, 0.0, 0.0, 1.7632259951745594E9, 0.0, 2025-11-15 11:59:55.174
6.0, 215.49677534680814, -197.59013435896486, -243.94993420969695, 306.1313808229752, -0.03200000151991844, 0.19200000911951065, 1.0240000486373901, 0.0, 0.0, 0.0, 0.0, 0.0, 1.7632259951745594E9, 0.0, 2025-11-15 11:59:55.174
7.0, -11.404824914876372, 41.98037700261921, -39.41106573306024, 492.5504340142943, -0.03200000151991844, 0.19200000911951065, 1.0240000486373901, 0.0, 0.0, 0.0, 0.0, 0.0, 1.7632259952035618E9, 0.0, 2025-11-15 11:59:55.203
7.0, 6.524255472701043, 81.06607143953443, 23.72218541894108, 544.9987909928896, -0.03200000151991844, 0.19200000911951065, 1.0240000486373901, 0.0, 0.0, 0.0, 0.0, 0.0, 1.7632259952035618E9, 0.0, 2025-11-15 11:59:55.203
8.0, 182.0508500430733, 269.35694455867633, 234.76660986850038, 786.9460087763146, -0.03200000151991844, 0.19200000911951065, 1.0240000486373901, 0.0, 0.0, 0.0, 0.0, 0.0, 1.7632259952358685E9, 0.0, 2025-11-15 11:59:55.235
8.0, 320.90959549788386, 392.77364309644327, 334.3900648881681, 895.7247388875112, -0.03200000151991844, 0.19200000911951065, 1.0240000486373901, 0.0, 0.0, 0.0, 0.0, 0.0, 1.7632259952358685E9, 0.0, 2025-11-15 11:59:55.235
9.0, 126.13373585557565, 182.7913502342999, 115.01314333733171, 1124.8085707733408, -0.03200000151991844, 0.19200000911951065, 1.0240000486373901, 0.0, 0.0, 0.0, 0.0, 0.0, 1.7632259952365649E9, 0.0, 2025-11-15 11:59:55.236
9.0, 207.1717580454424, 304.7476178393699, 265.83395880041644, 1300.2678471445106, -0.03200000151991844, 0.19200000911951065, 1.0240000486373901, 0.0, 0.0, 0.0, 0.0, 0.0, 1.7632259952365649E9, 0.0, 2025-11-15 11:59:55.236
10.0, 224.81660603638738, 297.61562862386927, 249.78604809055105, 1290.0429606656544, -0.03200000151991844, 0.19200000911951065, 1.0240000486373901, 0.0, 0.0, 0.0, 0.0, 0.0, 1.7632259952373295E9, 0.0, 2025-11-15 11:59:55.237
10.0, 103.50360122369602, 145.76634067296982, 64.59555203467607, 1080.5767739973962, -0.03200000151991844, 0.19200000911951065, 1.0240000486373901, 0.0, 0.0, 0.0, 0.0, 0.0, 1.7632259952373295E9, 0.0, 2025-11-15 11:59:55.237
11.0, 327.65637501794845, -84.97426689323038, -120.70153116993606, 912.6066472874954, -0.03200000151991844, 0.19200000911951065, 1.0240000486373901, 0.0, 0.0, 0.0, 0.0, 0.0, 1.7632259952380655E9, 0.0, 2025-11-15 11:59:55.238
11.0, 183.5355903254822, -228.60138479154557, -276.1317733284086, 754.1657856646925, -0.03200000151991844, 0.19200000911951065, 1.0240000486373901, 0.0, 0.0, 0.0, 0.0, 0.0, 1.7632259952380655E9, 0.0, 2025-11-15 11:59:55.238
12.0, -22.171996887307614, -464.0449165520258, -51.337606691755354, 973.9971050601453, -0.03200000151991844, 0.19200000911951065, 1.0240000486373901, 0.0, 0.0, 0.0, 0.0, 0.0, 1.7632259952488585E9, 0.0, 2025-11-15 11:59:55.248
12.0, -35.08961133426055, -447.1854475517757, -11.100023068487644, 1001.0478014396504, -0.03200000151991844, 0.19200000911951065, 1.0240000486373901, 0.0, 0.0, 0.0, 0.0, 0.0, 1.7632259952488585E9, 0.0, 2025-11-15 11:59:55.248
13.0, 169.76901858858764, -238.2278872774914, 211.1977603477426, 762.3786059673876, -0.03200000151991844, 0.19200000911951065, 1.0240000486373901, 0.0, 0.0, 0.0, 0.0, 0.0, 1.76322599524955E9, 0.0, 2025-11-15 11:59:55.249
13.0, 315.408202663064, -115.96681782603264, 308.73809109209105, 856.4296100530773, -0.03200000151991844, 0.19200000911951065, 1.0240000486373901, 0.0, 0.0, 0.0, 0.0, 0.0, 1.76322599524955E9, 0.0, 2025-11-15 11:59:55.249
14.0, 80.649072594475, -351.8479178813286, 71.27127345558256, 1094.171310336329, -0.03200000151991844, 0.19200000911951065, 1.0240000486373901, 0.0, 0.0, 0.0, 0.0, 0.0, 1.7632259952638977E9, 0.0, 2025-11-15 11:59:55.263
14.0, 187.46996507886797, -204.12373958155513, 252.48999575851485, 1287.9785358901136, -0.03200000151991844, 0.19200000911951065, 1.0240000486373901, 0.0, 0.0, 0.0, 0.0, 0.0, 1.7632259952638977E9, 0.0, 2025-11-15 11:59:55.263
15.0, 200.55213512387127, -214.90587115380913, 219.20862605283037, 1257.7040457488038, -0.03200000151991844, 0.19200000911951065, 1.0240000486373901, 0.0, 0.0, 0.0, 0.0, 0.0, 1.763225995264557E9, 0.0, 2025-11-15 11:59:55.264
15.0, 75.36833385704085, -361.7137739644386, 50.26799530442804, 1063.092741704546, -0.03200000151991844, 0.19200000911951065, 1.0240000486373901, 0.0, 0.0, 0.0, 0.0, 0.0, 1.763225995264557E9, 0.0, 2025-11-15 11:59:55.264
16.0, 294.9958287049085, -598.0941506638192, -148.32443224266171, 870.9217223813757, -0.03200000151991844, 0.19200000911951065, 1.0240000486373901, 0.0, 0.0, 0.0, 0.0, 0.0, 1.7632259952781956E9, 0.0, 2025-11-15 11:59:55.278
16.0, 152.28872619569302, -741.1079249694012, -297.1088721798733, 745.4854778675362, -0.03200000151991844, 0.19200000911951065, 1.0240000486373901, 0.0, 0.0, 0.0, 0.0, 0.0, 1.7632259952781956E9, 0.0, 2025-11-15 11:59:55.278
17.0, -43.75495953159407, -972.0037383837625, -72.12397064547986, 955.4322416801006, -0.03200000151991844, 0.19200000911951065, 1.0240000486373901, 0.0, 0.0, 0.0, 0.0, 0.0, 1.7632259952943392E9, 0.0, 2025-11-15 11:59:55.294
17.0, -33.410396254155785, -953.1060239076614, -30.98133123293519, 991.3352812547237, -0.03200000151991844, 0.19200000911951065, 1.0240000486373901, 0.0, 0.0, 0.0, 0.0, 0.0, 1.7632259952943392E9, 0.0, 2025-11-15 11:59:55.294
18.0, 125.95983050763607, -769.175874136854, 173.67160419235006, 1215.3010600511916, -0.03200000151991844, 0.19200000911951065, 1.0240000486373901, 0.0, 0.0, 0.0, 0.0, 0.0, 1.7632259953089948E9, 0.0, 2025-11-15 11:59:55.308
18.0, 276.6142204226926, -644.9924961081706, 276.65348937222734, 1317.1086166449822, -0.03200000151991844, 0.19200000911951065, 1.0240000486373901, 0.0, 0.0, 0.0, 0.0, 0.0, 1.7632259953089948E9, 0.0, 2025-11-15 11:59:55.308
19.0, 58.8978144521825, -871.7183210719377, 40.11416692472994, 1538.4209364228882, -0.03200000151991844, 0.19200000911951065, 1.0240000486373901, 0.0, 0.0, 0.0, 0.0, 0.0, 1.7632259953095756E9, 0.0, 2025-11-15 11:59:55.309
19.0, 155.5873179566115, -724.454150466714, 222.44737941445783, 1738.7954262988642, -0.03200000151991844, 0.19200000911951065, 1.0240000486373901, 0.0, 0.0, 0.0, 0.0, 0.0, 1.7632259953095756E9, 0.0, 2025-11-15 11:59:55.309
20.0, 190.03927634842694, -710.0742351370864, 219.1637472533621, 1751.013679454103, -0.03200000151991844, 0.19200000911951065, 1.0240000486373901, 0.0, 0.0, 0.0, 0.0, 0.0, 1.7632259953238428E9, 0.0, 2025-11-15 11:59:55.323
20.0, 65.35288177570328, -869.5641386974603, 30.270750241354108, 1533.0504400865175, -0.03200000151991844, 0.19200000911951065, 1.0240000486373901, 0.0, 0.0, 0.0, 0.0, 0.0, 1.7632259953238428E9, 0.0, 2025-11-15 11:59:55.323
21.0, 279.8342742845416, -1104.9085631091148, -166.1861944310367, 1356.91237187339, -0.03200000151991844, 0.19200000911951065, 1.0240000486373901, 0.0, 0.0, 0.0, 0.0, 0.0, 1.7632259953245468E9, 0.0, 2025-11-15 11:59:55.324
21.0, 153.64630987960845, -1241.553287790157, -305.216975283809, 1226.6553963166662, -0.03200000151991844, 0.19200000911951065, 1.0240000486373901, 0.0, 0.0, 0.0, 0.0, 0.0, 1.7632259953245468E9, 0.0, 2025-11-15 11:59:55.324
22.0, -54.380015305709094, -1483.8819753690623, -87.79415145982057, 1420.748724217061, -0.03200000151991844, 0.19200000911951065, 1.0240000486373901, 0.0, 0.0, 0.0, 0.0, 0.0, 1.763225995338246E9, 0.0, 2025-11-15 11:59:55.338
22.0, -51.67606763774529, -1452.7996668373235, -31.493697526864707, 1476.3385971584357, -0.03200000151991844, 0.19200000911951065, 1.0240000486373901, 0.0, 0.0, 0.0, 0.0, 0.0, 1.763225995338246E9, 0.0, 2025-11-15 11:59:55.338
23.0, 145.31755267828703, -1237.6338726365939, 192.20280847279355, 1717.6649915492162, -0.03200000151991844, 0.19200000911951065, 1.0240000486373901, 0.0, 0.0, 0.0, 0.0, 0.0, 1.7632259953538418E9, 0.0, 2025-11-15 11:59:55.353
23.0, 307.03830656223, -1106.9954272843897, 299.9007074967958, 1820.9834677251056, -0.03200000151991844, 0.19200000911951065, 1.0240000486373901, 0.0, 0.0, 0.0, 0.0, 0.0, 1.7632259953538418E9, 0.0, 2025-11-15 11:59:55.353
24.0, 82.0552749778144, -1337.5845689023845, 61.62607146985829, 2044.233055680059, -0.03200000151991844, 0.19200000911951065, 1.0240000486373901, 0.0, 0.0, 0.0, 0.0, 0.0, 1.76322599535454E9, 0.0, 2025-11-15 11:59:55.354
24.0, 201.22157721593976, -1172.4885553084314, 267.6702496786602, 2282.6498079053126, -0.03200000151991844, 0.19200000911951065, 1.0240000486373901, 0.0, 0.0, 0.0, 0.0, 0.0, 1.76322599535454E9, 0.0, 2025-11-15 11:59:55.354
25.0, 215.0255479523912, -1183.4502020785585, 238.88423971971497, 2250.299673288595, -0.03200000151991844, 0.19200000911951065, 1.0240000486373901, 0.0, 0.0, 0.0, 0.0, 0.0, 1.7632259953681962E9, 0.0, 2025-11-15 11:59:55.368
25.0, 92.19414375768974, -1329.2782511007972, 62.576006058603525, 2054.7533942554146, -0.03200000151991844, 0.19200000911951065, 1.0240000486373901, 0.0, 0.0, 0.0, 0.0, 0.0, 1.7632259953681962E9, 0.0, 2025-11-15 11:59:55.368
26.0, 330.85024958010763, -1548.2194743067957, -115.33103483356535, 1887.1609974410385, -0.03200000151991844, 0.19200000911951065, 1.0240000486373901, 0.0, 0.0, 0.0, 0.0, 0.0, 1.763225995384249E9, 0.0, 2025-11-15 11:59:55.384
26.0, 209.1688646217808, -1675.2189970021136, -249.85149633977562, 1767.8207898549736, -0.03200000151991844, 0.19200000911951065, 1.0240000486373901, 0.0, 0.0, 0.0, 0.0, 0.0, 1.763225995384249E9, 0.0, 2025-11-15 11:59:55.384
27.0, -9.385278938803822, -1434.0777276591398, -42.417945297434926, 1964.053340530023, -0.03200000151991844, 0.19200000911951065, 1.0240000486373901, 0.0, 0.0, 0.0, 0.0, 0.0, 1.7632259953988588E9, 0.0, 2025-11-15 11:59:55.398
27.0, -5.948310879524797, -1405.7105864952318, 5.389195836149156, 1997.6152027323842, -0.03200000151991844, 0.19200000911951065, 1.0240000486373901, 0.0, 0.0, 0.0, 0.0, 0.0, 1.7632259953988588E9, 0.0, 2025-11-15 11:59:55.398
28.0, 189.84480155073106, -1185.7988592507318, 247.23169642081484, 1775.0986351687461, -0.03200000151991844, 0.19200000911951065, 1.0240000486373901, 0.0, 0.0, 0.0, 0.0, 0.0, 1.7632259953995502E9, 0.0, 2025-11-15 11:59:55.399
28.0, 349.4712114594877, -1059.3678013486788, 350.7371675944887, 1868.0949874669313, -0.03200000151991844, 0.19200000911951065, 1.0240000486373901, 0.0, 0.0, 0.0, 0.0, 0.0, 1.7632259953995502E9, 0.0, 2025-11-15 11:59:55.399
29.0, 133.03385127382353, -1278.5016294023953, 120.79502866882831, 2105.00642996002, -0.03200000151991844, 0.19200000911951065, 1.0240000486373901, 0.0, 0.0, 0.0, 0.0, 0.0, 1.7632259954138649E9, 0.0, 2025-11-15 11:59:55.413
29.0, 244.0022928090766, -1131.0242844996974, 308.9138663900085, 2310.059534680564, -0.03200000151991844, 0.19200000911951065, 1.0240000486373901, 0.0, 0.0, 0.0, 0.0, 0.0, 1.7632259954138649E9, 0.0, 2025-11-15 11:59:55.413
30.0, 261.51624430157244, -1129.8162968140095, 290.1881873118691, 2304.1280533508398, -0.03200000151991844, 0.19200000911951065, 1.0240000486373901, 0.0, 0.0, 0.0, 0.0, 0.0, 1.763225995414543E9, 0.0, 2025-11-15 11:59:55.414
30.0, 131.3770755934529, -1292.9226836315356, 95.18045387230814, 2081.2281460417435, -0.03200000151991844, 0.19200000911951065, 1.0240000486373901, 0.0, 0.0, 0.0, 0.0, 0.0, 1.763225995414543E9, 0.0, 2025-11-15 11:59:55.414
31.0, 360.74326992593706, -1518.2292165621184, -90.18768743146211, 1900.96496817749, -0.03200000151991844, 0.19200000911951065, 1.0240000486373901, 0.0, 0.0, 0.0, 0.0, 0.0, 1.763225995428173E9, 0.0, 2025-11-15 11:59:55.428
31.0, 229.6672562789172, -1648.4600128191523, -217.53128092270344, 1794.4600972393528, -0.03200000151991844, 0.19200000911951065, 1.0240000486373901, 0.0, 0.0, 0.0, 0.0, 0.0, 1.763225995428173E9, 0.0, 2025-11-15 11:59:55.428
32.0, -8.143632153514773, -1412.0384972202592, -13.441200440749526, 1989.6005971273407, -0.03200000151991844, 0.19200000911951065, 1.0240000486373901, 0.0, 0.0, 0.0, 0.0, 0.0, 1.7632259954594913E9, 0.0, 2025-11-15 11:59:55.459
32.0, 22.68062328128144, -1372.2871005912311, 41.53532890789211, 2027.1604123823345, -0.03200000151991844, 0.19200000911951065, 1.0240000486373901, 0.0, 0.0, 0.0, 0.0, 0.0, 1.7632259954594913E9, 0.0, 2025-11-15 11:59:55.459
33.0, 209.8046476142481, -1173.9620758909732, 259.2928737779148, 2264.784305816982, -0.03200000151991844, 0.19200000911951065, 1.0240000486373901, 0.0, 0.0, 0.0, 0.0, 0.0, 1.763225995460199E9, 0.0, 2025-11-15 11:59:55.460
33.0, 380.2879870943725, -1032.0066932728514, 374.2686181156896, 2381.1999116376974, -0.03200000151991844, 0.19200000911951065, 1.0240000486373901, 0.0, 0.0, 0.0, 0.0, 0.0, 1.763225995460199E9, 0.0, 2025-11-15 11:59:55.460
34.0, 615.1387447118759, -794.8596370825544, 611.0379444104619, 2601.046190632973, -0.03200000151991844, 0.19200000911951065, 1.0240000486373901, 0.0, 0.0, 0.0, 0.0, 0.0, 1.7632259954609492E9, 0.0, 2025-11-15 11:59:55.460
34.0, 729.7722882037051, -647.6141659771092, 789.9902873402461, 2791.494986026548, -0.03200000151991844, 0.19200000911951065, 1.0240000486373901, 0.0, 0.0, 0.0, 0.0, 0.0, 1.7632259954609492E9, 0.0, 2025-11-15 11:59:55.460
35.0, 749.5189599697478, -645.8040543985553, 771.5600603586063, 2782.2275139363483, -0.03200000151991844, 0.19200000911951065, 1.0240000486373901, 0.0, 0.0, 0.0, 0.0, 0.0, 1.7632259954738264E9, 0.0, 2025-11-15 11:59:55.473
35.0, 627.3382983673364, -804.1570283723995, 583.3477251385339, 2568.8942707139067, -0.03200000151991844, 0.19200000911951065, 1.0240000486373901, 0.0, 0.0, 0.0, 0.0, 0.0, 1.7632259954738264E9, 0.0, 2025-11-15 11:59:55.473
36.0, 850.9113876684569, -1020.1661700131372, 408.37276581162587, 2408.205729217734, -0.03200000151991844, 0.19200000911951065, 1.0240000486373901, 0.0, 0.0, 0.0, 0.0, 0.0, 1.763225995474521E9, 0.0, 2025-11-15 11:59:55.474
36.0, 697.6091485847719, -1179.9533956199884, 249.52051519369707, 2274.953093796503, -0.03200000151991844, 0.19200000911951065, 1.0240000486373901, 0.0, 0.0, 0.0, 0.0, 0.0, 1.763225995474521E9, 0.0, 2025-11-15 11:59:55.474
37.0, 487.1294490285218, -1421.6089012068696, 468.84694809513167, 2480.4306771620177, -0.03200000151991844, 0.19200000911951065, 1.0240000486373901, 0.0, 0.0, 0.0, 0.0, 0.0, 1.7632259954881847E9, 0.0, 2025-11-15 11:59:55.488
37.0, 498.5735428929329, -1393.3202979420312, 518.0154128125869, 2519.673447397072, -0.03200000151991844, 0.19200000911951065, 1.0240000486373901, 0.0, 0.0, 0.0, 0.0, 0.0, 1.7632259954881847E9, 0.0, 2025-11-15 11:59:55.488
38.0, 678.4982598111965, -1188.2709331214428, 739.7372516356409, 2762.6379179684445, -0.03200000151991844, 0.19200000911951065, 1.0240000486373901, 0.0, 0.0, 0.0, 0.0, 0.0, 1.7632259955038056E9, 0.0, 2025-11-15 11:59:55.503
38.0, 843.7382595534436, -1048.5258313771337, 857.7497947374359, 2878.2980639981106, -0.03200000151991844, 0.19200000911951065, 1.0240000486373901, 0.0, 0.0, 0.0, 0.0, 0.0, 1.7632259955038056E9, 0.0, 2025-11-15 11:59:55.503
39.0, 620.7448547454551, -1274.7280703471042, 622.6241544731893, 3119.5814495394006, -0.03200000151991844, 0.19200000911951065, 1.0240000486373901, 0.0, 0.0, 0.0, 0.0, 0.0, 1.7632259955045137E9, 0.0, 2025-11-15 11:59:55.504
39.0, 733.2391754626296, -1133.526277570054, 793.019606304355, 3298.242080272641, -0.03200000151991844, 0.19200000911951065, 1.0240000486373901, 0.0, 0.0, 0.0, 0.0, 0.0, 1.7632259955045137E9, 0.0, 2025-11-15 11:59:55.504
40.0, 751.6207837448455, -1130.5605369051918, 786.5869783805683, 3305.998632780742, -0.03200000151991844, 0.19200000911951065, 1.0240000486373901, 0.0, 0.0, 0.0, 0.0, 0.0, 1.7632259955349383E9, 0.0, 2025-11-15 11:59:55.534
40.0, 601.2263168767095, -1302.627724016551, 591.2538736448623, 3095.7769863214344, -0.03200000151991844, 0.19200000911951065, 1.0240000486373901, 0.0, 0.0, 0.0, 0.0, 0.0, 1.7632259955349383E9, 0.0, 2025-11-15 11:59:55.534
41.0, 835.4992599510588, -1516.6360191809945, 403.6081332680769, 2893.2389643210918, -0.03200000151991844, 0.20800000987946987, 1.0240000486373901, 0.0, 0.0, 0.0, 0.0, 0.0, 1.763225995535648E9, 0.0, 2025-11-15 11:59:55.535
41.0, 689.8787753763609, -1672.103660339024, 255.05930702807382, 2768.891030694358, -0.03200000151991844, 0.20800000987946987, 1.0240000486373901, 0.0, 0.0, 0.0, 0.0, 0.0, 1.763225995535648E9, 0.0, 2025-11-15 11:59:55.535
42.0, 498.43890649452806, -1891.0355337951332, 490.9123578337021, 2993.7300761304796, -0.03200000151991844, 0.20800000987946987, 1.0240000486373901, 0.0, 0.0, 0.0, 0.0, 0.0, 1.763225995565245E9, 0.0, 2025-11-15 11:59:55.565
42.0, 517.2506032716483, -1864.456064810045, 539.6208148566075, 3023.8699298733845, -0.03200000151991844, 0.20800000987946987, 1.0240000486373901, 0.0, 0.0, 0.0, 0.0, 0.0, 1.763225995565245E9, 0.0, 2025-11-15 11:59:55.565
43.0, 689.5571439801715, -1660.8241220726632, 757.3147814273834, 3267.185951040592, -0.03200000151991844, 0.20800000987946987, 1.0240000486373901, 0.0, 0.0, 0.0, 0.0, 0.0, 1.763225995565908E9, 0.0, 2025-11-15 11:59:55.565
43.0, 834.0743580679409, -1545.163976042997, 852.7719878964126, 3367.265673854854, -0.03200000151991844, 0.20800000987946987, 1.0240000486373901, 0.0, 0.0, 0.0, 0.0, 0.0, 1.763225995565908E9, 0.0, 2025-11-15 11:59:55.565
44.0, 610.5985061656684, -1785.6975116431713, 1092.6903099538758, 3569.2614103616215, -0.03200000151991844, 0.20800000987946987, 1.0240000486373901, 0.0, 0.0, 0.0, 0.0, 0.0, 1.7632259955666437E9, 0.0, 2025-11-15 11:59:55.566
44.0, 717.41191885015, -1639.8694626209326, 1274.1222065542825, 3786.3532530395314, -0.03200000151991844, 0.20800000987946987, 1.0240000486373901, 0.0, 0.0, 0.0, 0.0, 0.0, 1.7632259955666437E9, 0.0, 2025-11-15 11:59:55.566
45.0, 736.4741889243014, -1645.5840297532268, 1247.6399749680422, 3759.6877663554624, -0.03200000151991844, 0.20800000987946987, 1.0240000486373901, 0.0, 0.0, 0.0, 0.0, 0.0, 1.7632259955673912E9, 0.0, 2025-11-15 11:59:55.567
45.0, 606.8249471103773, -1799.6248990781605, 1063.0516028050333, 3560.2183322687633, -0.03200000151991844, 0.20800000987946987, 1.0240000486373901, 0.0, 0.0, 0.0, 0.0, 0.0, 1.7632259955673912E9, 0.0, 2025-11-15 11:59:55.567
46.0, 829.7622534190305, -2027.1828517820686, 875.1141502317041, 3366.663549961988, -0.03200000151991844, 0.20800000987946987, 1.0240000486373901, 0.0, 0.0, 0.0, 0.0, 0.0, 1.763225995578185E9, 0.0, 2025-11-15 11:59:55.578
46.0, 696.3936810991727, -2157.888615333475, 750.5306029077619, 3284.5465666349046, -0.03200000151991844, 0.20800000987946987, 1.0240000486373901, 0.0, 0.0, 0.0, 0.0, 0.0, 1.763225995578185E9, 0.0, 2025-11-15 11:59:55.578
47.0, 472.7757129985839, -1928.3073767535388, 952.6160970134661, 3457.621656784322, -0.03200000151991844, 0.20800000987946987, 1.0240000486373901, 0.0, 0.0, 0.0, 0.0, 0.0, 1.7632259955938392E9, 0.0, 2025-11-15 11:59:55.593
47.0, 484.50777915958315, -1889.5769728124142, 1003.2693020133302, 3495.8883131309412, -0.03200000151991844, 0.20800000987946987, 1.0240000486373901, 0.0, 0.0, 0.0, 0.0, 0.0, 1.7632259955938392E9, 0.0, 2025-11-15 11:59:55.593
48.0, 674.1936349621974, -1680.7278696368448, 1231.1956348628737, 3735.0829645469785, -0.03200000151991844, 0.20800000987946987, 1.0240000486373901, 0.0, 0.0, 0.0, 0.0, 0.0, 1.7632259955945337E9, 0.0, 2025-11-15 11:59:55.594
48.0, 819.866478136275, -1563.182814029511, 1329.4166273991577, 3828.4196477411315, -0.03200000151991844, 0.20800000987946987, 1.0240000486373901, 0.0, 0.0, 0.0, 0.0, 0.0, 1.7632259955945337E9, 0.0, 2025-11-15 11:59:55.594
49.0, 625.1803760929033, -1771.7776040080935, 1100.0915719661862, 3583.947997487616, -0.03200000151991844, 0.20800000987946987, 1.0240000486373901, 0.0, 0.0, 0.0, 0.0, 0.0, 1.763225995624571E9, 0.0, 2025-11-15 11:59:55.624
49.0, 729.6713109049015, -1624.2254611062817, 1289.5941726709716, 3796.4734223196283, -0.03200000151991844, 0.20800000987946987, 1.0240000486373901, 0.0, 0.0, 0.0, 0.0, 0.0, 1.763225995624571E9, 0.0, 2025-11-15 11:59:55.624
50.0, 741.7025690623559, -1633.7397665935569, 1267.8354347287677, 3794.850305738859, -0.03200000151991844, 0.20800000987946987, 1.0240000486373901, 0.0, 0.0, 0.0, 0.0, 0.0, 1.7632259956253104E9, 0.0, 2025-11-15 11:59:55.625
50.0, 589.2848163181916, -1807.688123382628, 1064.8018759842962, 4031.028727840632, -0.03200000151991844, 0.20800000987946987, 1.0240000486373901, 0.0, 0.0, 0.0, 0.0, 0.0, 1.7632259956253104E9, 0.0, 2025-11-15 11:59:55.625
51.0, 350.1294338516891, -2010.7609510766342, 896.8541886741295, 3875.897677678615, -0.03200000151991844, 0.20800000987946987, 1.0240000486373901, 0.0, 0.0, 0.0, 0.0, 0.0, 1.7632259956259997E9, 0.0, 2025-11-15 11:59:55.625
51.0, 199.8752132318914, -2170.0320704896003, 733.4691793099046, 3736.0964774349704, -0.03200000151991844, 0.20800000987946987, 1.0240000486373901, 0.0, 0.0, 0.0, 0.0, 0.0, 1.7632259956259997E9, 0.0, 2025-11-15 11:59:55.625
52.0, -35.411242730449885, -1939.8449681168422, 938.6475706789643, 3926.042256284505, -0.03200000151991844, 0.20800000987946987, 1.0240000486373901, 0.0, 0.0, 0.0, 0.0, 0.0, 1.763225995638193E9, 0.0, 2025-11-15 11:59:55.638
52.0, 22.587125782389194, -1876.8650528630242, 1014.9677090747282, 3987.1821407601237, -0.03200000151991844, 0.20800000987946987, 1.0240000486373901, 0.0, 0.0, 0.0, 0.0, 0.0, 1.763225995638193E9, 0.0, 2025-11-15 11:59:55.638
53.0, 202.33606740273535, -1668.3076618839987, 1244.169347809162, 3758.412460470572, -0.03200000151991844, 0.20800000987946987, 1.0240000486373901, 0.0, 0.0, 0.0, 0.0, 0.0, 1.7632259956538863E9, 0.0, 2025-11-15 11:59:55.653
53.0, 331.1644011763856, -1569.5743030537851, 1321.562837492209, 3830.678547314368, -0.03200000151991844, 0.20800000987946987, 1.0240000486373901, 0.0, 0.0, 0.0, 0.0, 0.0, 1.7632259956538863E9, 0.0, 2025-11-15 11:59:55.653
54.0, 117.93587515270337, -1787.4964035218582, 1090.842799375765, 4059.938154498115, -0.03200000151991844, 0.20800000987946987, 1.0240000486373901, 0.0, 0.0, 0.0, 0.0, 0.0, 1.7632259956545703E9, 0.0, 2025-11-15 11:59:55.654
54.0, 233.34731783531606, -1630.7291471292265, 1271.1415062895976, 4263.9627867308445, -0.03200000151991844, 0.20800000987946987, 1.0240000486373901, 0.0, 0.0, 0.0, 0.0, 0.0, 1.7632259956545703E9, 0.0, 2025-11-15 11:59:55.654
55.0, 250.8575294278562, -1641.503798901569, 1257.6030684500001, 4259.617022982333, -0.03200000151991844, 0.20800000987946987, 1.0240000486373901, 0.0, 0.0, 0.0, 0.0, 0.0, 1.7632259956681764E9, 0.0, 2025-11-15 11:59:55.668
55.0, 120.20973432576284, -1788.427638610825, 1087.5105485152453, 4077.007057895884, -0.03200000151991844, 0.20800000987946987, 1.0240000486373901, 0.0, 0.0, 0.0, 0.0, 0.0, 1.7632259956681764E9, 0.0, 2025-11-15 11:59:55.668
56.0, 349.5422695586458, -2015.443305821158, 886.3525495985523, 3867.101432982832, -0.03200000151991844, 0.20800000987946987, 1.0240000486373901, 0.0, 0.0, 0.0, 0.0, 0.0, 1.7632259956993415E9, 0.0, 2025-11-15 11:59:55.699
56.0, 216.89549793023616, -2165.1328015476465, 733.0877095144242, 3734.2153077572584, -0.03200000151991844, 0.20800000987946987, 1.0240000486373901, 0.0, 0.0, 0.0, 0.0, 0.0, 1.7632259956993415E9, 0.0, 2025-11-15 11:59:55.699
57.0, -17.268988045398146, -1929.305930041708, 948.577005061321, 3945.6580315520987, -0.03200000151991844, 0.20800000987946987, 1.0240000486373901, 0.0, 0.0, 0.0, 0.0, 0.0, 1.7632259957E9, 0.0, 2025-11-15 11:59:55.700
57.0, 15.765548263210803, -1874.1611051950604, 1020.9627687036991, 3998.891767521389, -0.03200000151991844, 0.20800000987946987, 1.0240000486373901, 0.0, 0.0, 0.0, 0.0, 0.0, 1.7632259957E9, 0.0, 2025-11-15 11:59:55.700
58.0, 204.06764108221978, -1671.83812744217, 1243.6046229158528, 3758.8537686653435, -0.03200000151991844, 0.20800000987946987, 1.0240000486373901, 0.0, 0.0, 0.0, 0.0, 0.0, 1.763225995714539E9, 0.0, 2025-11-15 11:59:55.714
58.0, 361.8689798125997, -1537.7290549310856, 1348.867847068701, 3864.823833909817, -0.03200000151991844, 0.20800000987946987, 1.0240000486373901, 0.0, 0.0, 0.0, 0.0, 0.0, 1.763225995714539E9, 0.0, 2025-11-15 11:59:55.714
59.0, 145.68967272387818, -1768.7595047438517, 1105.6079244008288, 4085.388173696585, -0.03200000151991844, 0.20800000987946987, 1.0240000486373901, 0.0, 0.0, 0.0, 0.0, 0.0, 1.7632259957153063E9, 0.0, 2025-11-15 11:59:55.715
59.0, 247.74219276476651, -1627.8793433629908, 1281.411271567922, 4278.024810564239, -0.03200000151991844, 0.20800000987946987, 1.0240000486373901, 0.0, 0.0, 0.0, 0.0, 0.0, 1.7632259957153063E9, 0.0, 2025-11-15 11:59:55.715
60.0, 247.5290184672922, -1639.876942420844, 1255.856535170693, 4245.446542050224, -0.03200000151991844, 0.20800000987946987, 1.0240000486373901, 0.0, 0.0, 0.0, 0.0, 0.0, 1.763225995715933E9, 0.0, 2025-11-15 11:59:55.715
60.0, 109.07605215767398, -1801.7080233534798, 1070.35188751854, 4049.182202225551, -0.03200000151991844, 0.20800000987946987, 1.0240000486373901, 0.0, 0.0, 0.0, 0.0, 0.0, 1.763225995715933E9, 0.0, 2025-11-15 11:59:55.715
61.0, 347.6536200810224, -2015.865914516151, 887.0257315905765, 3870.9423102373257, -0.03200000151991844, 0.20800000987946987, 1.0240000486373901, 0.0, 0.0, 0.0, 0.0, 0.0, 1.7632259957281692E9, 0.0, 2025-11-15 11:59:55.728
61.0, 212.9125044774264, -2163.4797657672316, 736.1432077782229, 3726.6532300468534, -0.03200000151991844, 0.20800000987946987, 1.0240000486373901, 0.0, 0.0, 0.0, 0.0, 0.0, 1.7632259957281692E9, 0.0, 2025-11-15 11:59:55.728
62.0, 5.181631388608366, -2401.4477299978025, 960.0023994259536, 3947.3746456317604, -0.03200000151991844, 0.20800000987946987, 1.0240000486373901, 0.0, 0.0, 0.0, 0.0, 0.0, 1.763225995743893E9, 0.0, 2025-11-15 11:59:55.743
62.0, 24.595452058594674, -2344.3170182746835, 1035.2940653339028, 4018.776815585792, -0.03200000151991844, 0.20800000987946987, 1.0240000486373901, 0.0, 0.0, 0.0, 0.0, 0.0, 1.763225995743893E9, 0.0, 2025-11-15 11:59:55.743
63.0, 200.51473612431437, -2164.740112052299, 1230.1746421749704, 4221.701917231549, -0.03200000151991844, 0.20800000987946987, 1.0240000486373901, 0.0, 0.0, 0.0, 0.0, 0.0, 1.7632259957445886E9, 0.0, 2025-11-15 11:59:55.744
63.0, 329.02143850177526, -2059.574125298299, 1321.4132414939813, 4322.952228731941, -0.03200000151991844, 0.20800000987946987, 1.0240000486373901, 0.0, 0.0, 0.0, 0.0, 0.0, 1.7632259957445886E9, 0.0, 2025-11-15 11:59:55.744
64.0, 136.4184607337229, -2272.682974523399, 1099.9531956678256, 4081.4163999436423, -0.03200000151991844, 0.20800000987946987, 1.0240000486373901, 0.0, 0.0, 0.0, 0.0, 0.0, 1.7632259957749772E9, 0.0, 2025-11-15 11:59:55.774
64.0, 263.43481297884136, -2105.6010740529746, 1292.1447844407521, 4289.6334600267, -0.03200000151991844, 0.20800000987946987, 1.0240000486373901, 0.0, 0.0, 0.0, 0.0, 0.0, 1.7632259957749772E9, 0.0, 2025-11-15 11:59:55.774
65.0, 258.8945744326338, -2118.619665798731, 1266.8892400399782, 4275.605095292907, -0.03200000151991844, 0.20800000987946987, 1.0240000486373901, 0.0, 0.0, 0.0, 0.0, 0.0, 1.763225995775682E9, 0.0, 2025-11-15 11:59:55.775
65.0, 120.60616372106597, -2275.8731091856025, 1086.500775527209, 4071.3672887627035, -0.03200000151991844, 0.20800000987946987, 1.0240000486373901, 0.0, 0.0, 0.0, 0.0, 0.0, 1.763225995775682E9, 0.0, 2025-11-15 11:59:55.775
66.0, -123.9645938812755, -2487.046560183633, 919.0430151112378, 3920.350128551945, -0.03200000151991844, 0.20800000987946987, 1.0240000486373901, 0.0, 0.0, 0.0, 0.0, 0.0, 1.763225995788868E9, 0.0, 2025-11-15 11:59:55.788
66.0, -266.888610587921, -2636.78093470959, 759.4689638018608, 3770.4175393283367, -0.03200000151991844, 0.20800000987946987, 1.0240000486373901, 0.0, 0.0, 0.0, 0.0, 0.0, 1.763225995788868E9, 0.0, 2025-11-15 11:59:55.788
67.0, -486.05983764119446, -2881.211446063593, 975.3958276435733, 3969.0361461751163, -0.03200000151991844, 0.20800000987946987, 1.0240000486373901, 0.0, 0.0, 0.0, 0.0, 0.0, 1.7632259957895377E9, 0.0, 2025-11-15 11:59:55.789
67.0, -427.25739063788205, -2813.855847861618, 1056.1739267865196, 4031.5710133342072, -0.03200000151991844, 0.20800000987946987, 1.0240000486373901, 0.0, 0.0, 0.0, 0.0, 0.0, 1.7632259957895377E9, 0.0, 2025-11-15 11:59:55.789
68.0, -264.5175140160136, -2617.8383414340205, 1261.0961350086145, 4258.528712095227, -0.03200000151991844, 0.20800000987946987, 1.0240000486373901, 0.0, 0.0, 0.0, 0.0, 0.0, 1.7632259958038745E9, 0.0, 2025-11-15 11:59:55.803
68.0, -125.25859926594421, -2517.1789341266267, 1349.8589205569588, 4350.960339500103, -0.03200000151991844, 0.20800000987946987, 1.0240000486373901, 0.0, 0.0, 0.0, 0.0, 0.0, 1.7632259958038745E9, 0.0, 2025-11-15 11:59:55.803
69.0, -327.27864512242377, -2722.6957864416763, 1131.330956296064, 4118.13099780865, -0.03200000151991844, 0.20800000987946987, 1.0240000486373901, 0.0, 0.0, 0.0, 0.0, 0.0, 1.763225995804542E9, 0.0, 2025-11-15 11:59:55.804
69.0, -217.74258527019992, -2575.1548632397316, 1314.2962118783034, 4315.416330321226, -0.03200000151991844, 0.20800000987946987, 1.0240000486373901, 0.0, 0.0, 0.0, 0.0, 0.0, 1.763225995804542E9, 0.0, 2025-11-15 11:59:55.804
70.0, -242.41844517784193, -2609.1318543371744, 1264.7275778655894, 4251.535099178087, -0.03200000151991844, 0.20800000987946987, 1.0240000486373901, 0.0, 0.0, 0.0, 0.0, 0.0, 1.763225995834534E9, 0.0, 2025-11-15 11:59:55.834
70.0, -346.2773368973285, -2752.308314290829, 1101.4267162503675, 4071.902094456367, -0.03200000151991844, 0.20800000987946987, 1.0240000486373901, 0.0, 0.0, 0.0, 0.0, 0.0, 1.763225995834534E9, 0.0, 2025-11-15 11:59:55.834
71.0, -578.3755281474441, -2943.8248511217535, 939.7284017661586, 3919.4525525625795, -0.03200000151991844, 0.20800000987946987, 1.0240000486373901, 0.0, 0.0, 0.0, 0.0, 0.0, 1.7632259958353033E9, 0.0, 2025-11-15 11:59:55.835
71.0, -750.9906106023118, -3118.0144314579666, 763.6726113520563, 3762.623587820679, -0.03200000151991844, 0.20800000987946987, 1.0240000486373901, 0.0, 0.0, 0.0, 0.0, 0.0, 1.7632259958353033E9, 0.0, 2025-11-15 11:59:55.835
72.0, -965.5468011102639, -2876.4281140202656, 977.87164141424, 3966.5977314040065, -0.03200000151991844, 0.20800000987946987, 1.0240000486373901, 0.0, 0.0, 0.0, 0.0, 0.0, 1.763225995835997E9, 0.0, 2025-11-15 11:59:55.835
72.0, -957.1133267101832, -2846.370538076386, 1027.5038537262008, 4004.486657855101, -0.03200000151991844, 0.20800000987946987, 1.0240000486373901, 0.0, 0.0, 0.0, 0.0, 0.0, 1.763225995835997E9, 0.0, 2025-11-15 11:59:55.835
73.0, -781.3772977422923, -2649.324559160974, 1237.0635378933512, 4230.520601327065, -0.03200000151991844, 0.20800000987946987, 1.0240000486373901, 0.0, 0.0, 0.0, 0.0, 0.0, 1.7632259958481693E9, 0.0, 2025-11-15 11:59:55.848
73.0, -628.7968593500555, -2526.835355812218, 1346.6687858947553, 4344.501532276627, -0.03200000151991844, 0.20800000987946987, 1.0240000486373901, 0.0, 0.0, 0.0, 0.0, 0.0, 1.7632259958481693E9, 0.0, 2025-11-15 11:59:55.848
74.0, -848.8881017924286, -2750.7076371097937, 1591.1610055980273, 4568.330804724712, -0.03200000151991844, 0.20800000987946987, 1.0240000486373901, 0.0, 0.0, 0.0, 0.0, 0.0, 1.7632259958638756E9, 0.0, 2025-11-15 11:59:55.863
74.0, -720.0466783689335, -2598.4469601637684, 1773.266084190458, 4767.134536619298, -0.03200000151991844, 0.20800000987946987, 1.0240000486373901, 0.0, 0.0, 0.0, 0.0, 0.0, 1.7632259958638756E9, 0.0, 2025-11-15 11:59:55.863
75.0, -743.776343587786, -2630.9018119792454, 1734.3673847513273, 4740.727103032172, -0.03200000151991844, 0.20800000987946987, 1.0240000486373901, 0.0, 0.0, 0.0, 0.0, 0.0, 1.76322599586458E9, 0.0, 2025-11-15 11:59:55.864
75.0, -864.8387751034461, -2781.6964481426403, 1562.8424831335433, 4542.749889027793, -0.03200000151991844, 0.20800000987946987, 1.0240000486373901, 0.0, 0.0, 0.0, 0.0, 0.0, 1.76322599586458E9, 0.0, 2025-11-15 11:59:55.864
76.0, -1087.4712795657106, -2963.0703762937337, 1418.3701478452422, 4424.699946926441, -0.03200000151991844, 0.20800000987946987, 1.0240000486373901, 0.0, 0.0, 0.0, 0.0, 0.0, 1.763225995878121E9, 0.0, 2025-11-15 11:59:55.878
76.0, -1276.1006136308424, -3150.536601472646, 1224.1197441467084, 4221.7393162311055, -0.03200000151991844, 0.20800000987946987, 1.0240000486373901, 0.0, 0.0, 0.0, 0.0, 0.0, 1.763225995878121E9, 0.0, 2025-11-15 11:59:55.878
77.0, -1495.413956882432, -2915.4801493575796, 1429.4103325144388, 4415.15572223952, -0.03200000151991844, 0.20800000987946987, 1.0240000486373901, 0.0, 0.0, 0.0, 0.0, 0.0, 1.763225995893983E9, 0.0, 2025-11-15 11:59:55.893
77.0, -1454.8397822631523, -2859.5312460204586, 1501.7512173573487, 4473.341085750144, -0.03200000151991844, 0.20800000987946987, 1.0240000486373901, 0.0, 0.0, 0.0, 0.0, 0.0, 1.763225995893983E9, 0.0, 2025-11-15 11:59:55.893
78.0, -1290.3421526621096, -2666.32614435954, 1711.9803436165676, 4714.4131669439375, -0.03200000151991844, 0.20800000987946987, 1.0240000486373901, 0.0, 0.0, 0.0, 0.0, 0.0, 1.7632259958945966E9, 0.0, 2025-11-15 11:59:55.894
78.0, -1149.1459697349928, -2560.7300691106357, 1800.6384119661525, 4802.4915508003905, -0.03200000151991844, 0.20800000987946987, 1.0240000486373901, 0.0, 0.0, 0.0, 0.0, 0.0, 1.7632259958945966E9, 0.0, 2025-11-15 11:59:55.894
79.0, -1346.0012137526646, -2767.507267710753, 1572.0688163242303, 5032.790850171819, -0.03200000151991844, 0.20800000987946987, 1.0240000486373901, 0.0, 0.0, 0.0, 0.0, 0.0, 1.763225995908152E9, 0.0, 2025-11-15 11:59:55.908
79.0, -1242.976319723297, -2621.0696149957366, 1752.4198818374425, 5223.531357761938, -0.03200000151991844, 0.20800000987946987, 1.0240000486373901, 0.0, 0.0, 0.0, 0.0, 0.0, 1.763225995908152E9, 0.0, 2025-11-15 11:59:55.908
80.0, -1249.7829376426525, -2656.075078580994, 1710.9705706285313, 5197.6811692682095, -0.03200000151991844, 0.20800000987946987, 1.008000047877431, 0.0, 0.0, 0.0, 0.0, 0.0, 1.7632259959239285E9, 0.0, 2025-11-15 11:59:55.923
80.0, -1363.073857050389, -2789.9691068446264, 1551.7237605652772, 5022.098476198502, -0.03200000151991844, 0.20800000987946987, 1.008000047877431, 0.0, 0.0, 0.0, 0.0, 0.0, 1.7632259959239285E9, 0.0, 2025-11-15 11:59:55.923
81.0, -1595.964907091111, -2984.5187025396153, 1389.9880470815115, 4861.129442205653, -0.03200000151991844, 0.20800000987946987, 1.008000047877431, 0.0, 0.0, 0.0, 0.0, 0.0, 1.7632259959245927E9, 0.0, 2025-11-15 11:59:55.924
81.0, -1750.9650607546791, -3145.5625345315784, 1228.5178664945997, 4715.707172328606, -0.03200000151991844, 0.20800000987946987, 1.008000047877431, 0.0, 0.0, 0.0, 0.0, 0.0, 1.7632259959245927E9, 0.0, 2025-11-15 11:59:55.924
82.0, -1507.7818060358986, -2923.689229760319, 1417.5062309554778, 4897.174597978592, -0.03200000151991844, 0.20800000987946987, 1.008000047877431, 0.0, 0.0, 0.0, 0.0, 0.0, 1.7632259959381812E9, 0.0, 2025-11-15 11:59:55.938
82.0, -1435.0370119977742, -2832.7199032381177, 1522.743275808636, 4991.330319263041, -0.03200000151991844, 0.20800000987946987, 1.008000047877431, 0.0, 0.0, 0.0, 0.0, 0.0, 1.7632259959381812E9, 0.0, 2025-11-15 11:59:55.938
83.0, -1257.84616194712, -2648.2586876736023, 1726.1919634481892, 5217.5811769324355, -0.03200000151991844, 0.20800000987946987, 1.008000047877431, 0.0, 0.0, 0.0, 0.0, 0.0, 1.763225995953864E9, 0.0, 2025-11-15 11:59:55.953
83.0, -1141.8419451215304, -2552.719203405548, 1807.254294987768, 5302.914474221412, -0.03200000151991844, 0.20800000987946987, 1.008000047877431, 0.0, 0.0, 0.0, 0.0, 0.0, 1.763225995953864E9, 0.0, 2025-11-15 11:59:55.953
84.0, -1342.137897098437, -2759.8629122013226, 1585.5137566649355, 5536.755458850879, -0.03200000151991844, 0.20800000987946987, 1.008000047877431, 0.0, 0.0, 0.0, 0.0, 0.0, 1.763225995954569E9, 0.0, 2025-11-15 11:59:55.954
84.0, -1225.9747345247306, -2610.5530163203366, 1766.7511784676462, 5741.913280770183, -0.03200000151991844, 0.20800000987946987, 1.008000047877431, 0.0, 0.0, 0.0, 0.0, 0.0, 1.763225995954569E9, 0.0, 2025-11-15 11:59:55.954
85.0, -1222.1301173702814, -2621.9784106849693, 1747.9581811903045, 5728.307524731383, -0.03200000151991844, 0.20800000987946987, 1.008000047877431, 0.0, 0.0, 0.0, 0.0, 0.0, 1.7632259959681852E9, 0.0, 2025-11-15 11:59:55.968
85.0, -1351.96635418199, -2780.4735008571297, 1557.7262999941595, 5527.110256865155, -0.03200000151991844, 0.20800000987946987, 1.008000047877431, 0.0, 0.0, 0.0, 0.0, 0.0, 1.7632259959681852E9, 0.0, 2025-11-15 11:59:55.968
86.0, -1581.768246859312, -2985.6294528264552, 1381.4161963830702, 5339.965663082432, -0.03200000151991844, 0.20800000987946987, 1.008000047877431, 0.0, 0.0, 0.0, 0.0, 0.0, 1.763225995983874E9, 0.0, 2025-11-15 11:59:55.983
86.0, -1766.5454839700833, -3152.9637965438887, 1217.7544344221242, 5194.8351054019295, -0.03200000151991844, 0.20800000987946987, 1.008000047877431, 0.0, 0.0, 0.0, 0.0, 0.0, 1.763225995983874E9, 0.0, 2025-11-15 11:59:55.983
87.0, -1985.8850065213628, -2908.688491038047, 1444.5531874350272, 5432.703962283675, -0.03200000151991844, 0.20800000987946987, 1.008000047877431, 0.0, 0.0, 0.0, 0.0, 0.0, 1.7632259959845893E9, 0.0, 2025-11-15 11:59:55.984
87.0, -1922.1047526770271, -2835.2331160083413, 1513.8497937140055, 5460.10994915897, -0.03200000151991844, 0.20800000987946987, 1.008000047877431, 0.0, 0.0, 0.0, 0.0, 0.0, 1.7632259959845893E9, 0.0, 2025-11-15 11:59:55.984
88.0, -1766.7212592680007, -2668.315771135967, 1700.8354417486116, 5684.905985745601, -0.03200000151991844, 0.20800000987946987, 1.008000047877431, 0.0, 0.0, 0.0, 0.0, 0.0, 1.7632259959981833E9, 0.0, 2025-11-15 11:59:55.998
88.0, -1628.7750494023785, -2559.3089071274735, 1792.1675385665148, 5770.082207236439, -0.03200000151991844, 0.20800000987946987, 1.008000047877431, 0.0, 0.0, 0.0, 0.0, 0.0, 1.7632259959981833E9, 0.0, 2025-11-15 11:59:55.998
89.0, -1809.6609206092544, -2750.7562558092177, 1580.3900937256403, 6013.987262646668, -0.03200000151991844, 0.20800000987946987, 1.008000047877431, 0.0, 0.0, 0.0, 0.0, 0.0, 1.7632259960138712E9, 0.0, 2025-11-15 11:59:56.013
89.0, -1741.5031138667837, -2628.3175411098637, 1740.474641378969, 6196.159659438301, -0.03200000151991844, 0.20800000987946987, 1.008000047877431, 0.0, 0.0, 0.0, 0.0, 0.0, 1.7632259960138712E9, 0.0, 2025-11-15 11:59:56.013
90.0, -1727.1568576367572, -2636.6911771106534, 1727.014741438441, 6196.357874135952, -0.03200000151991844, 0.20800000987946987, 1.0240000486373901, 0.0, 0.0, 0.0, 0.0, 0.0, 1.7632259960145657E9, 0.0, 2025-11-15 11:59:56.014
90.0, -1842.4598432206549, -2777.6648359904066, 1555.9648071150295, 6010.004269193858, -0.03200000151991844, 0.20800000987946987, 1.0240000486373901, 0.0, 0.0, 0.0, 0.0, 0.0, 1.7632259960145657E9, 0.0, 2025-11-15 11:59:56.014
91.0, -2086.308800131548, -2983.1386794559658, 1378.6374507159926, 5837.5425226371735, -0.03200000151991844, 0.20800000987946987, 1.0240000486373901, 0.0, 0.0, 0.0, 0.0, 0.0, 1.7632259960282152E9, 0.0, 2025-11-15 11:59:56.028
91.0, -2260.262766770553, -3159.6956164641306, 1209.253641822841, 5672.025770298205, -0.03200000151991844, 0.20800000987946987, 1.0240000486373901, 0.0, 0.0, 0.0, 0.0, 0.0, 1.7632259960282152E9, 0.0, 2025-11-15 11:59:56.028
92.0, -2480.7466987082735, -2916.744235542603, 1429.4664310137741, 5884.194034684449, -0.03200000151991844, 0.20800000987946987, 1.0240000486373901, 0.0, 0.0, 0.0, 0.0, 0.0, 1.7632259960438733E9, 0.0, 2025-11-15 11:59:56.043
92.0, -2427.3895460404456, -2852.6610498018563, 1508.138966481667, 5962.193388160318, -0.03200000151991844, 0.20800000987946987, 1.0240000486373901, 0.0, 0.0, 0.0, 0.0, 0.0, 1.7632259960438733E9, 0.0, 2025-11-15 11:59:56.043
93.0, -2255.243821030017, -2666.210207460914, 1703.4084929181263, 6173.66042130487, -0.03200000151991844, 0.20800000987946987, 1.0240000486373901, 0.0, 0.0, 0.0, 0.0, 0.0, 1.7632259960445807E9, 0.0, 2025-11-15 11:59:56.044
93.0, -2141.6630593757145, -2580.7983722728677, 1778.4869845286012, 6249.778605103027, -0.03200000151991844, 0.20800000987946987, 1.0240000486373901, 0.0, 0.0, 0.0, 0.0, 0.0, 1.7632259960445807E9, 0.0, 2025-11-15 11:59:56.044
94.0, -2321.434440395795, -2771.389283864759, 1571.6574273291044, 6021.384784759022, -0.03200000151991844, 0.20800000987946987, 1.0240000486373901, 0.0, 0.0, 0.0, 0.0, 0.0, 1.763225996058202E9, 0.0, 2025-11-15 11:59:56.058
94.0, -2226.4615509710275, -2629.8621197915636, 1747.8272846918553, 6204.712810636964, -0.03200000151991844, 0.20800000987946987, 1.0240000486373901, 0.0, 0.0, 0.0, 0.0, 0.0, 1.763225996058202E9, 0.0, 2025-11-15 11:59:56.058
95.0, -2230.6838980210014, -2653.5394264110364, 1710.5928407330066, 6183.608555187006, -0.03200000151991844, 0.20800000987946987, 1.0240000486373901, 0.0, 0.0, 0.0, 0.0, 0.0, 1.7632259960738907E9, 0.0, 2025-11-15 11:59:56.073
95.0, -2359.267268347554, -2805.9721387550235, 1536.1882161493413, 5992.580075300299, -0.03200000151991844, 0.20800000987946987, 1.0240000486373901, 0.0, 0.0, 0.0, 0.0, 0.0, 1.7632259960738907E9, 0.0, 2025-11-15 11:59:56.073
96.0, -2568.3688147701323, -2981.676378573291, 1378.8581048133783, 5830.8555815164, -0.03200000151991844, 0.20800000987946987, 1.0240000486373901, 0.0, 0.0, 0.0, 0.0, 0.0, 1.7632259960745902E9, 0.0, 2025-11-15 11:59:56.074
96.0, -2731.9445590320975, -3140.861480287276, 1223.8803905495442, 5680.836974593811, -0.03200000151991844, 0.20800000987946987, 1.0240000486373901, 0.0, 0.0, 0.0, 0.0, 0.0, 1.7632259960745902E9, 0.0, 2025-11-15 11:59:56.074
97.0, -2495.7960561299697, -2940.3168249633163, 1413.1903864066117, 5875.49876728747, -0.03200000151991844, 0.20800000987946987, 1.0240000486373901, 0.0, 0.0, 0.0, 0.0, 0.0, 1.7632259960882618E9, 0.0, 2025-11-15 11:59:56.088
97.0, -2452.3683378444985, -2879.6481678821146, 1483.365869175177, 5938.041114246473, -0.03200000151991844, 0.20800000987946987, 1.0240000486373901, 0.0, 0.0, 0.0, 0.0, 0.0, 1.7632259960882618E9, 0.0, 2025-11-15 11:59:56.088
98.0, -2238.107599433046, -2644.788060514722, 1725.0213747620583, 5696.23040281143, -0.03200000151991844, 0.20800000987946987, 1.0240000486373901, 0.0, 0.0, 0.0, 0.0, 0.0, 1.7632259961038628E9, 0.0, 2025-11-15 11:59:56.103
98.0, -2127.4439597441815, -2560.8385262093507, 1801.113379260525, 5773.736089493148, -0.03200000151991844, 0.20800000987946987, 1.0240000486373901, 0.0, 0.0, 0.0, 0.0, 0.0, 1.7632259961038628E9, 0.0, 2025-11-15 11:59:56.103
99.0, -2357.554394167848, -2795.97912607342, 1558.3695627865382, 6012.820413860492, -0.03200000151991844, 0.20800000987946987, 1.0240000486373901, 0.0, 0.0, 0.0, 0.0, 0.0, 1.7632259961045785E9, 0.0, 2025-11-15 11:59:56.104
99.0, -2182.386829993222, -2591.879695841577, 1782.3278617830947, 6234.3963965852745, -0.03200000151991844, 0.20800000987946987, 1.0240000486373901, 0.0, 0.0, 0.0, 0.0, 0.0, 1.7632259961045785E9, 0.0, 2025-11-15 11:59:56.104
100.0, -2188.3856295221485, -2608.8326623407193, 1754.4207283137366, 6212.267408547457, -0.03200000151991844, 0.20800000987946987, 1.0240000486373901, 0.0, 0.0, 0.0, 0.0, 0.0, 1.7632259961188445E9, 0.0, 2025-11-15 11:59:56.118
100.0, -2387.9672606075183, -2831.2127235559747, 1998.5913166208193, 6452.742975698318, -0.03200000151991844, 0.20800000987946987, 1.0240000486373901, 0.0, 0.0, 0.0, 0.0, 0.0, 1.7632259961188445E9, 0.0, 2025-11-15 11:59:56.118
0.0, -122.80335494503379, -40.069288125261664, -84.03555200435221, -43.08364748954773, -0.03200000151991844, 0.20800000987946987, 1.0240000486373901, 0.0, 0.0, 0.0, 0.0, 0.0, 1.7632259961195548E9, 0.0, 2025-11-15 11:59:56.119
1.0, -258.99555173143744, -182.27898394037038, -220.78499388415366, -174.99739872664213, -0.03200000151991844, 0.2240000106394291, 1.0240000486373901, 0.0, 0.0, 0.0, 0.0, 0.0, 1.763225996133165E9, 0.0, 2025-11-15 11:59:56.133
1.0, -43.03128889016807, 11.264578666538, -41.281015710905194, 8.586810298264027, -0.03200000151991844, 0.2240000106394291, 1.0240000486373901, 0.0, 0.0, 0.0, 0.0, 0.0, 1.763225996133165E9, 0.0, 2025-11-15 11:59:56.133
2.0, 5.146102339029312, 67.66974979825318, 18.381608282215893, 61.734528568573296, -0.03200000151991844, 0.2240000106394291, 1.0240000486373901, 0.0, 0.0, 0.0, 0.0, 0.0, 1.7632259961488657E9, 0.0, 2025-11-15 11:59:56.148
2.0, 217.05444367835298, 289.0101188258268, 247.16437822161242, 291.95342009095475, -0.03200000151991844, 0.2240000106394291, 1.0240000486373901, 0.0, 0.0, 0.0, 0.0, 0.0, 1.7632259961488657E9, 0.0, 2025-11-15 11:59:56.148
3.0, 323.58549391618, 384.6804995923303, 338.8854246349074, 402.27298898389563, -0.03200000151991844, 0.2240000106394291, 1.0240000486373901, 0.0, 0.0, 0.0, 0.0, 0.0, 1.7632259961495616E9, 0.0, 2025-11-15 11:59:56.149
3.0, 92.23715260718018, 144.992181382142, 574.9366901381873, 610.4732195171528, -0.03200000151991844, 0.2240000106394291, 1.0240000486373901, 0.0, 0.0, 0.0, 0.0, 0.0, 1.7632259961495616E9, 0.0, 2025-11-15 11:59:56.149
4.0, 257.9465097938664, 339.71568242507055, 785.7567205904052, 834.712011010386, -0.03200000151991844, 0.2240000106394291, 1.0240000486373901, 0.0, 0.0, 0.0, 0.0, 0.0, 1.7632259961631787E9, 0.0, 2025-11-15 11:59:56.163
4.0, 242.80739477323368, 316.40488600125536, 760.8863858850673, 811.954719780013, -0.03200000151991844, 0.2240000106394291, 1.0240000486373901, 0.0, 0.0, 0.0, 0.0, 0.0, 1.7632259961631787E9, 0.0, 2025-11-15 11:59:56.163
5.0, 65.46320882439613, 119.82265468034893, 552.3476944058202, 606.2583522670902, -0.03200000151991844, 0.2240000106394291, 1.0240000486373901, 0.0, 0.0, 0.0, 0.0, 0.0, 1.7632259961788788E9, 0.0, 2025-11-15 11:59:56.178
5.0, -127.395952090621, -44.919938367791474, 401.2931351955049, 438.0488719600253, -0.03200000151991844, 0.2240000106394291, 1.0240000486373901, 0.0, 0.0, 0.0, 0.0, 0.0, 1.7632259961788788E9, 0.0, 2025-11-15 11:59:56.178
6.0, -261.2993301041424, -178.8644552808255, 263.19732933165506, 306.26227732142434, -0.03200000151991844, 0.2240000106394291, 1.0240000486373901, 0.0, 0.0, 0.0, 0.0, 0.0, 1.7632259961795826E9, 0.0, 2025-11-15 11:59:56.179
6.0, -42.073874501511455, 14.05454403348267, 438.13862955896184, 489.7716883472167, -0.03200000151991844, 0.2240000106394291, 1.0240000486373901, 0.0, 0.0, 0.0, 0.0, 0.0, 1.7632259961795826E9, 0.0, 2025-11-15 11:59:56.179
7.0, 17.528911092318594, 85.99151968117803, 522.8174443556927, 563.8478867695667, -0.03200000151991844, 0.2240000106394291, 1.0240000486373901, 0.0, 0.0, 0.0, 0.0, 0.0, 1.7632259961931927E9, 0.0, 2025-11-15 11:59:56.193
7.0, 226.47899156669155, 304.66907994030043, 746.8019226519391, 790.2894793367013, -0.03200000151991844, 0.2240000106394291, 1.0240000486373901, 0.0, 0.0, 0.0, 0.0, 0.0, 1.7632259961931927E9, 0.0, 2025-11-15 11:59:56.193
8.0, 327.2543357727118, 393.5440624873154, 830.0408759657294, 885.2230998119339, -0.03200000151991844, 0.2240000106394291, 1.0240000486373901, 0.0, 0.0, 0.0, 0.0, 0.0, 1.7632259962088816E9, 0.0, 2025-11-15 11:59:56.208
8.0, 85.22110029030591, 152.27376659587026, 1068.0406293459237, 1104.037166419439, -0.03200000151991844, 0.2240000106394291, 1.0240000486373901, 0.0, 0.0, 0.0, 0.0, 0.0, 1.7632259962088816E9, 0.0, 2025-11-15 11:59:56.208
9.0, 265.0261404099874, 348.0070406268351, 1286.2394824107178, 1326.8173969299532, -0.03200000151991844, 0.2240000106394291, 1.0240000486373901, 0.0, 0.0, 0.0, 0.0, 0.0, 1.7632259962095668E9, 0.0, 2025-11-15 11:59:56.209
9.0, 253.52220814628527, 331.04285442782566, 1267.3754270342179, 1316.895442347508, -0.03200000151991844, 0.2240000106394291, 1.0240000486373901, 0.0, 0.0, 0.0, 0.0, 0.0, 1.7632259962095668E9, 0.0, 2025-11-15 11:59:56.209
10.0, 73.86676402483135, 128.67125797551125, 1043.058097641915, 1086.8111872235313, -0.03200000151991844, 0.2240000106394291, 1.008000047877431, 0.0, 0.0, 0.0, 0.0, 0.0, 1.7632259962231915E9, 0.0, 2025-11-15 11:59:56.223
10.0, -134.56908020563424, -54.28090795688331, 884.3704026220366, 918.1865780213848, -0.03200000151991844, 0.2240000106394291, 1.008000047877431, 0.0, 0.0, 0.0, 0.0, 0.0, 1.7632259962231915E9, 0.0, 2025-11-15 11:59:56.223
11.0, -263.9135201731697, -182.14808744192123, 763.9194447491318, 815.1149352425709, -0.03200000151991844, 0.2240000106394291, 1.008000047877431, 0.0, 0.0, 0.0, 0.0, 0.0, 1.7632259962545557E9, 0.0, 2025-11-15 11:59:56.254
11.0, -50.870119197294116, 9.387148888781667, 938.1651235846803, 988.9417452830821, -0.03200000151991844, 0.2240000106394291, 1.008000047877431, 0.0, 0.0, 0.0, 0.0, 0.0, 1.7632259962545557E9, 0.0, 2025-11-15 11:59:56.254
12.0, 5.138622539117932, 72.23616764415056, 1000.4456775467843, 1035.630656329915, -0.03200000151991844, 0.2240000106394291, 1.008000047877431, 0.0, 0.0, 0.0, 0.0, 0.0, 1.7632259962553072E9, 0.0, 2025-11-15 11:59:56.255
12.0, 224.6800996880047, 304.25021114526317, 1243.8738957126625, 807.455620133318, -0.03200000151991844, 0.2240000106394291, 1.008000047877431, 0.0, 0.0, 0.0, 0.0, 0.0, 1.7632259962553072E9, 0.0, 2025-11-15 11:59:56.255
13.0, 330.78480133088306, 392.52306979941204, 1325.3999748467468, 887.6540347831324, -0.03200000151991844, 0.2240000106394291, 1.008000047877431, 0.0, 0.0, 0.0, 0.0, 0.0, 1.7632259962560248E9, 0.0, 2025-11-15 11:59:56.256
13.0, 116.63252001814544, 165.28113864175975, 1081.5528878858313, 1113.7721260040998, -0.03200000151991844, 0.2240000106394291, 1.008000047877431, 0.0, 0.0, 0.0, 0.0, 0.0, 1.7632259962560248E9, 0.0, 2025-11-15 11:59:56.256
14.0, 262.8943974352442, 359.39129609195516, 1298.4502557660453, 1335.022737432737, -0.03200000151991844, 0.2240000106394291, 1.008000047877431, 0.0, 0.0, 0.0, 0.0, 0.0, 1.7632259962688797E9, 0.0, 2025-11-15 11:59:56.268
14.0, 233.6446398817934, 309.58704838203266, 1247.1163889742456, 1292.8852846319787, -0.03200000151991844, 0.2240000106394291, 1.008000047877431, 0.0, 0.0, 0.0, 0.0, 0.0, 1.7632259962688797E9, 0.0, 2025-11-15 11:59:56.268
15.0, 57.355105720460415, 118.66328569408506, 1036.595550518483, 1074.368540070951, -0.03200000151991844, 0.2240000106394291, 1.008000047877431, 0.0, 0.0, 0.0, 0.0, 0.0, 1.7632259962696092E9, 0.0, 2025-11-15 11:59:56.269
15.0, -129.04524797108024, -40.869626715779305, 892.9160740207881, 926.1002063276246, -0.03200000151991844, 0.2240000106394291, 1.008000047877431, 0.0, 0.0, 0.0, 0.0, 0.0, 1.7632259962696092E9, 0.0, 2025-11-15 11:59:56.269
16.0, -271.2325043864548, -190.08415514789522, 742.5384367024526, 783.4454624177888, -0.03200000151991844, 0.2240000106394291, 1.008000047877431, 0.0, 0.0, 0.0, 0.0, 0.0, 1.7632259962831347E9, 0.0, 2025-11-15 11:59:56.283
16.0, -54.2098498577252, 9.28991148993373, 931.3809450650588, 980.2763970857486, -0.03200000151991844, 0.2240000106394291, 1.008000047877431, 0.0, 0.0, 0.0, 0.0, 0.0, 1.7632259962831347E9, 0.0, 2025-11-15 11:59:56.283
17.0, 28.54291646182537, 95.13183517288417, 1020.2634074119851, 1056.8994673779234, -0.03200000151991844, 0.2240000106394291, 1.008000047877431, 0.0, 0.0, 0.0, 0.0, 0.0, 1.763225996298869E9, 0.0, 2025-11-15 11:59:56.298
17.0, 223.2402382050641, 308.0499495002441, 1247.4455001703463, 1296.1838763928972, -0.03200000151991844, 0.2240000106394291, 1.008000047877431, 0.0, 0.0, 0.0, 0.0, 0.0, 1.763225996298869E9, 0.0, 2025-11-15 11:59:56.298
18.0, 318.2112576798536, 378.6368212639354, 1306.547139170114, 1352.992956719827, -0.03200000151991844, 0.2240000106394291, 1.008000047877431, 0.0, 0.0, 0.0, 0.0, 0.0, 1.7632259962995899E9, 0.0, 2025-11-15 11:59:56.299
18.0, 107.74277782347053, 168.10102320834994, 1085.9061314342543, 1124.8758889725432, -0.03200000151991844, 0.2240000106394291, 1.008000047877431, 0.0, 0.0, 0.0, 0.0, 0.0, 1.7632259962995899E9, 0.0, 2025-11-15 11:59:56.299
19.0, 262.56902613909915, 349.286086411681, 1290.9592361547984, 1326.4882857338525, -0.03200000151991844, 0.2240000106394291, 1.008000047877431, 0.0, 0.0, 0.0, 0.0, 0.0, 1.7632259963131373E9, 0.0, 2025-11-15 11:59:56.313
19.0, 233.92887227842584, 309.88624037848786, 1248.126161962282, 1300.4660618421622, -0.03200000151991844, 0.2240000106394291, 1.008000047877431, 0.0, 0.0, 0.0, 0.0, 0.0, 1.7632259963131373E9, 0.0, 2025-11-15 11:59:56.313
20.0, 74.67458241526037, 128.33092707954347, 1041.8987286556512, 1089.975142586045, -0.03200000151991844, 0.2240000106394291, 1.008000047877431, 0.0, 0.0, 0.0, 0.0, 0.0, 1.7632259963288865E9, 0.0, 2025-11-15 11:59:56.328
20.0, -102.66025378368795, -18.740638677962124, 917.2254237327725, 952.5712182139978, -0.03200000151991844, 0.2240000106394291, 1.008000047877431, 0.0, 0.0, 0.0, 0.0, 0.0, 1.7632259963288865E9, 0.0, 2025-11-15 11:59:56.328
21.0, -274.00003035366535, -191.4940974311903, 749.0608222251758, 789.7658933429047, -0.03200000151991844, 0.2240000106394291, 1.008000047877431, 0.0, 0.0, 0.0, 0.0, 0.0, 1.7632259963296015E9, 0.0, 2025-11-15 11:59:56.329
21.0, -49.09366671834141, 5.093743739649653, 928.9387903939933, 970.0851697064936, -0.03200000151991844, 0.2240000106394291, 1.008000047877431, 0.0, 0.0, 0.0, 0.0, 0.0, 1.7632259963296015E9, 0.0, 2025-11-15 11:59:56.329
22.0, 21.69141974300146, 95.6030625673011, 1023.7115951711312, 1058.7245385563, -0.04800000227987766, 0.2240000106394291, 1.008000047877431, 0.0, 0.0, 0.0, 0.0, 0.0, 1.7632259963431675E9, 0.0, 2025-11-15 11:59:56.343
22.0, 210.76393195288256, 297.4548129257746, 1235.9864467061125, 1276.179151529912, -0.04800000227987766, 0.2240000106394291, 1.008000047877431, 0.0, 0.0, 0.0, 0.0, 0.0, 1.7632259963431675E9, 0.0, 2025-11-15 11:59:56.343
23.0, 316.6778986980207, 377.32411637948826, 1311.6670622094534, 1366.10130606452, -0.04800000227987766, 0.2240000106394291, 1.008000047877431, 0.0, 0.0, 0.0, 0.0, 0.0, 1.7632259963595464E9, 0.0, 2025-11-15 11:59:56.359
23.0, 90.75989212468266, 149.20704863220453, 1071.89646620024, 1124.9319874718785, -0.04800000227987766, 0.2240000106394291, 1.008000047877431, 0.0, 0.0, 0.0, 0.0, 0.0, 1.7632259963595464E9, 0.0, 2025-11-15 11:59:56.359
24.0, 247.6505652158521, 343.6911960779689, 1285.2297094226815, 1327.7299325191416, -0.04800000227987766, 0.2240000106394291, 1.008000047877431, 0.0, 0.0, 0.0, 0.0, 0.0, 1.7632259963603244E9, 0.0, 2025-11-15 11:59:56.360
24.0, 237.5416156356223, 319.2883488670923, 1251.563130021561, 1295.1815832047723, -0.04800000227987766, 0.2240000106394291, 1.008000047877431, 0.0, 0.0, 0.0, 0.0, 0.0, 1.7632259963603244E9, 0.0, 2025-11-15 11:59:56.360
25.0, 71.28623305540532, 125.48860311321914, 1046.0649772062898, 1086.1716643311083, -0.04800000227987766, 0.2240000106394291, 1.008000047877431, 0.0, 0.0, 0.0, 0.0, 0.0, 1.7632259963732576E9, 0.0, 2025-11-15 11:59:56.373
25.0, -133.0581606235355, -48.27088872808963, 891.674427235499, 924.5107488464564, -0.04800000227987766, 0.2240000106394291, 1.008000047877431, 0.0, 0.0, 0.0, 0.0, 0.0, 1.7632259963732576E9, 0.0, 2025-11-15 11:59:56.373
26.0, -278.51782950013876, -195.99319707788527, 744.7823766758665, 790.1772823380306, -0.04800000227987766, 0.2240000106394291, 1.008000047877431, 0.0, 0.0, 0.0, 0.0, 0.0, 1.7632259963889308E9, 0.0, 2025-11-15 11:59:56.388
26.0, -69.53969977609813, -3.459407459013164, 925.0193752404302, 968.6527880234644, -0.04800000227987766, 0.2240000106394291, 1.008000047877431, 0.0, 0.0, 0.0, 0.0, 0.0, 1.7632259963889308E9, 0.0, 2025-11-15 11:59:56.388
27.0, -3.6800615563988686, 64.75262783281505, 993.1902716327459, 1036.401075720787, -0.04800000227987766, 0.2240000106394291, 1.008000047877431, 0.0, 0.0, 0.0, 0.0, 0.0, 1.7632259963896103E9, 0.0, 2025-11-15 11:59:56.389
27.0, 204.94090772187337, 288.88296222733334, 1235.317004614044, 799.3961357288063, -0.04800000227987766, 0.2240000106394291, 1.008000047877431, 0.0, 0.0, 0.0, 0.0, 0.0, 1.7632259963896103E9, 0.0, 2025-11-15 11:59:56.389
28.0, 320.9488644474186, 374.2611383157782, 1312.6581356977113, 881.1466088602319, -0.04800000227987766, 0.2240000106394291, 1.008000047877431, 0.0, 0.0, 0.0, 0.0, 0.0, 1.7632259964032135E9, 0.0, 2025-11-15 11:59:56.403
28.0, 99.06620992626995, 143.63833759818226, 1555.1046301252209, 1114.1012372002006, -0.04800000227987766, 0.2240000106394291, 1.008000047877431, 0.0, 0.0, 0.0, 0.0, 0.0, 1.7632259964032135E9, 0.0, 2025-11-15 11:59:56.403
29.0, 250.45175028266385, 325.33202719548717, 1757.6071230759844, 1306.292825973127, -0.04800000227987766, 0.2240000106394291, 1.008000047877431, 0.0, 0.0, 0.0, 0.0, 0.0, 1.763225996418876E9, 0.0, 2025-11-15 11:59:56.418
29.0, 226.69964566407725, 292.2675716872327, 1724.4977887682617, 1280.072387383785, -0.04800000227987766, 0.2240000106394291, 1.008000047877431, 0.0, 0.0, 0.0, 0.0, 0.0, 1.763225996418876E9, 0.0, 2025-11-15 11:59:56.418
30.0, 52.62413227651268, 109.3097959049046, 1518.9547571535222, 1073.2278705844656, -0.04800000227987766, 0.2240000106394291, 1.0240000486373901, 0.0, 0.0, 0.0, 0.0, 0.0, 1.7632259964195812E9, 0.0, 2025-11-15 11:59:56.419
30.0, -124.31053462717682, -39.73269712924957, 1387.1457231151871, 926.8631459185854, -0.04800000227987766, 0.2240000106394291, 1.0240000486373901, 0.0, 0.0, 0.0, 0.0, 0.0, 1.7632259964195812E9, 0.0, 2025-11-15 11:59:56.419
31.0, -279.2882488910109, -191.78206972777843, 1234.449347824324, 792.3127652127296, -0.04800000227987766, 0.2240000106394291, 1.0240000486373901, 0.0, 0.0, 0.0, 0.0, 0.0, 1.7632259964332108E9, 0.0, 2025-11-15 11:59:56.433
31.0, -59.56164669431746, -3.7922585550695658, 1409.9740724447183, 966.5846233479679, -0.04800000227987766, 0.2240000106394291, 1.0240000486373901, 0.0, 0.0, 0.0, 0.0, 0.0, 1.7632259964332108E9, 0.0, 2025-11-15 11:59:56.433
32.0, 16.747272001579404, 78.51171976979822, 1497.2782970103435, 1057.108901775442, -0.03200000151991844, 0.2240000106394291, 1.0240000486373901, 0.0, 0.0, 0.0, 0.0, 0.0, 1.763225996448883E9, 0.0, 2025-11-15 11:59:56.448
32.0, 223.25893770484254, 293.7036932702176, 1725.7656148532405, 1281.3327336688526, -0.03200000151991844, 0.2240000106394291, 1.0240000486373901, 0.0, 0.0, 0.0, 0.0, 0.0, 1.763225996448883E9, 0.0, 2025-11-15 11:59:56.448
33.0, 322.138152633328, 377.70558617496863, 1802.235349247232, 1364.9007981787436, -0.03200000151991844, 0.2240000106394291, 1.0240000486373901, 0.0, 0.0, 0.0, 0.0, 0.0, 1.7632259964495912E9, 0.0, 2025-11-15 11:59:56.449
33.0, 102.65277398377657, 151.52204670477659, 1569.4022676558234, 1606.1692241202109, -0.03200000151991844, 0.2240000106394291, 1.0240000486373901, 0.0, 0.0, 0.0, 0.0, 0.0, 1.7632259964495912E9, 0.0, 2025-11-15 11:59:56.449
34.0, 263.08139243302867, 345.1908959602006, 1782.7654300779104, 1826.2305473629385, -0.03200000151991844, 0.2240000106394291, 1.0240000486373901, 0.0, 0.0, 0.0, 0.0, 0.0, 1.7632259964632647E9, 0.0, 2025-11-15 11:59:56.463
34.0, 244.3893724544905, 328.18557086167857, 1756.1111630937085, 1818.9901010487229, -0.03200000151991844, 0.2240000106394291, 1.0240000486373901, 0.0, 0.0, 0.0, 0.0, 0.0, 1.7632259964632647E9, 0.0, 2025-11-15 11:59:56.463
35.0, 66.85071170795709, 116.3520275214687, 1525.7688548727892, 2056.2530941376463, -0.03200000151991844, 0.2240000106394291, 1.0240000486373901, 0.0, 0.0, 0.0, 0.0, 0.0, 1.7632259964788904E9, 0.0, 2025-11-15 11:59:56.478
35.0, -117.69465160556138, -29.80326274689287, 1401.873449140694, 1924.5487772980705, -0.03200000151991844, 0.2240000106394291, 1.0240000486373901, 0.0, 0.0, 0.0, 0.0, 0.0, 1.7632259964788904E9, 0.0, 2025-11-15 11:59:56.478
36.0, -268.62579411733896, -188.6405537649989, 1241.5439380402677, 1774.1561803799123, -0.03200000151991844, 0.2240000106394291, 1.0240000486373901, 0.0, 0.0, 0.0, 0.0, 0.0, 1.763225996479591E9, 0.0, 2025-11-15 11:59:56.479
36.0, -34.52675639092922, 22.742331630550325, 1435.3156345444731, 1963.4661762369797, -0.03200000151991844, 0.2240000106394291, 1.0240000486373901, 0.0, 0.0, 0.0, 0.0, 0.0, 1.763225996479591E9, 0.0, 2025-11-15 11:59:56.479
37.0, 40.97434391453862, 113.41620605625212, 1534.9203900643624, 2056.9225362297148, -0.03200000151991844, 0.2240000106394291, 1.0240000486373901, 0.0, 0.0, 0.0, 0.0, 0.0, 1.763225996493214E9, 0.0, 2025-11-15 11:59:56.493
37.0, 194.16251604957506, 285.2253400706686, 1720.6681312136352, 2257.9028898985125, -0.03200000151991844, 0.2240000106394291, 1.0240000486373901, 0.0, 0.0, 0.0, 0.0, 0.0, 1.763225996493214E9, 0.0, 2025-11-15 11:59:56.493
38.0, 294.3357363627292, 363.8268174394034, 1782.1296470854431, 2328.055933267344, -0.03200000151991844, 0.2240000106394291, 1.0240000486373901, 0.0, 0.0, 0.0, 0.0, 0.0, 1.763225996508892E9, 0.0, 2025-11-15 11:59:56.508
38.0, 121.55048845987767, 176.6766138067469, 1585.3305015671067, 2117.306960914284, -0.03200000151991844, 0.2240000106394291, 1.0240000486373901, 0.0, 0.0, 0.0, 0.0, 0.0, 1.763225996508892E9, 0.0, 2025-11-15 11:59:56.508
39.0, 257.5388606986962, 353.6692491597496, 1788.0237294156104, 2318.0704003856517, -0.03200000151991844, 0.2240000106394291, 1.0240000486373901, 0.0, 0.0, 0.0, 0.0, 0.0, 1.7632259965095837E9, 0.0, 2025-11-15 11:59:56.509
39.0, 234.16822587559, 308.03498990042135, 1735.1490238420665, 2272.3276840276085, -0.03200000151991844, 0.2240000106394291, 1.0240000486373901, 0.0, 0.0, 0.0, 0.0, 0.0, 1.7632259965095837E9, 0.0, 2025-11-15 11:59:56.509
40.0, 77.72634077910334, 135.5414541941136, 1542.209455078002, 2071.2426131600514, -0.03200000151991844, 0.2240000106394291, 1.0240000486373901, 0.0, 0.0, 0.0, 0.0, 0.0, 1.763225996523197E9, 0.0, 2025-11-15 11:59:56.523
40.0, -102.53683708515018, -14.982039222493768, 1417.8166426518, 1936.325722258538, -0.03200000151991844, 0.2240000106394291, 1.0240000486373901, 0.0, 0.0, 0.0, 0.0, 0.0, 1.763225996523197E9, 0.0, 2025-11-15 11:59:56.523
41.0, -294.5059018107131, -208.29372803214937, 1231.3452308611013, 1759.7089468510821, -0.03200000151991844, 0.2240000106394291, 1.0240000486373901, 0.0, 0.0, 0.0, 0.0, 0.0, 1.7632259965388644E9, 0.0, 2025-11-15 11:59:56.538
41.0, -71.12541735731065, -0.011219699867069721, 1419.2378046349622, 1950.593440589495, -0.03200000151991844, 0.2240000106394291, 1.0240000486373901, 0.0, 0.0, 0.0, 0.0, 0.0, 1.7632259965388644E9, 0.0, 2025-11-15 11:59:56.538
42.0, 35.84320117533207, 107.17431303020567, 1528.1287317448296, 2043.0213280944154, -0.03200000151991844, 0.2240000106394291, 1.0240000486373901, 0.0, 0.0, 0.0, 0.0, 0.0, 1.763225996539578E9, 0.0, 2025-11-15 11:59:56.539
42.0, 197.8575372057967, 288.9278410268016, 1728.5294009204954, 2262.7385805412196, -0.03200000151991844, 0.2240000106394291, 1.0240000486373901, 0.0, 0.0, 0.0, 0.0, 0.0, 1.763225996539578E9, 0.0, 2025-11-15 11:59:56.539
43.0, 305.9743050248362, 371.5758901475929, 1796.5656609144062, 2329.7501079472713, -0.03200000151991844, 0.2240000106394291, 1.0240000486373901, 0.0, 0.0, 0.0, 0.0, 0.0, 1.7632259965532289E9, 0.0, 2025-11-15 11:59:56.553
43.0, 131.22186974529177, 188.06460917182267, 1596.5090625346638, 2125.276687719859, -0.03200000151991844, 0.2240000106394291, 1.0240000486373901, 0.0, 0.0, 0.0, 0.0, 0.0, 1.7632259965532289E9, 0.0, 2025-11-15 11:59:56.553
44.0, 259.89873757073656, 356.1862018299289, 1786.0415824390948, 2320.2582418597303, -0.03200000151991844, 0.2240000106394291, 1.0240000486373901, 0.0, 0.0, 0.0, 0.0, 0.0, 1.7632259965688756E9, 0.0, 2025-11-15 11:59:56.568
44.0, 256.4655094114132, 323.6228929157369, 1747.6402896940708, 2285.177980275359, -0.03200000151991844, 0.2240000106394291, 1.0240000486373901, 0.0, 0.0, 0.0, 0.0, 0.0, 1.7632259965688756E9, 0.0, 2025-11-15 11:59:56.568
45.0, 67.87544429581612, 127.0257019950077, 1531.801313501317, 2057.689215720631, -0.03200000151991844, 0.2240000106394291, 1.0240000486373901, 0.0, 0.0, 0.0, 0.0, 0.0, 1.7632259965695732E9, 0.0, 2025-11-15 11:59:56.569
45.0, -124.67704482283443, -41.33711421024054, 1380.8252921900712, 1906.3728635134175, -0.03200000151991844, 0.2240000106394291, 1.0240000486373901, 0.0, 0.0, 0.0, 0.0, 0.0, 1.7632259965695732E9, 0.0, 2025-11-15 11:59:56.569
46.0, -316.61619034875184, -229.4466021815315, 1200.4910562266596, 1751.1819749521092, -0.03200000151991844, 0.2240000106394291, 1.0240000486373901, 0.0, 0.0, 0.0, 0.0, 0.0, 1.7632259965832326E9, 0.0, 2025-11-15 11:59:56.583
46.0, -543.4242931115441, 3.702500956133008, 1408.3995745633729, 1936.9428057512268, -0.03200000151991844, 0.2240000106394291, 1.0240000486373901, 0.0, 0.0, 0.0, 0.0, 0.0, 1.7632259965832326E9, 0.0, 2025-11-15 11:59:56.583
47.0, -433.3066788162105, 123.73832993395627, 1535.3803977589123, 2056.4064300358295, -0.03200000151991844, 0.2240000106394291, 1.0240000486373901, 0.0, 0.0, 0.0, 0.0, 0.0, 1.7632259965988672E9, 0.0, 2025-11-15 11:59:56.598
47.0, -318.8189914226532, 267.3747975821607, 1697.8958803834394, 2235.261535566766, -0.03200000151991844, 0.2240000106394291, 1.0240000486373901, 0.0, 0.0, 0.0, 0.0, 0.0, 1.7632259965988672E9, 0.0, 2025-11-15 11:59:56.598
48.0, -179.48153877351433, 374.1900802166201, 1792.1488390667364, 2331.2161487299018, -0.03200000151991844, 0.2240000106394291, 1.0240000486373901, 0.0, 0.0, 0.0, 0.0, 0.0, 1.7632259965995753E9, 0.0, 2025-11-15 11:59:56.599
48.0, -355.58407793706283, 193.76421670429409, 1595.3384738485329, 2112.9088385663927, -0.03200000151991844, 0.2240000106394291, 1.0240000486373901, 0.0, 0.0, 0.0, 0.0, 0.0, 1.7632259965995753E9, 0.0, 2025-11-15 11:59:56.599
49.0, -250.24044593516737, 340.1420310200192, 1771.2577579142526, 2289.000158030074, -0.03200000151991844, 0.2240000106394291, 1.0240000486373901, 0.0, 0.0, 0.0, 0.0, 0.0, 1.7632259966132479E9, 0.0, 2025-11-15 11:59:56.613
49.0, -277.6165136108175, 297.9409999200143, 1722.7175963893533, 2262.675002241973, -0.03200000151991844, 0.2240000106394291, 1.0240000486373901, 0.0, 0.0, 0.0, 0.0, 0.0, 1.7632259966132479E9, 0.0, 2025-11-15 11:59:56.613
50.0, -398.144139432814, 142.20595591515303, 1539.4830680103041, 2063.1831287555397, -0.03200000151991844, 0.2240000106394291, 1.0240000486373901, 0.0, 0.0, 0.0, 0.0, 0.0, 1.763225996628602E9, 0.0, 2025-11-15 11:59:56.628
50.0, -578.1305647003464, -0.8975759893655777, 1423.0450227898546, 1936.7670304533094, -0.03200000151991844, 0.2240000106394291, 1.0240000486373901, 0.0, 0.0, 0.0, 0.0, 0.0, 1.763225996628602E9, 0.0, 2025-11-15 11:59:56.628
51.0, -758.5882173622958, -188.77519016340375, 1239.6291092629544, 1784.4970037573949, -0.03200000151991844, 0.2240000106394291, 1.0240000486373901, 0.0, 0.0, 0.0, 0.0, 0.0, 1.7632259966441493E9, 0.0, 2025-11-15 11:59:56.644
51.0, -557.6994912424125, -4.502839546650648, 1406.0658769910224, 1934.8522016759962, -0.03200000151991844, 0.2240000106394291, 1.0240000486373901, 0.0, 0.0, 0.0, 0.0, 0.0, 1.7632259966441493E9, 0.0, 2025-11-15 11:59:56.644
52.0, -470.29054947802797, 98.05269703827798, 1516.8529333784245, 2034.7711087921634, -0.03200000151991844, 0.2240000106394291, 1.0240000486373901, 0.0, 0.0, 0.0, 0.0, 0.0, 1.763225996644602E9, 0.0, 2025-11-15 11:59:56.644
52.0, -269.3887337082997, 313.8729737312533, 1745.7254609167576, 1790.7351568834856, -0.03200000151991844, 0.2240000106394291, 1.0240000486373901, 0.0, 0.0, 0.0, 0.0, 0.0, 1.763225996644602E9, 0.0, 2025-11-15 11:59:56.644
53.0, -165.05300474446267, 391.99948380561545, 1812.2246220288798, 1862.672132531181, -0.03200000151991844, 0.2240000106394291, 1.0240000486373901, 0.0, 0.0, 0.0, 0.0, 0.0, 1.7632259966588752E9, 0.0, 2025-11-15 11:59:56.658
53.0, -379.58301595272496, 170.10934948455542, 1574.8999205906875, 2095.028376878239, -0.03200000151991844, 0.2240000106394291, 1.0240000486373901, 0.0, 0.0, 0.0, 0.0, 0.0, 1.7632259966588752E9, 0.0, 2025-11-15 11:59:56.658
54.0, -205.87027286086231, 370.9999455544166, 1804.4942488204688, 2321.1595577490516, -0.03200000151991844, 0.2240000106394291, 1.0240000486373901, 0.0, 0.0, 0.0, 0.0, 0.0, 1.7632259966595848E9, 0.0, 2025-11-15 11:59:56.659
54.0, -241.94908773340285, 333.2045166022144, 1764.1706474982202, 2304.0345558519475, -0.03200000151991844, 0.2240000106394291, 1.0240000486373901, 0.0, 0.0, 0.0, 0.0, 0.0, 1.7632259966595848E9, 0.0, 2025-11-15 11:59:56.659
55.0, -439.3727965443395, 113.99963044933975, 1522.8666925071739, 2530.6911926665343, -0.03200000151991844, 0.2240000106394291, 1.0240000486373901, 0.0, 0.0, 0.0, 0.0, 0.0, 1.763225996673224E9, 0.0, 2025-11-15 11:59:56.673
55.0, -610.7911110133864, -35.585148078389466, 1387.8675238066353, 2398.8447596286424, -0.03200000151991844, 0.2240000106394291, 1.0240000486373901, 0.0, 0.0, 0.0, 0.0, 0.0, 1.763225996673224E9, 0.0, 2025-11-15 11:59:56.673
56.0, -774.2957971761934, -196.82345486804843, 1232.6467160456814, 2247.719142319169, -0.03200000151991844, 0.2240000106394291, 1.0240000486373901, 0.0, 0.0, 0.0, 0.0, 0.0, 1.7632259966888547E9, 0.0, 2025-11-15 11:59:56.688
56.0, -555.9043392636813, -6.698160820640624, 1406.2566118887626, 2428.8948557726108, -0.03200000151991844, 0.2240000106394291, 1.0240000486373901, 0.0, 0.0, 0.0, 0.0, 0.0, 1.7632259966888547E9, 0.0, 2025-11-15 11:59:56.688
57.0, -461.15023398632184, 103.37457467522472, 1522.6385586098768, 2545.190784794744, -0.03200000151991844, 0.2240000106394291, 1.0240000486373901, 0.0, 0.0, 0.0, 0.0, 0.0, 1.7632259966895597E9, 0.0, 2025-11-15 11:59:56.689
57.0, -283.8658864367753, 297.4959518252872, 1725.3841450577602, 2750.4570638127625, -0.03200000151991844, 0.2240000106394291, 1.0240000486373901, 0.0, 0.0, 0.0, 0.0, 0.0, 1.7632259966895597E9, 0.0, 2025-11-15 11:59:56.689
58.0, -178.52038448490202, 374.76602480979636, 1791.2288236776367, 2826.941757806577, -0.03200000151991844, 0.2240000106394291, 1.0240000486373901, 0.0, 0.0, 0.0, 0.0, 0.0, 1.7632259967032232E9, 0.0, 2025-11-15 11:59:56.703
58.0, -385.9483256773092, 159.60397050902247, 1564.9891857081093, 2593.734686219599, -0.03200000151991844, 0.2240000106394291, 1.0240000486373901, 0.0, 0.0, 0.0, 0.0, 0.0, 1.7632259967032232E9, 0.0, 2025-11-15 11:59:56.703
59.0, -221.3609384773299, 357.99257350852713, 1791.8459071703255, 2803.5000648843125, -0.03200000151991844, 0.2240000106394291, 1.0240000486373901, 0.0, 0.0, 0.0, 0.0, 0.0, 1.7632259967188704E9, 0.0, 2025-11-15 11:59:56.718
59.0, -266.0901419473812, 301.8304958739318, 1728.9258303157985, 2749.8885990194976, -0.03200000151991844, 0.2240000106394291, 1.0240000486373901, 0.0, 0.0, 0.0, 0.0, 0.0, 1.7632259967188704E9, 0.0, 2025-11-15 11:59:56.718
60.0, -409.34887970006093, 140.5117812352255, 1543.5408594622277, 2556.1000729654916, -0.03200000151991844, 0.2240000106394291, 1.0240000486373901, 0.0, 0.0, 0.0, 0.0, 0.0, 1.7632259967195737E9, 0.0, 2025-11-15 11:59:56.719
60.0, -614.0485638747923, -30.20343204215169, 1403.0589974266477, 2409.896163997706, -0.03200000151991844, 0.2240000106394291, 1.0240000486373901, 0.0, 0.0, 0.0, 0.0, 0.0, 1.7632259967195737E9, 0.0, 2025-11-15 11:59:56.719
61.0, -792.8756201560609, -218.69064990896732, 1215.693749546539, 2250.542766785715, -0.03200000151991844, 0.2240000106394291, 1.0240000486373901, 0.0, 0.0, 0.0, 0.0, 0.0, 1.763225996733208E9, 0.0, 2025-11-15 11:59:56.733
61.0, -565.3438467518426, -18.658360878936946, 1396.9068619995378, 2424.2910389271565, -0.03200000151991844, 0.2240000106394291, 1.0240000486373901, 0.0, 0.0, 0.0, 0.0, 0.0, 1.763225996733208E9, 0.0, 2025-11-15 11:59:56.733
62.0, -431.67982233548537, 124.88273932039738, 1533.76850087801, 2544.4839437031187, -0.03200000151991844, 0.2240000106394291, 1.0240000486373901, 0.0, 0.0, 0.0, 0.0, 0.0, 1.7632259967489197E9, 0.0, 2025-11-15 11:59:56.748
62.0, -286.33796030748636, 289.84411651594564, 1723.6076925788075, 2736.099587882869, -0.03200000151991844, 0.2240000106394291, 1.0240000486373901, 0.0, 0.0, 0.0, 0.0, 0.0, 1.7632259967489197E9, 0.0, 2025-11-15 11:59:56.748
63.0, -196.44572497252375, 361.0480717723258, 1789.1905782017857, 2821.2271906742826, -0.03200000151991844, 0.2240000106394291, 1.0240000486373901, 0.0, 0.0, 0.0, 0.0, 0.0, 1.7632259967495852E9, 0.0, 2025-11-15 11:59:56.749
63.0, -403.3687796709128, 136.61106558144093, 1551.6975812655874, 2582.43644845346, -0.03200000151991844, 0.2240000106394291, 1.0240000486373901, 0.0, 0.0, 0.0, 0.0, 0.0, 1.7632259967495852E9, 0.0, 2025-11-15 11:59:56.749
64.0, -217.68835672084242, 352.7492337706499, 1777.8923404356465, 2784.205921012908, -0.03200000151991844, 0.2240000106394291, 1.0240000486373901, 0.0, 0.0, 0.0, 0.0, 0.0, 1.763225996763216E9, 0.0, 2025-11-15 11:59:56.763
64.0, -250.6780142299831, 320.22332385601476, 1740.7813131753355, 2757.3085605315864, -0.03200000151991844, 0.2240000106394291, 1.0240000486373901, 0.0, 0.0, 0.0, 0.0, 0.0, 1.763225996763216E9, 0.0, 2025-11-15 11:59:56.763
65.0, -432.53251952538267, 115.91819912660867, 1527.9753958466463, 2549.2410964467563, -0.03200000151991844, 0.2240000106394291, 1.0240000486373901, 0.0, 0.0, 0.0, 0.0, 0.0, 1.763225996778855E9, 0.0, 2025-11-15 11:59:56.778
65.0, -614.8077635657974, -34.754890288226306, 1391.2857923661359, 2389.0387419448234, -0.03200000151991844, 0.2240000106394291, 1.0240000486373901, 0.0, 0.0, 0.0, 0.0, 0.0, 1.763225996778855E9, 0.0, 2025-11-15 11:59:56.778
