%OpenBCI Raw EXG Data
%Number of channels = 4
%Sample Rate = 200 Hz
%Board = OpenBCI_GUI$BoardGanglionBLE
Sample Index, EXG Channel 0, EXG Channel 1, EXG Channel 2, EXG Channel 3, Accel Channel 0, Accel Channel 1, Accel Channel 2, Other, Other, Other, Other, Other, Timestamp, Marker Channel, Timestamp (Formatted)
0.0, 341.374328055419, 4.299014999065548, 304.7513577393256, 59.26058474788442, 0.0, 0.0, 0.0, 0.0, 0.0, 0.0, 0.0, 0.0, 1.7622063576928704E9, 0.0, 2025-11-03 16:45:57.692
1.0, 213.1032393751666, -115.38526338292286, 176.08383966377005, -63.07902260264382, 0.0, -0.04800000227987766, 0.0, 0.0, 0.0, 0.0, 0.0, 0.0, 1.762206357706329E9, 0.0, 2025-11-03 16:45:57.706
1.0, 298.9489029580727, -53.157068020198494, 238.8767599198036, -4.370073098223656, 0.0, -0.04800000227987766, 0.0, 0.0, 0.0, 0.0, 0.0, 0.0, 1.762206357706329E9, 0.0, 2025-11-03 16:45:57.706
2.0, 338.7863172860816, -9.000069243367761, 289.61224271869287, 47.99600608134642, -0.04800000227987766, -0.04800000227987766, 0.0, 0.0, 0.0, 0.0, 0.0, 0.0, 1.7622063577230563E9, 0.0, 2025-11-03 16:45:57.723
2.0, 261.14599420595914, -74.50441696727648, 212.712419829797, -34.562285440508276, -0.04800000227987766, -0.04800000227987766, 0.0, 0.0, 0.0, 0.0, 0.0, 0.0, 1.7622063577230563E9, 0.0, 2025-11-03 16:45:57.723
3.0, 270.6116809938103, -69.85198142239824, 216.03719089040533, -31.817198873031884, -0.04800000227987766, -0.04800000227987766, 0.0, 0.0, 0.0, 0.0, 0.0, 0.0, 1.7622063577238111E9, 0.0, 2025-11-03 16:45:57.723
3.0, 360.4702572291717, 6.853366668801755, 308.1733661987819, 61.47834542160854, -0.04800000227987766, -0.04800000227987766, 0.0, 0.0, 0.0, 0.0, 0.0, 0.0, 1.7622063577238111E9, 0.0, 2025-11-03 16:45:57.723
4.0, 300.1830699434504, -46.88151589455083, 247.42243131855503, -3.82778760464862, -0.04800000227987766, -0.04800000227987766, 0.0, 0.0, 0.0, 0.0, 0.0, 0.0, 1.762206357736177E9, 0.0, 2025-11-03 16:45:57.736
4.0, 243.54602501448244, -88.29342810390517, 208.54617127915844, -29.449842201080173, -0.04800000227987766, -0.04800000227987766, 0.0, 0.0, 0.0, 0.0, 0.0, 0.0, 1.762206357736177E9, 0.0, 2025-11-03 16:45:57.736
5.0, 313.104424290359, -29.93228929536417, 267.5430930801667, 29.57325889961794, -0.04800000227987766, -0.04800000227987766, 0.0, 0.0, 0.0, 0.0, 0.0, 0.0, 1.7622063577518272E9, 0.0, 2025-11-03 16:45:57.751
5.0, 327.7536124167964, -18.3610388324596, 280.9581142212264, 35.26164673222229, -0.04800000227987766, -0.04800000227987766, 0.0, 0.0, 0.0, 0.0, 0.0, 0.0, 1.7622063577518272E9, 0.0, 2025-11-03 16:45:57.751
6.0, 269.32515540905297, -72.387633592356, 218.61024205991998, -14.65853787632659, -0.04800000227987766, -0.04800000227987766, 0.0, 0.0, 0.0, 0.0, 0.0, 0.0, 1.7622063577525313E9, 0.0, 2025-11-03 16:45:57.752
6.0, 287.08220039866865, -57.05404377402738, 240.99728319467977, 6.995482867117971, -0.04800000227987766, -0.04800000227987766, 0.0, 0.0, 0.0, 0.0, 0.0, 0.0, 1.7622063577525313E9, 0.0, 2025-11-03 16:45:57.752
7.0, 372.1499647907913, 17.268988045398146, 312.1600995515473, 76.9802307379432, -0.04800000227987766, -0.04800000227987766, 0.0, 0.0, 0.0, 0.0, 0.0, 0.0, 1.762206357766208E9, 0.0, 2025-11-03 16:45:57.766
7.0, 263.73026507534087, -62.417060310486704, 227.4588453550823, -3.984863402787596, -0.04800000227987766, -0.04800000227987766, 0.0, 0.0, 0.0, 0.0, 0.0, 0.0, 1.762206357766208E9, 0.0, 2025-11-03 16:45:57.766
8.0, 284.77842202596366, -52.42030772892758, 238.0240627299063, 0.09910734882578254, -0.04800000227987766, -0.04800000227987766, 0.0, 0.0, 0.0, 0.0, 0.0, 0.0, 1.7622063577818527E9, 0.0, 2025-11-03 16:45:57.781
8.0, 367.8042010422796, 20.34318580897525, 311.52431655908003, 70.48028461495414, -0.04800000227987766, -0.04800000227987766, 0.0, 0.0, 0.0, 0.0, 0.0, 0.0, 1.7622063577818527E9, 0.0, 2025-11-03 16:45:57.781
9.0, 308.9269560398534, -32.66989606292918, 259.7341819726862, 16.958576349075884, -0.04800000227987766, -0.04800000227987766, 0.0, 0.0, 0.0, 0.0, 0.0, 0.0, 1.7622063577825787E9, 0.0, 2025-11-03 16:45:57.782
9.0, 281.3900726661086, -58.18723346060142, 232.55632899468765, -13.813320486340672, -0.04800000227987766, -0.04800000227987766, 0.0, 0.0, 0.0, 0.0, 0.0, 0.0, 1.7622063577825787E9, 0.0, 2025-11-03 16:45:57.782
10.0, 335.4989452250302, -8.042654854711145, 286.65024195378646, 42.95088104112074, -0.04800000227987766, -0.04800000227987766, 1.0400000493973494, 0.0, 0.0, 0.0, 0.0, 0.0, 1.7622063577962253E9, 0.0, 2025-11-03 16:45:57.796
10.0, 345.3161826087162, 7.339553663041443, 300.2672176924534, 49.873435859102756, -0.04800000227987766, -0.04800000227987766, 1.0400000493973494, 0.0, 0.0, 0.0, 0.0, 0.0, 1.7622063577962253E9, 0.0, 2025-11-03 16:45:57.796
11.0, 271.3222619853914, -55.932073787320405, 234.84514776756987, -7.496629461180419, -0.04800000227987766, -0.01600000075995922, 1.0400000493973494, 0.0, 0.0, 0.0, 0.0, 0.0, 1.7622063578126335E9, 0.0, 2025-11-03 16:45:57.812
11.0, 299.0648398566991, -35.97222772380337, 257.71837589656934, 17.609318941365927, -0.04800000227987766, -0.01600000075995922, 1.0400000493973494, 0.0, 0.0, 0.0, 0.0, 0.0, 1.7622063578126335E9, 0.0, 2025-11-03 16:45:57.812
12.0, 350.62310064584017, 14.378045379649848, 312.2311576507054, 69.19375903019682, -0.03200000151991844, -0.01600000075995922, 1.0400000493973494, 0.0, 0.0, 0.0, 0.0, 0.0, 1.7622063578133488E9, 0.0, 2025-11-03 16:45:57.813
12.0, 273.5325428592041, -55.6740206903778, 231.47549790749326, -12.24256250495091, -0.03200000151991844, -0.01600000075995922, 1.0400000493973494, 0.0, 0.0, 0.0, 0.0, 0.0, 1.7622063578133488E9, 0.0, 2025-11-03 16:45:57.813
13.0, 270.6079410938546, -65.90638696914539, 226.0900419712998, -15.993682160507888, -0.03200000151991844, -0.01600000075995922, 1.0400000493973494, 0.0, 0.0, 0.0, 0.0, 0.0, 1.7622063578261497E9, 0.0, 2025-11-03 16:45:57.826
13.0, 356.1656323801726, 4.134459401015192, 307.18229271052405, 65.07612917898223, -0.03200000151991844, -0.01600000075995922, 1.0400000493973494, 0.0, 0.0, 0.0, 0.0, 0.0, 1.7622063578261497E9, 0.0, 2025-11-03 16:45:57.826
14.0, 289.7637086668983, -50.44564055232331, 249.12034589843825, 12.575413601007313, -0.03200000151991844, -0.01600000075995922, 1.0400000493973494, 0.0, 0.0, 0.0, 0.0, 0.0, 1.7622063578419468E9, 0.0, 2025-11-03 16:45:57.841
14.0, 278.237337003462, -64.16733348974958, 226.58744866540655, -13.11395919462666, -0.03200000151991844, -0.01600000075995922, 1.0400000493973494, 0.0, 0.0, 0.0, 0.0, 0.0, 1.7622063578419468E9, 0.0, 2025-11-03 16:45:57.841
15.0, 312.0796917025, -27.6247710227035, 276.39169637532905, 43.55300493398681, -0.03200000151991844, -0.01600000075995922, 1.0400000493973494, 0.0, 0.0, 0.0, 0.0, 0.0, 1.7622063578425398E9, 0.0, 2025-11-03 16:45:57.842
15.0, 326.1641549356282, -9.101046542171389, 285.6778679653071, 51.60874943854287, -0.03200000151991844, -0.01600000075995922, 1.0400000493973494, 0.0, 0.0, 0.0, 0.0, 0.0, 1.7622063578425398E9, 0.0, 2025-11-03 16:45:57.842
16.0, 259.76971102226526, -75.63760665385053, 214.51879150839522, -28.896337007638067, -0.03200000151991844, -0.01600000075995922, 1.0400000493973494, 0.0, 0.0, 0.0, 0.0, 0.0, 1.7622063578562064E9, 0.0, 2025-11-03 16:45:57.856
16.0, 286.9513039002195, -55.77499798918143, 241.69664448639378, 1.288395534735173, -0.03200000151991844, -0.01600000075995922, 1.0400000493973494, 0.0, 0.0, 0.0, 0.0, 0.0, 1.7622063578562064E9, 0.0, 2025-11-03 16:45:57.856
17.0, 352.3883334249258, 3.82404770469293, 302.7093723635189, 72.60454778978601, -0.03200000151991844, -0.01600000075995922, 1.0400000493973494, 0.0, 0.0, 0.0, 0.0, 0.0, 1.7622063578718252E9, 0.0, 2025-11-03 16:45:57.871
17.0, 256.47859906125814, -72.10340119572356, 217.69396657077596, -24.131704464089125, -0.03200000151991844, -0.01600000075995922, 1.0400000493973494, 0.0, 0.0, 0.0, 0.0, 0.0, 1.7622063578718252E9, 0.0, 2025-11-03 16:45:57.871
18.0, 277.81846820842475, -62.61527500813827, 224.59408198902383, -5.873512880410999, -0.03200000151991844, -0.01600000075995922, 1.0400000493973494, 0.0, 0.0, 0.0, 0.0, 0.0, 1.7622063578725262E9, 0.0, 2025-11-03 16:45:57.872
18.0, 348.8354284670204, 1.5875875311903656, 297.32391642732546, 49.33115036552772, -0.03200000151991844, -0.01600000075995922, 1.0400000493973494, 0.0, 0.0, 0.0, 0.0, 0.0, 1.7622063578725262E9, 0.0, 2025-11-03 16:45:57.872
19.0, 285.4628237178549, -43.58292413363233, 245.1336125456728, 0.7610696409828961, -0.03200000151991844, -0.01600000075995922, 1.0400000493973494, 0.0, 0.0, 0.0, 0.0, 0.0, 1.76220635788617E9, 0.0, 2025-11-03 16:45:57.886
19.0, 261.81543629802763, -70.77199681149796, 217.271357875783, -27.53875332372263, -0.03200000151991844, -0.01600000075995922, 1.0400000493973494, 0.0, 0.0, 0.0, 0.0, 0.0, 1.76220635788617E9, 0.0, 2025-11-03 16:45:57.886
20.0, 310.54259282071143, -24.617891458328813, 264.9924813103862, 22.36647168500349, -0.03200000151991844, -0.01600000075995922, 0.5280000250786543, 0.0, 0.0, 0.0, 0.0, 0.0, 1.762206357901824E9, 0.0, 2025-11-03 16:45:57.901
20.0, 316.54513224959373, -21.86532509094104, 278.01855285605416, 36.566871816758066, -0.03200000151991844, -0.01600000075995922, 0.5280000250786543, 0.0, 0.0, 0.0, 0.0, 0.0, 1.762206357901824E9, 0.0, 2025-11-03 16:45:57.901
21.0, 262.29414349235594, -76.6473796418868, 206.0105191092007, -43.16031543863937, -0.03200000151991844, -0.01600000075995922, 0.5280000250786543, 0.0, 0.0, 0.0, 0.0, 0.0, 1.762206357902532E9, 0.0, 2025-11-03 16:45:57.902
21.0, 266.9091800376773, -72.2380375941284, 223.9059403971769, -18.585432829800993, -0.03200000151991844, -0.01600000075995922, 0.5280000250786543, 0.0, 0.0, 0.0, 0.0, 0.0, 1.762206357902532E9, 0.0, 2025-11-03 16:45:57.902
22.0, 341.92409334890544, -0.20008464762941003, 296.50487833702937, 64.1972526893951, -0.04800000227987766, -0.01600000075995922, 0.5280000250786543, 0.0, 0.0, 0.0, 0.0, 0.0, 1.7622063579162211E9, 0.0, 2025-11-03 16:45:57.916
22.0, 262.4213000908494, -78.0535820252262, 210.62929555447772, -29.476021500770003, -0.04800000227987766, -0.01600000075995922, 0.5280000250786543, 0.0, 0.0, 0.0, 0.0, 0.0, 1.7622063579162211E9, 0.0, 2025-11-03 16:45:57.916
23.0, 247.86560946330428, -89.60239308839664, 204.1517888312228, -20.982708701398224, -0.04800000227987766, -0.01600000075995922, 0.5280000250786543, 0.0, 0.0, 0.0, 0.0, 0.0, 1.7622063579318173E9, 0.0, 2025-11-03 16:45:57.931
23.0, 326.1080564362928, -14.853012674022466, 285.0084258732386, 52.97381292236969, -0.04800000227987766, -0.01600000075995922, 0.5280000250786543, 0.0, 0.0, 0.0, 0.0, 0.0, 1.7622063579318173E9, 0.0, 2025-11-03 16:45:57.931
24.0, 272.6948052691296, -61.23525192448869, 232.8330815914087, 2.3654867219738662, -0.04800000227987766, -0.01600000075995922, 0.5280000250786543, 0.0, 0.0, 0.0, 0.0, 0.0, 1.7622063579325252E9, 0.0, 2025-11-03 16:45:57.932
24.0, 249.22319314721972, -81.86454008007422, 209.72049986524507, -16.132058458868414, -0.04800000227987766, -0.01600000075995922, 0.5280000250786543, 0.0, 0.0, 0.0, 0.0, 0.0, 1.7622063579325252E9, 0.0, 2025-11-03 16:45:57.932
25.0, 307.47213495709, -34.73058093851432, 255.59785262169316, 7.43679106188938, -0.04800000227987766, -0.01600000075995922, 0.5280000250786543, 0.0, 0.0, 0.0, 0.0, 0.0, 1.7622063579461548E9, 0.0, 2025-11-03 16:45:57.946
25.0, 307.8573446525261, -27.452735624741763, 269.12133086146787, 31.23751437989995, -0.04800000227987766, -0.01600000075995922, 0.5280000250786543, 0.0, 0.0, 0.0, 0.0, 0.0, 1.7622063579461548E9, 0.0, 2025-11-03 16:45:57.946
26.0, 250.97720622643828, -83.51383596053347, 206.96045369794592, -34.73058093851432, -0.04800000227987766, -0.01600000075995922, 0.5280000250786543, 0.0, 0.0, 0.0, 0.0, 0.0, 1.7622063579618757E9, 0.0, 2025-11-03 16:45:57.961
26.0, 287.5534277930856, -48.94220077013597, 239.83043440850452, 9.149665241595358, -0.04800000227987766, -0.01600000075995922, 0.5280000250786543, 0.0, 0.0, 0.0, 0.0, 0.0, 1.7622063579618757E9, 0.0, 2025-11-03 16:45:57.961
27.0, 337.36515530291945, -5.563101184088737, 289.5935432189144, 42.42355514736846, -0.04800000227987766, -0.01600000075995922, 0.5280000250786543, 0.0, 0.0, 0.0, 0.0, 0.0, 1.76220635796258E9, 0.0, 2025-11-03 16:45:57.962
27.0, 259.07034973055124, -66.22427846537903, 226.11996117094532, 2.698337818030268, -0.04800000227987766, -0.01600000075995922, 0.5280000250786543, 0.0, 0.0, 0.0, 0.0, 0.0, 1.76220635796258E9, 0.0, 2025-11-03 16:45:57.962
28.0, 259.98662521969527, -76.92413223860785, 208.8603228754364, -35.60197762819007, -0.04800000227987766, -0.01600000075995922, 0.5280000250786543, 0.0, 0.0, 0.0, 0.0, 0.0, 1.7622063579761753E9, 0.0, 2025-11-03 16:45:57.976
28.0, 341.1274946583435, -5.768795681651682, 290.50981870805845, 50.55035775108263, -0.04800000227987766, -0.01600000075995922, 0.5280000250786543, 0.0, 0.0, 0.0, 0.0, 0.0, 1.7622063579761753E9, 0.0, 2025-11-03 16:45:57.976
29.0, 272.870580567047, -61.560623220633715, 229.17545943474397, -4.302754899021238, -0.04800000227987766, -0.01600000075995922, 0.5280000250786543, 0.0, 0.0, 0.0, 0.0, 0.0, 1.762206357991951E9, 0.0, 2025-11-03 16:45:57.991
29.0, 244.29026510566473, -94.40816453145817, 199.1478026905097, -34.210734844673425, -0.04800000227987766, -0.01600000075995922, 0.5280000250786543, 0.0, 0.0, 0.0, 0.0, 0.0, 1.762206357991951E9, 0.0, 2025-11-03 16:45:57.991
30.0, 320.9208151977509, -24.76000765664503, 270.10866444977, 65.46881867432967, -0.04800000227987766, -0.01600000075995922, 0.7840000372380018, 0.0, 0.0, 0.0, 0.0, 0.0, 1.7622063579926004E9, 0.0, 2025-11-03 16:45:57.992
30.0, 298.7993069598451, -37.66266250377521, 255.8446860187687, 29.763993797358125, -0.04800000227987766, -0.01600000075995922, 0.7840000372380018, 0.0, 0.0, 0.0, 0.0, 0.0, 1.7622063579926004E9, 0.0, 2025-11-03 16:45:57.992
31.0, 243.43382801581174, -83.56619455991313, 206.10027670813724, -25.93433624273166, -0.04800000227987766, -0.01600000075995922, 0.7840000372380018, 0.0, 0.0, 0.0, 0.0, 0.0, 1.7622063580061324E9, 0.0, 2025-11-03 16:45:58.006
31.0, 273.06879526469857, -63.02292410330847, 223.28885690448806, -16.3227933566086, -0.04800000227987766, -0.01600000075995922, 0.7840000372380018, 0.0, 0.0, 0.0, 0.0, 0.0, 1.7622063580061324E9, 0.0, 2025-11-03 16:45:58.006
32.0, 345.2039856100455, 2.7469565174542367, 293.5615770719014, 47.37144278874621, -0.04800000227987766, -0.01600000075995922, 0.7840000372380018, 0.0, 0.0, 0.0, 0.0, 0.0, 1.7622063580219407E9, 0.0, 2025-11-03 16:45:58.021
32.0, 255.382808374241, -69.82206222275272, 217.48079227330163, -22.605825282167643, -0.04800000227987766, -0.01600000075995922, 0.7840000372380018, 0.0, 0.0, 0.0, 0.0, 0.0, 1.7622063580219407E9, 0.0, 2025-11-03 16:45:58.021
33.0, 266.1948591461405, -64.79937658226117, 222.54461681330577, -8.27078875200823, -0.04800000227987766, -0.01600000075995922, 0.7840000372380018, 0.0, 0.0, 0.0, 0.0, 0.0, 1.7622063580225909E9, 0.0, 2025-11-03 16:45:58.022
33.0, 353.652419609949, 5.278868787456304, 302.8739279615693, 59.084809449967, -0.04800000227987766, -0.01600000075995922, 0.7840000372380018, 0.0, 0.0, 0.0, 0.0, 0.0, 1.7622063580225909E9, 0.0, 2025-11-03 16:45:58.022
34.0, 266.9839780367911, -60.47979213343933, 230.22263142233714, -8.397945350501686, -0.04800000227987766, -0.01600000075995922, 0.7840000372380018, 0.0, 0.0, 0.0, 0.0, 0.0, 1.762206358036148E9, 0.0, 2025-11-03 16:45:58.036
34.0, 243.45626741554588, -86.172904829029, 202.50249295076355, -27.333058826159686, -0.04800000227987766, -0.01600000075995922, 0.7840000372380018, 0.0, 0.0, 0.0, 0.0, 0.0, 1.762206358036148E9, 0.0, 2025-11-03 16:45:58.036
35.0, 307.60303145553917, -35.64685642765835, 269.4055632581003, 42.04208535188809, -0.04800000227987766, -0.01600000075995922, 0.7840000372380018, 0.0, 0.0, 0.0, 0.0, 0.0, 1.7622063580518937E9, 0.0, 2025-11-03 16:45:58.051
35.0, 301.5930122267455, -31.761100373696536, 265.0672793095, 27.052566329482943, -0.04800000227987766, -0.01600000075995922, 0.7840000372380018, 0.0, 0.0, 0.0, 0.0, 0.0, 1.7622063580518937E9, 0.0, 2025-11-03 16:45:58.051
36.0, 248.0114655615762, -84.8751595444046, 207.35314319329336, -21.001408201176673, -0.04800000227987766, -0.01600000075995922, 0.7840000372380018, 0.0, 0.0, 0.0, 0.0, 0.0, 1.7622063580525916E9, 0.0, 2025-11-03 16:45:58.052
36.0, 280.89266597200185, -57.917960663791746, 226.29947636881843, -27.041346629615873, -0.04800000227987766, -0.01600000075995922, 0.7840000372380018, 0.0, 0.0, 0.0, 0.0, 0.0, 1.7622063580525916E9, 0.0, 2025-11-03 16:45:58.052
37.0, 350.3800071487203, 9.06364754261449, 299.3135432037525, 50.16888795560226, -0.04800000227987766, -0.01600000075995922, 0.7840000372380018, 0.0, 0.0, 0.0, 0.0, 0.0, 1.7622063580662315E9, 0.0, 2025-11-03 16:45:58.066
37.0, 256.2429853640497, -67.42852625111118, 223.81244289828464, 6.22506347624585, -0.04800000227987766, -0.01600000075995922, 0.7840000372380018, 0.0, 0.0, 0.0, 0.0, 0.0, 1.7622063580662315E9, 0.0, 2025-11-03 16:45:58.066
38.0, 258.32236973941326, -75.46557125588879, 216.4897187850438, -10.380092327017337, -0.04800000227987766, -0.01600000075995922, 0.7840000372380018, 0.0, 0.0, 0.0, 0.0, 0.0, 1.7622063580818846E9, 0.0, 2025-11-03 16:45:58.081
38.0, 339.5978755764663, -5.44716428546235, 288.75954552879557, 51.29085794230923, -0.04800000227987766, -0.01600000075995922, 0.7840000372380018, 0.0, 0.0, 0.0, 0.0, 0.0, 1.7622063580818846E9, 0.0, 2025-11-03 16:45:58.081
39.0, 276.5843012230471, -56.90444777579978, 226.7220850638114, -21.614751793909818, -0.04800000227987766, -0.01600000075995922, 0.7840000372380018, 0.0, 0.0, 0.0, 0.0, 0.0, 1.7622063580825872E9, 0.0, 2025-11-03 16:45:58.082
39.0, 242.32681762892753, -85.37256623851135, 201.57499776175246, -45.512712510768324, -0.04800000227987766, -0.01600000075995922, 0.7840000372380018, 0.0, 0.0, 0.0, 0.0, 0.0, 1.7622063580825872E9, 0.0, 2025-11-03 16:45:58.082
40.0, 297.98026886954904, -36.32377831963822, 257.5164212989621, 28.39519041357562, -0.04800000227987766, -0.01600000075995922, 0.9120000433176756, 0.0, 0.0, 0.0, 0.0, 0.0, 1.762206358096134E9, 0.0, 2025-11-03 16:45:58.096
40.0, 310.23966092430055, -20.37310500862077, 272.53959942096844, 43.22763363784179, -0.04800000227987766, -0.01600000075995922, 0.9120000433176756, 0.0, 0.0, 0.0, 0.0, 0.0, 1.762206358096134E9, 0.0, 2025-11-03 16:45:58.096
41.0, 250.06841053720564, -74.08554817223921, 212.24867223529145, -8.289488251786679, -0.04800000227987766, -0.03200000151991844, 0.9120000433176756, 0.0, 0.0, 0.0, 0.0, 0.0, 1.7622063581119304E9, 0.0, 2025-11-03 16:45:58.111
41.0, 276.35616732575, -56.8221699767746, 232.7620234922506, -15.021308172028512, -0.04800000227987766, -0.03200000151991844, 0.9120000433176756, 0.0, 0.0, 0.0, 0.0, 0.0, 1.7622063581119304E9, 0.0, 2025-11-03 16:45:58.111
42.0, 342.5636162413284, 6.569134272169322, 301.972612072248, 61.80745661770925, -0.04800000227987766, -0.03200000151991844, 0.9120000433176756, 0.0, 0.0, 0.0, 0.0, 0.0, 1.762206358112612E9, 0.0, 2025-11-03 16:45:58.112
42.0, 253.4567598970607, -73.70407837675884, 218.2699111639522, -4.441131197381765, -0.04800000227987766, -0.03200000151991844, 0.9120000433176756, 0.0, 0.0, 0.0, 0.0, 0.0, 1.762206358112612E9, 0.0, 2025-11-03 16:45:58.112
43.0, 253.9766059909016, -73.7190379765816, 218.25869146408513, -10.956036920193583, -0.04800000227987766, -0.03200000151991844, 0.9120000433176756, 0.0, 0.0, 0.0, 0.0, 0.0, 1.7622063581261609E9, 0.0, 2025-11-03 16:45:58.126
43.0, 345.9070868017152, -1.770842629019171, 298.29629041580483, 58.602362355683, -0.04800000227987766, -0.03200000151991844, 0.9120000433176756, 0.0, 0.0, 0.0, 0.0, 0.0, 1.7622063581261609E9, 0.0, 2025-11-03 16:45:58.126
44.0, 281.51722926460207, -53.70309341372922, 234.6805921695195, -17.298907245043665, -0.04800000227987766, -0.03200000151991844, 0.9120000433176756, 0.0, 0.0, 0.0, 0.0, 0.0, 1.7622063581419935E9, 0.0, 2025-11-03 16:45:58.141
44.0, 244.3426237050444, -86.93958431994542, 197.32647141208872, -33.12616385752335, -0.04800000227987766, -0.03200000151991844, 0.9120000433176756, 0.0, 0.0, 0.0, 0.0, 0.0, 1.7622063581419935E9, 0.0, 2025-11-03 16:45:58.141
45.0, 315.06039196718484, -26.76085413293913, 268.1900957725011, 38.208687897305936, -0.04800000227987766, -0.03200000151991844, 0.9120000433176756, 0.0, 0.0, 0.0, 0.0, 0.0, 1.7622063581425874E9, 0.0, 2025-11-03 16:45:58.142
45.0, 298.93394335824996, -30.85604458441958, 268.42196956975386, 35.1831088331528, -0.04800000227987766, -0.03200000151991844, 0.9120000433176756, 0.0, 0.0, 0.0, 0.0, 0.0, 1.7622063581425874E9, 0.0, 2025-11-03 16:45:58.142
46.0, 244.35758330486715, -83.49887636071071, 206.61264300206676, -24.124224664177746, -0.04800000227987766, -0.03200000151991844, 0.9120000433176756, 0.0, 0.0, 0.0, 0.0, 0.0, 1.7622063581561368E9, 0.0, 2025-11-03 16:45:58.156
46.0, 288.5071022817865, -52.64470172626898, 244.16123855719343, 13.932997284922749, -0.04800000227987766, -0.03200000151991844, 0.9120000433176756, 0.0, 0.0, 0.0, 0.0, 0.0, 1.7622063581561368E9, 0.0, 2025-11-03 16:45:58.156
47.0, 339.2051860811189, -0.9630242385901511, 293.88320846809074, 46.18589450279251, -0.04800000227987766, -0.03200000151991844, 0.9120000433176756, 0.0, 0.0, 0.0, 0.0, 0.0, 1.762206358171873E9, 0.0, 2025-11-03 16:45:58.171
47.0, 247.18494767136872, -77.42153893271461, 210.5582374553196, -18.424617131706327, -0.04800000227987766, -0.03200000151991844, 0.9120000433176756, 0.0, 0.0, 0.0, 0.0, 0.0, 1.762206358171873E9, 0.0, 2025-11-03 16:45:58.171
48.0, 257.18170025292784, -78.31163512216881, 211.12670224858448, -23.854951867368072, -0.04800000227987766, -0.03200000151991844, 0.9120000433176756, 0.0, 0.0, 0.0, 0.0, 0.0, 1.7622063581725755E9, 0.0, 2025-11-03 16:45:58.172
48.0, 346.6027081934735, -0.9031858392991126, 290.40510150929913, 53.164547820109874, -0.04800000227987766, -0.03200000151991844, 0.9120000433176756, 0.0, 0.0, 0.0, 0.0, 0.0, 1.7622063581725755E9, 0.0, 2025-11-03 16:45:58.172
49.0, 279.6098802872002, -46.283131901640445, 244.03782185865566, 26.057752941269428, -0.04800000227987766, -0.03200000151991844, 0.9120000433176756, 0.0, 0.0, 0.0, 0.0, 0.0, 1.7622063581862936E9, 0.0, 2025-11-03 16:45:58.186
49.0, 255.42768717370927, -80.33118109824136, 201.43288156343624, -53.77415151288733, -0.04800000227987766, -0.03200000151991844, 0.9120000433176756, 0.0, 0.0, 0.0, 0.0, 0.0, 1.7622063581862936E9, 0.0, 2025-11-03 16:45:58.186
50.0, 324.4550206558779, -22.66940358141437, 269.64491685526446, 27.99128121836111, -0.04800000227987766, -0.03200000151991844, 0.9760000463575125, 0.0, 0.0, 0.0, 0.0, 0.0, 1.7622063582018833E9, 0.0, 2025-11-03 16:45:58.201
50.0, 326.3062711339444, -11.647918411996216, 282.82058439916, 58.759438153821975, -0.04800000227987766, -0.03200000151991844, 0.9760000463575125, 0.0, 0.0, 0.0, 0.0, 0.0, 1.7622063582018833E9, 0.0, 2025-11-03 16:45:58.201
51.0, 239.4433547630906, -88.05033460678533, 198.99446679232642, -33.417876054067165, -0.04800000227987766, -0.03200000151991844, 0.9760000463575125, 0.0, 0.0, 0.0, 0.0, 0.0, 1.7622063582025928E9, 0.0, 2025-11-03 16:45:58.202
51.0, 283.061807946302, -59.548557044472545, 225.74971107533202, -17.725255839992315, -0.04800000227987766, -0.03200000151991844, 0.9760000463575125, 0.0, 0.0, 0.0, 0.0, 0.0, 1.7622063582025928E9, 0.0, 2025-11-03 16:45:58.202
52.0, 354.0899879047647, 7.567687560338527, 294.5750899598934, 57.07274327380583, -0.04800000227987766, -0.03200000151991844, 0.9760000463575125, 0.0, 0.0, 0.0, 0.0, 0.0, 1.7622063582161944E9, 0.0, 2025-11-03 16:45:58.216
52.0, 263.07204268313944, -71.10858780751005, 210.88360875146464, -24.573012658860534, -0.04800000227987766, -0.03200000151991844, 0.9760000463575125, 0.0, 0.0, 0.0, 0.0, 0.0, 1.7622063582161944E9, 0.0, 2025-11-03 16:45:58.216
53.0, 262.3091030921787, -75.55532885482535, 211.50817204406485, -14.112512482795864, -0.04800000227987766, -0.03200000151991844, 0.9760000463575125, 0.0, 0.0, 0.0, 0.0, 0.0, 1.7622063582323272E9, 0.0, 2025-11-03 16:45:58.232
53.0, 344.4971445184201, -3.337860710453242, 288.43417423265055, 39.75700647896156, -0.04800000227987766, -0.03200000151991844, 0.9760000463575125, 0.0, 0.0, 0.0, 0.0, 0.0, 1.7622063582323272E9, 0.0, 2025-11-03 16:45:58.232
54.0, 283.7200303385034, -39.846764077898115, 252.93504385324195, 37.64396300399676, -0.04800000227987766, -0.03200000151991844, 0.9760000463575125, 0.0, 0.0, 0.0, 0.0, 0.0, 1.762206358246888E9, 0.0, 2025-11-03 16:45:58.246
54.0, 254.81434358097613, -77.35796063346788, 214.59358950750902, -20.975228901486844, -0.04800000227987766, -0.03200000151991844, 0.9760000463575125, 0.0, 0.0, 0.0, 0.0, 0.0, 1.762206358246888E9, 0.0, 2025-11-03 16:45:58.246
55.0, 316.54139234963804, -26.244747939053923, 271.50364713324234, 25.320992649998516, -0.04800000227987766, -0.03200000151991844, 0.9760000463575125, 0.0, 0.0, 0.0, 0.0, 0.0, 1.7622063582475886E9, 0.0, 2025-11-03 16:45:58.247
55.0, 322.16994178295135, -16.569626753684133, 286.6726813535206, 38.52283949358389, -0.04800000227987766, -0.03200000151991844, 0.9760000463575125, 0.0, 0.0, 0.0, 0.0, 0.0, 1.7622063582475886E9, 0.0, 2025-11-03 16:45:58.247
56.0, 252.57040360756218, -78.74546351702884, 208.2282797829248, -34.11723734578118, -0.04800000227987766, -0.03200000151991844, 0.9760000463575125, 0.0, 0.0, 0.0, 0.0, 0.0, 1.762206358262348E9, 0.0, 2025-11-03 16:45:58.262
56.0, 282.8673331486061, -52.734459325205535, 238.73464372148737, 0.04674874944612384, -0.04800000227987766, -0.03200000151991844, 0.9760000463575125, 0.0, 0.0, 0.0, 0.0, 0.0, 1.762206358262348E9, 0.0, 2025-11-03 16:45:58.262
57.0, 367.2132968492806, 20.010334712918848, 315.29787561437115, 77.7955289282836, -0.04800000227987766, -0.03200000151991844, 0.9760000463575125, 0.0, 0.0, 0.0, 0.0, 0.0, 1.762206358276883E9, 0.0, 2025-11-03 16:45:58.276
57.0, 261.9089337969199, -72.23429769417271, 214.642208206933, -25.17139665177092, -0.04800000227987766, -0.03200000151991844, 0.9760000463575125, 0.0, 0.0, 0.0, 0.0, 0.0, 1.762206358276883E9, 0.0, 2025-11-03 16:45:58.276
58.0, 248.20968025922775, -81.88323957985267, 202.54363185027614, -23.49966137157753, -0.04800000227987766, -0.03200000151991844, 0.9760000463575125, 0.0, 0.0, 0.0, 0.0, 0.0, 1.7622063582775834E9, 0.0, 2025-11-03 16:45:58.277
58.0, 367.0936200506985, 15.9151442614384, 310.3612076728605, 72.4212926919572, -0.04800000227987766, -0.03200000151991844, 0.9760000463575125, 0.0, 0.0, 0.0, 0.0, 0.0, 1.7622063582775834E9, 0.0, 2025-11-03 16:45:58.277
59.0, 266.6847860403359, -58.99879175098613, 230.63028051750734, -7.735983058344573, -0.04800000227987766, -0.03200000151991844, 0.9760000463575125, 0.0, 0.0, 0.0, 0.0, 0.0, 1.7622063582918963E9, 0.0, 2025-11-03 16:45:58.291
59.0, 210.71718320343643, -111.32373203104362, 177.41898394795135, -53.908787911292166, -0.04800000227987766, -0.03200000151991844, 0.9760000463575125, 0.0, 0.0, 0.0, 0.0, 0.0, 1.7622063582918963E9, 0.0, 2025-11-03 16:45:58.291
60.0, 324.8140510516241, -19.93927661376074, 269.39060365827754, 30.179122692439705, -0.04800000227987766, -0.03200000151991844, 1.008000047877431, 0.0, 0.0, 0.0, 0.0, 0.0, 1.762206358292591E9, 0.0, 2025-11-03 16:45:58.292
60.0, 350.7988759437576, 9.84528663335368, 305.8733277260326, 58.66220075497404, -0.04800000227987766, -0.03200000151991844, 1.008000047877431, 0.0, 0.0, 0.0, 0.0, 0.0, 1.762206358292591E9, 0.0, 2025-11-03 16:45:58.292
61.0, 219.85375879518688, -103.90751041891053, 190.76294698985294, -25.335952249821275, -0.04800000227987766, -0.03200000151991844, 1.008000047877431, 0.0, 0.0, 0.0, 0.0, 0.0, 1.7622063583061843E9, 0.0, 2025-11-03 16:45:58.306
61.0, 274.44881834834814, -64.96019228035584, 224.42952639097348, -20.530180806759745, -0.04800000227987766, -0.03200000151991844, 1.008000047877431, 0.0, 0.0, 0.0, 0.0, 0.0, 1.7622063583061843E9, 0.0, 2025-11-03 16:45:58.306
62.0, 418.4985449416563, 71.93884559767321, 369.6835007700138, 139.77689089393243, -0.04800000227987766, -0.03200000151991844, 1.008000047877431, 0.0, 0.0, 0.0, 0.0, 0.0, 1.76220635832233E9, 0.0, 2025-11-03 16:45:58.322
62.0, 260.9814386079088, -70.36060781637207, 229.1978988344781, 16.610765653196722, -0.04800000227987766, -0.03200000151991844, 1.008000047877431, 0.0, 0.0, 0.0, 0.0, 0.0, 1.76220635832233E9, 0.0, 2025-11-03 16:45:58.322
63.0, 216.60752563364804, -117.29261236032471, 169.86438603745773, -83.20342426421121, -0.04800000227987766, -0.03200000151991844, 1.008000047877431, 0.0, 0.0, 0.0, 0.0, 0.0, 1.762206358353341E9, 0.0, 2025-11-03 16:45:58.353
63.0, 371.46182319894433, 16.68930355226621, 312.0927813523449, 61.201592824887484, -0.04800000227987766, -0.03200000151991844, 1.008000047877431, 0.0, 0.0, 0.0, 0.0, 0.0, 1.762206358353341E9, 0.0, 2025-11-03 16:45:58.353
64.0, 285.40672521851957, -56.63143507903442, 235.8698803554289, -6.490596373099834, -0.04800000227987766, -0.03200000151991844, 1.008000047877431, 0.0, 0.0, 0.0, 0.0, 0.0, 1.7622063583539088E9, 0.0, 2025-11-03 16:45:58.353
64.0, 244.83629049919546, -95.75078861555085, 195.75571343069896, -27.318099226336926, -0.04800000227987766, -0.03200000151991844, 1.008000047877431, 0.0, 0.0, 0.0, 0.0, 0.0, 1.7622063583539088E9, 0.0, 2025-11-03 16:45:58.353
65.0, 289.9619233645499, -56.89322807593271, 239.1273332168348, 8.427864550147206, -0.04800000227987766, -0.03200000151991844, 1.008000047877431, 0.0, 0.0, 0.0, 0.0, 0.0, 1.762206358354704E9, 0.0, 2025-11-03 16:45:58.354
65.0, 314.0767982788384, -29.655536698643118, 260.53452056320384, 19.87195841455832, -0.04800000227987766, -0.03200000151991844, 1.008000047877431, 0.0, 0.0, 0.0, 0.0, 0.0, 1.762206358354704E9, 0.0, 2025-11-03 16:45:58.354
66.0, 245.191580994986, -92.9907424482517, 187.72988812578842, -53.65447471430525, -0.04800000227987766, -0.03200000151991844, 1.008000047877431, 0.0, 0.0, 0.0, 0.0, 0.0, 1.7622063583554556E9, 0.0, 2025-11-03 16:45:58.355
66.0, 272.37691377289593, -75.98915724968538, 204.1929277307354, -39.042685587424785, -0.04800000227987766, -0.03200000151991844, 1.008000047877431, 0.0, 0.0, 0.0, 0.0, 0.0, 1.7622063583554556E9, 0.0, 2025-11-03 16:45:58.355
67.0, 334.3470560386777, -19.45308961952105, 266.45852209301665, 21.057506700512022, -0.04800000227987766, -0.03200000151991844, 1.008000047877431, 0.0, 0.0, 0.0, 0.0, 0.0, 1.7622063583661947E9, 0.0, 2025-11-03 16:45:58.366
67.0, 256.61697535961866, -86.91714492021129, 189.46520170522854, -57.25599837163463, -0.04800000227987766, -0.03200000151991844, 1.008000047877431, 0.0, 0.0, 0.0, 0.0, 0.0, 1.7622063583661947E9, 0.0, 2025-11-03 16:45:58.366
68.0, 262.3390222918242, -93.42831074306741, 185.90481694741175, -51.01036544563249, -0.04800000227987766, -0.03200000151991844, 1.008000047877431, 0.0, 0.0, 0.0, 0.0, 0.0, 1.7622063583818467E9, 0.0, 2025-11-03 16:45:58.381
68.0, 339.47819877788424, -24.995621353853494, 259.6257248739712, 29.270327003207058, -0.04800000227987766, -0.03200000151991844, 1.008000047877431, 0.0, 0.0, 0.0, 0.0, 0.0, 1.7622063583818467E9, 0.0, 2025-11-03 16:45:58.381
69.0, 286.5025159055367, -64.32814918784425, 210.20668685948476, -30.80742588499561, -0.04800000227987766, -0.03200000151991844, 1.008000047877431, 0.0, 0.0, 0.0, 0.0, 0.0, 1.7622063583825457E9, 0.0, 2025-11-03 16:45:58.382
69.0, 258.36350863892585, -94.79711412684992, 180.53432061104104, -61.45216612191871, -0.04800000227987766, -0.03200000151991844, 1.008000047877431, 0.0, 0.0, 0.0, 0.0, 0.0, 1.7622063583825457E9, 0.0, 2025-11-03 16:45:58.382
70.0, 307.53197335638106, -53.80407071253285, 223.41227360302582, -20.601238905917853, -0.04800000227987766, -0.03200000151991844, 1.0240000486373901, 0.0, 0.0, 0.0, 0.0, 0.0, 1.7622063583962047E9, 0.0, 2025-11-03 16:45:58.396
70.0, 322.6710883770138, -34.158376245293766, 244.40807195426896, 8.334367051254958, -0.04800000227987766, -0.03200000151991844, 1.0240000486373901, 0.0, 0.0, 0.0, 0.0, 0.0, 1.7622063583962047E9, 0.0, 2025-11-03 16:45:58.396
71.0, 259.62759482394904, -88.58514030044898, 192.74883386632428, -34.46878794161603, -0.04800000227987766, -0.03200000151991844, 1.0240000486373901, 0.0, 0.0, 0.0, 0.0, 0.0, 1.76220635841243E9, 0.0, 2025-11-03 16:45:58.412
71.0, 291.9590299408883, -64.70213918341324, 203.21307394234464, -51.41801454080269, -0.04800000227987766, -0.03200000151991844, 1.0240000486373901, 0.0, 0.0, 0.0, 0.0, 0.0, 1.76220635841243E9, 0.0, 2025-11-03 16:45:58.412
72.0, 352.1975985271856, -6.142785677220672, 276.0289260796271, 26.76459403289482, -0.04800000227987766, -0.03200000151991844, 1.0240000486373901, 0.0, 0.0, 0.0, 0.0, 0.0, 1.7622063584268503E9, 0.0, 2025-11-03 16:45:58.426
72.0, 262.24926469288766, -84.73304334608838, 192.1467099734582, -58.89407455222681, -0.04800000227987766, -0.03200000151991844, 1.0240000486373901, 0.0, 0.0, 0.0, 0.0, 0.0, 1.7622063584268503E9, 0.0, 2025-11-03 16:45:58.426
73.0, 257.92594034411013, -96.51746810646728, 182.91289698285982, -63.27349740033969, -0.04800000227987766, -0.03200000151991844, 1.0240000486373901, 0.0, 0.0, 0.0, 0.0, 0.0, 1.762206358427552E9, 0.0, 2025-11-03 16:45:58.427
73.0, 347.1225542873144, -24.154143863823265, 255.27996112545952, 6.6588918711058795, -0.04800000227987766, -0.03200000151991844, 1.0240000486373901, 0.0, 0.0, 0.0, 0.0, 0.0, 1.762206358427552E9, 0.0, 2025-11-03 16:45:58.427
74.0, 295.9083642940968, -59.68319344287738, 220.72702543484047, -13.024201595690101, -0.04800000227987766, -0.03200000151991844, 1.0240000486373901, 0.0, 0.0, 0.0, 0.0, 0.0, 1.762206358441848E9, 0.0, 2025-11-03 16:45:58.441
74.0, 257.25275835208595, -93.91823763726279, 186.3311655423604, -53.24682561913505, -0.04800000227987766, -0.03200000151991844, 1.0240000486373901, 0.0, 0.0, 0.0, 0.0, 0.0, 1.762206358441848E9, 0.0, 2025-11-03 16:45:58.441
75.0, 319.9297417094931, -39.031465887557715, 242.38104617828503, -3.2443632115609944, -0.04800000227987766, -0.03200000151991844, 1.0240000486373901, 0.0, 0.0, 0.0, 0.0, 0.0, 1.762206358442547E9, 0.0, 2025-11-03 16:45:58.442
75.0, 344.06705602351576, -11.603039612527937, 266.09575179731473, 30.478314688894898, -0.04800000227987766, -0.03200000151991844, 1.0240000486373901, 0.0, 0.0, 0.0, 0.0, 0.0, 1.762206358442547E9, 0.0, 2025-11-03 16:45:58.442
76.0, 259.0965290302411, -82.16373207652941, 188.17493622051552, -63.632527796085924, -0.04800000227987766, -0.03200000151991844, 1.0240000486373901, 0.0, 0.0, 0.0, 0.0, 0.0, 1.7622063584561937E9, 0.0, 2025-11-03 16:45:58.456
76.0, 282.8411538489163, -63.83822229364887, 212.42818743316457, -24.090565564576536, -0.04800000227987766, -0.03200000151991844, 1.0240000486373901, 0.0, 0.0, 0.0, 0.0, 0.0, 1.7622063584561937E9, 0.0, 2025-11-03 16:45:58.456
77.0, 353.4916039118543, -3.1172066130675375, 279.177921842318, 36.4060561186634, -0.04800000227987766, -0.03200000151991844, 1.0240000486373901, 0.0, 0.0, 0.0, 0.0, 0.0, 1.7622063584718418E9, 0.0, 2025-11-03 16:45:58.471
77.0, 280.70941087417305, -65.65207377215847, 208.03380498522893, -40.269372772891074, -0.04800000227987766, -0.03200000151991844, 1.0240000486373901, 0.0, 0.0, 0.0, 0.0, 0.0, 1.7622063584718418E9, 0.0, 2025-11-03 16:45:58.471
78.0, 278.6973446980119, -74.39221996860579, 207.1923274951987, -21.46889569563791, -0.04800000227987766, -0.03200000151991844, 1.0240000486373901, 0.0, 0.0, 0.0, 0.0, 0.0, 1.7622063584725456E9, 0.0, 2025-11-03 16:45:58.472
78.0, 351.84604793135077, -9.822847233619541, 272.4797610216774, 22.553466682787985, -0.04800000227987766, -0.03200000151991844, 1.0240000486373901, 0.0, 0.0, 0.0, 0.0, 0.0, 1.7622063584725456E9, 0.0, 2025-11-03 16:45:58.472
79.0, 300.71787563711405, -46.627202697563916, 235.41361256083474, -4.0035629025660455, -0.04800000227987766, -0.03200000151991844, 1.0240000486373901, 0.0, 0.0, 0.0, 0.0, 0.0, 1.7622063584862473E9, 0.0, 2025-11-03 16:45:58.486
79.0, 256.0485105663538, -93.15529804630205, 184.71552876150236, -56.08540968550369, -0.04800000227987766, -0.03200000151991844, 1.0240000486373901, 0.0, 0.0, 0.0, 0.0, 0.0, 1.7622063584862473E9, 0.0, 2025-11-03 16:45:58.486
80.0, 319.6380295129493, -39.005286587867886, 238.13999962853268, -17.676637140568346, -0.04800000227987766, -0.03200000151991844, 1.0400000493973494, 0.0, 0.0, 0.0, 0.0, 0.0, 1.762206358501835E9, 0.0, 2025-11-03 16:45:58.501
80.0, 329.9377139909193, -20.31326660932973, 265.05231970967725, 20.167410511057824, -0.04800000227987766, -0.03200000151991844, 1.0400000493973494, 0.0, 0.0, 0.0, 0.0, 0.0, 1.762206358501835E9, 0.0, 2025-11-03 16:45:58.501
81.0, 259.2012462290004, -87.75488251028582, 190.13090389734134, -47.25924579007551, -0.04800000227987766, -0.03200000151991844, 1.0400000493973494, 0.0, 0.0, 0.0, 0.0, 0.0, 1.7622063585025425E9, 0.0, 2025-11-03 16:45:58.502
81.0, 295.1080257035792, -61.89347431669012, 217.3760750745423, -19.239915322046727, -0.04800000227987766, -0.03200000151991844, 1.0400000493973494, 0.0, 0.0, 0.0, 0.0, 0.0, 1.7622063585025425E9, 0.0, 2025-11-03 16:45:58.502
82.0, 355.26057659089565, -8.614859547931701, 279.31255824072286, 45.69970750855282, -0.04800000227987766, -0.03200000151991844, 1.0400000493973494, 0.0, 0.0, 0.0, 0.0, 0.0, 1.7622063585325744E9, 0.0, 2025-11-03 16:45:58.532
82.0, 261.95381259638816, -82.42178517347202, 197.91737560508773, -48.02966518094763, -0.04800000227987766, -0.03200000151991844, 1.0400000493973494, 0.0, 0.0, 0.0, 0.0, 0.0, 1.7622063585325744E9, 0.0, 2025-11-03 16:45:58.532
83.0, 280.0549283819273, -71.2357444060035, 207.96274688607082, -32.05655247019604, -0.04800000227987766, -0.03200000151991844, 1.0400000493973494, 0.0, 0.0, 0.0, 0.0, 0.0, 1.7622063585333147E9, 0.0, 2025-11-03 16:45:58.533
83.0, 346.090341899544, -7.410611762199551, 286.46324695600197, 62.14404761372134, -0.04800000227987766, -0.03200000151991844, 1.0400000493973494, 0.0, 0.0, 0.0, 0.0, 0.0, 1.7622063585333147E9, 0.0, 2025-11-03 16:45:58.533
84.0, 295.5119348987937, -50.54287795117125, 235.22661756305024, -8.124932653736323, -0.04800000227987766, -0.03200000151991844, 1.0400000493973494, 0.0, 0.0, 0.0, 0.0, 0.0, 1.7622063585340211E9, 0.0, 2025-11-03 16:45:58.534
84.0, 269.07084221206605, -78.9100191150792, 197.98095390433446, -49.35732966521755, -0.04800000227987766, -0.03200000151991844, 1.0400000493973494, 0.0, 0.0, 0.0, 0.0, 0.0, 1.7622063585340211E9, 0.0, 2025-11-03 16:45:58.534
85.0, 317.4202688392252, -39.835544378031045, 243.020569070708, 2.769395917188376, -0.04800000227987766, -0.03200000151991844, 1.0400000493973494, 0.0, 0.0, 0.0, 0.0, 0.0, 1.762206358546224E9, 0.0, 2025-11-03 16:45:58.546
85.0, 331.231719375588, -15.5074951662682, 268.7735201655887, 31.020600182469934, -0.04800000227987766, -0.03200000151991844, 1.0400000493973494, 0.0, 0.0, 0.0, 0.0, 0.0, 1.762206358546224E9, 0.0, 2025-11-03 16:45:58.546
86.0, 263.0795224830508, -80.649072594475, 198.68031519604847, -34.31545204343274, -0.04800000227987766, -0.03200000151991844, 1.0400000493973494, 0.0, 0.0, 0.0, 0.0, 0.0, 1.7622063585619133E9, 0.0, 2025-11-03 16:45:58.561
86.0, 284.56524772848934, -64.16733348974958, 219.15252755349502, -18.77616772754118, -0.04800000227987766, -0.03200000151991844, 1.0400000493973494, 0.0, 0.0, 0.0, 0.0, 0.0, 1.7622063585619133E9, 0.0, 2025-11-03 16:45:58.561
87.0, 364.96561697591096, 6.958083867561072, 287.4842396439053, 53.46747971652076, -0.04800000227987766, -0.03200000151991844, 1.0400000493973494, 0.0, 0.0, 0.0, 0.0, 0.0, 1.7622063585625925E9, 0.0, 2025-11-03 16:45:58.562
87.0, 281.8725197603926, -66.50477096205577, 214.93018050352111, -19.034220824483782, -0.04800000227987766, -0.03200000151991844, 1.0400000493973494, 0.0, 0.0, 0.0, 0.0, 0.0, 1.7622063585625925E9, 0.0, 2025-11-03 16:45:58.562
88.0, 256.4486798616126, -88.910511596594, 191.39872998232022, -55.62166209099814, -0.04800000227987766, -0.03200000151991844, 1.0400000493973494, 0.0, 0.0, 0.0, 0.0, 0.0, 1.7622063585762312E9, 0.0, 2025-11-03 16:45:58.576
88.0, 339.2089259810746, -18.121685235295445, 271.64576333155856, 35.25416693231091, -0.04800000227987766, -0.03200000151991844, 1.0400000493973494, 0.0, 0.0, 0.0, 0.0, 0.0, 1.7622063585762312E9, 0.0, 2025-11-03 16:45:58.576
89.0, 294.34508611261845, -50.54287795117125, 227.81787575082853, -11.775075010489672, -0.04800000227987766, -0.03200000151991844, 1.0400000493973494, 0.0, 0.0, 0.0, 0.0, 0.0, 1.7622063585918767E9, 0.0, 2025-11-03 16:45:58.591
89.0, 259.3396225273609, -86.10932652978227, 195.25082693668082, -53.64325501443818, -0.04800000227987766, -0.03200000151991844, 1.0400000493973494, 0.0, 0.0, 0.0, 0.0, 0.0, 1.7622063585918767E9, 0.0, 2025-11-03 16:45:58.591
90.0, 317.54368553776294, -37.76363980257884, 249.6140126925893, 6.045548278372735, -0.04800000227987766, -0.03200000151991844, 1.0400000493973494, 0.0, 0.0, 0.0, 0.0, 0.0, 1.7622063585925984E9, 0.0, 2025-11-03 16:45:58.592
90.0, 332.07319686561823, -18.073066535871476, 272.83131161751226, 44.259846025612205, -0.04800000227987766, -0.03200000151991844, 1.0400000493973494, 0.0, 0.0, 0.0, 0.0, 0.0, 1.7622063585925984E9, 0.0, 2025-11-03 16:45:58.592
91.0, 263.67042667604983, -76.99145043781027, 206.14141560764983, -36.49207381764427, -0.04800000227987766, -0.03200000151991844, 1.0400000493973494, 0.0, 0.0, 0.0, 0.0, 0.0, 1.7622063586062312E9, 0.0, 2025-11-03 16:45:58.606
91.0, 274.534836047329, -74.56051546661183, 210.98084615031257, -37.34851090749726, -0.04800000227987766, -0.03200000151991844, 1.0400000493973494, 0.0, 0.0, 0.0, 0.0, 0.0, 1.7622063586062312E9, 0.0, 2025-11-03 16:45:58.606
92.0, 345.33862200845033, -8.061354354489595, 285.1131430719979, 45.445394311565906, -0.04800000227987766, -0.03200000151991844, 1.0400000493973494, 0.0, 0.0, 0.0, 0.0, 0.0, 1.762206358621868E9, 0.0, 2025-11-03 16:45:58.621
92.0, 272.95659826602787, -63.84944199351594, 227.2755902572535, 0.1252866485156119, -0.04800000227987766, -0.03200000151991844, 1.0400000493973494, 0.0, 0.0, 0.0, 0.0, 0.0, 1.762206358621868E9, 0.0, 2025-11-03 16:45:58.621
93.0, 262.9374062847346, -79.22043081140146, 202.3005383531563, -37.827218101825565, -0.04800000227987766, -0.03200000151991844, 1.0400000493973494, 0.0, 0.0, 0.0, 0.0, 0.0, 1.7622063586225784E9, 0.0, 2025-11-03 16:45:58.622
93.0, 355.9187989830971, -0.1290265484713018, 288.99141932604834, 42.52453244617209, -0.04800000227987766, -0.03200000151991844, 1.0400000493973494, 0.0, 0.0, 0.0, 0.0, 0.0, 1.7622063586225784E9, 0.0, 2025-11-03 16:45:58.622
94.0, 295.025747904554, -43.23511343775317, 246.03118853503838, -2.301908422727138, -0.04800000227987766, -0.03200000151991844, 1.0400000493973494, 0.0, 0.0, 0.0, 0.0, 0.0, 1.7622063586362212E9, 0.0, 2025-11-03 16:45:58.636
94.0, 266.2359980456531, -72.47365129133686, 209.03235827339813, -27.830465520266443, -0.04800000227987766, -0.03200000151991844, 1.0400000493973494, 0.0, 0.0, 0.0, 0.0, 0.0, 1.7622063586362212E9, 0.0, 2025-11-03 16:45:58.636
95.0, 320.47202720306814, -29.19552900409326, 258.6907498850487, 34.637083439622074, -0.04800000227987766, -0.03200000151991844, 1.0400000493973494, 0.0, 0.0, 0.0, 0.0, 0.0, 1.7622063586518824E9, 0.0, 2025-11-03 16:45:58.651
95.0, 330.4089413853362, -15.832866462413222, 266.888610587921, 26.259707538876683, -0.04800000227987766, -0.03200000151991844, 1.0400000493973494, 0.0, 0.0, 0.0, 0.0, 0.0, 1.7622063586518824E9, 0.0, 2025-11-03 16:45:58.651
96.0, 258.14659444149584, -72.94861858570948, 209.83269686391577, -23.724055368918926, -0.04800000227987766, -0.03200000151991844, 1.0400000493973494, 0.0, 0.0, 0.0, 0.0, 0.0, 1.7622063586525798E9, 0.0, 2025-11-03 16:45:58.652
96.0, 282.6429391512647, -55.71515958989039, 228.17316624661908, 3.8801462040282786, -0.04800000227987766, -0.03200000151991844, 1.0400000493973494, 0.0, 0.0, 0.0, 0.0, 0.0, 1.7622063586525798E9, 0.0, 2025-11-03 16:45:58.652
97.0, 361.2406766200438, 10.312774127814919, 297.5408306247555, 45.2621392137371, -0.04800000227987766, -0.03200000151991844, 1.0400000493973494, 0.0, 0.0, 0.0, 0.0, 0.0, 1.7622063586826084E9, 0.0, 2025-11-03 16:45:58.682
97.0, 264.07433587126434, -71.31802220502868, 216.39622128615156, -18.67519042873755, -0.04800000227987766, -0.03200000151991844, 1.0400000493973494, 0.0, 0.0, 0.0, 0.0, 0.0, 1.7622063586826084E9, 0.0, 2025-11-03 16:45:58.682
98.0, 266.3070561448112, -74.36604066891596, 210.86864915164188, -33.825525149237365, -0.04800000227987766, -0.03200000151991844, 1.0400000493973494, 0.0, 0.0, 0.0, 0.0, 0.0, 1.762206358683312E9, 0.0, 2025-11-03 16:45:58.683
98.0, 343.10590173490345, -11.344986515585333, 281.60885681351647, 41.832650954369456, -0.04800000227987766, -0.03200000151991844, 1.0400000493973494, 0.0, 0.0, 0.0, 0.0, 0.0, 1.762206358683312E9, 0.0, 2025-11-03 16:45:58.683
99.0, 297.27342777792364, -44.20374752627686, 243.17764486884698, 6.681331270840019, -0.04800000227987766, -0.03200000151991844, 1.0400000493973494, 0.0, 0.0, 0.0, 0.0, 0.0, 1.7622063586840324E9, 0.0, 2025-11-03 16:45:58.684
99.0, 260.4204536145553, -80.40223919739947, 204.8548900228925, -26.43174293683842, -0.04800000227987766, -0.03200000151991844, 1.0400000493973494, 0.0, 0.0, 0.0, 0.0, 0.0, 1.7622063586840324E9, 0.0, 2025-11-03 16:45:58.684
100.0, 312.6593761956319, -35.93108882429078, 255.94940321752802, 27.53127352381125, -0.04800000227987766, -0.03200000151991844, 1.0400000493973494, 0.0, 0.0, 0.0, 0.0, 0.0, 1.7622063586968768E9, 0.0, 2025-11-03 16:45:58.696
100.0, 326.7475793287158, -16.64816465275362, 272.8986298167147, 29.356344702187926, -0.04800000227987766, -0.03200000151991844, 1.0400000493973494, 0.0, 0.0, 0.0, 0.0, 0.0, 1.7622063586968768E9, 0.0, 2025-11-03 16:45:58.696
0.0, 263.9060403732583, -79.201731311623, 213.32202352257445, -25.739861445035785, -0.04800000227987766, -0.03200000151991844, 1.0400000493973494, 0.0, 0.0, 0.0, 0.0, 0.0, 1.762206358697562E9, 0.0, 2025-11-03 16:45:58.697
1.0, 274.8676871433854, -62.05802991474047, 231.66249290527776, -13.981615984346718, -0.04800000227987766, -0.03200000151991844, 1.0400000493973494, 0.0, 0.0, 0.0, 0.0, 0.0, 1.7622063587112043E9, 0.0, 2025-11-03 16:45:58.711
1.0, 339.32112297974527, -6.490596373099834, 288.72962632915005, 43.452027635183185, -0.04800000227987766, -0.03200000151991844, 1.0400000493973494, 0.0, 0.0, 0.0, 0.0, 0.0, 1.7622063587112043E9, 0.0, 2025-11-03 16:45:58.711
2.0, 275.18183873966336, -62.88828770490363, 225.18872608197853, -17.45224314322695, -0.04800000227987766, -0.03200000151991844, 1.0400000493973494, 0.0, 0.0, 0.0, 0.0, 0.0, 1.7622063587269025E9, 0.0, 2025-11-03 16:45:58.726
2.0, 275.6493262341246, -69.77344352332875, 217.70892617059872, -25.15269715199247, -0.04800000227987766, -0.03200000151991844, 1.0400000493973494, 0.0, 0.0, 0.0, 0.0, 0.0, 1.7622063587269025E9, 0.0, 2025-11-03 16:45:58.726
3.0, 350.11447425186634, -8.67469794722274, 281.4405613155104, 35.003593635279685, -0.04800000227987766, -0.03200000151991844, 1.0400000493973494, 0.0, 0.0, 0.0, 0.0, 0.0, 1.7622063587276013E9, 0.0, 2025-11-03 16:45:58.727
3.0, 308.6988221425563, -33.818045349325985, 248.15919160982594, 2.141092724632472, -0.04800000227987766, -0.03200000151991844, 1.0400000493973494, 0.0, 0.0, 0.0, 0.0, 0.0, 1.7622063587276013E9, 0.0, 2025-11-03 16:45:58.727
4.0, 276.04201572947204, -61.949572816025466, 212.6787607301958, -26.839392032008618, -0.04800000227987766, -0.03200000151991844, 1.0400000493973494, 0.0, 0.0, 0.0, 0.0, 0.0, 1.7622063587412012E9, 0.0, 2025-11-03 16:45:58.741
4.0, 309.3233854351565, -34.36033084290102, 255.94940321752802, 22.871358179021627, -0.04800000227987766, -0.03200000151991844, 1.0400000493973494, 0.0, 0.0, 0.0, 0.0, 0.0, 1.7622063587412012E9, 0.0, 2025-11-03 16:45:58.741
5.0, 324.1446089595556, -20.156190811190754, 272.6966752191074, 36.01336662331596, -0.04800000227987766, -0.03200000151991844, 1.0400000493973494, 0.0, 0.0, 0.0, 0.0, 0.0, 1.7622063587569E9, 0.0, 2025-11-03 16:45:58.756
5.0, 259.18254672922194, -78.6856251177378, 206.75849910033867, -25.91563674295321, -0.04800000227987766, -0.03200000151991844, 1.0400000493973494, 0.0, 0.0, 0.0, 0.0, 0.0, 1.7622063587569E9, 0.0, 2025-11-03 16:45:58.756
6.0, 285.0140357231721, -64.04017689125612, 220.69336633523926, -13.551527489442378, -0.04800000227987766, -0.03200000151991844, 1.0400000493973494, 0.0, 0.0, 0.0, 0.0, 0.0, 1.7622063587576067E9, 0.0, 2025-11-03 16:45:58.757
6.0, 339.5716962767765, -9.295521339867264, 280.16899533057585, 40.80417846655473, -0.04800000227987766, -0.03200000151991844, 1.0400000493973494, 0.0, 0.0, 0.0, 0.0, 0.0, 1.7622063587576067E9, 0.0, 2025-11-03 16:45:58.757
7.0, 263.69286607578397, -73.11691408371553, 209.4100881689228, -21.90272409049794, -0.04800000227987766, -0.03200000151991844, 1.0400000493973494, 0.0, 0.0, 0.0, 0.0, 0.0, 1.7622063587876058E9, 0.0, 2025-11-03 16:45:58.787
7.0, 257.095682553947, -86.70771052269265, 198.4110423992388, -39.31943818414584, -0.04800000227987766, -0.03200000151991844, 1.0400000493973494, 0.0, 0.0, 0.0, 0.0, 0.0, 1.7622063587876058E9, 0.0, 2025-11-03 16:45:58.787
8.0, 343.835182226263, -14.25462868111208, 273.1903420132585, 35.99466712353751, -0.04800000227987766, -0.03200000151991844, 1.0400000493973494, 0.0, 0.0, 0.0, 0.0, 0.0, 1.7622063587883153E9, 0.0, 2025-11-03 16:45:58.788
8.0, 296.7311422843486, -48.87114267097786, 232.9490184900351, -4.351373598445207, -0.04800000227987766, -0.03200000151991844, 1.0400000493973494, 0.0, 0.0, 0.0, 0.0, 0.0, 1.7622063587883153E9, 0.0, 2025-11-03 16:45:58.788
9.0, 255.74183876998723, -83.09870706545189, 202.42769495164976, -23.57819927064702, -0.04800000227987766, -0.03200000151991844, 1.0400000493973494, 0.0, 0.0, 0.0, 0.0, 0.0, 1.7622063587890177E9, 0.0, 2025-11-03 16:45:58.789
9.0, 314.117937178351, -38.8145516901277, 251.08753327513114, 20.79571370361373, -0.04800000227987766, -0.03200000151991844, 1.0400000493973494, 0.0, 0.0, 0.0, 0.0, 0.0, 1.7622063587890177E9, 0.0, 2025-11-03 16:45:58.789
10.0, 332.0769367655739, -17.706556340213865, 270.4751746454276, 32.198668668512255, -0.04800000227987766, -0.03200000151991844, 1.0400000493973494, 0.0, 0.0, 0.0, 0.0, 0.0, 1.762206358801246E9, 0.0, 2025-11-03 16:45:58.801
10.0, 259.4854786256328, -79.94971130276099, 207.6037164903246, -17.88981143804267, -0.04800000227987766, -0.03200000151991844, 1.0400000493973494, 0.0, 0.0, 0.0, 0.0, 0.0, 1.762206358801246E9, 0.0, 2025-11-03 16:45:58.801
11.0, 277.5828545112163, -71.60225460166112, 217.34989577485248, -11.666617911774665, -0.04800000227987766, -0.03200000151991844, 1.0400000493973494, 0.0, 0.0, 0.0, 0.0, 0.0, 1.762206358816926E9, 0.0, 2025-11-03 16:45:58.816
11.0, 347.5339432824403, -10.447410526219755, 284.43622118001804, 43.3734897361137, -0.04800000227987766, -0.03200000151991844, 1.0400000493973494, 0.0, 0.0, 0.0, 0.0, 0.0, 1.762206358816926E9, 0.0, 2025-11-03 16:45:58.816
12.0, 282.78131544962525, -58.366748658474535, 226.2695571691729, -2.5076029202900827, -0.06400000303983688, -0.03200000151991844, 1.0400000493973494, 0.0, 0.0, 0.0, 0.0, 0.0, 1.762206358817599E9, 0.0, 2025-11-03 16:45:58.817
12.0, 270.43590569589287, -71.74063090002164, 210.79385115252808, -28.941215807106346, -0.06400000303983688, -0.03200000151991844, 1.0400000493973494, 0.0, 0.0, 0.0, 0.0, 0.0, 1.762206358817599E9, 0.0, 2025-11-03 16:45:58.817
13.0, 343.67062662821263, -9.400238538626581, 281.2236471180804, 41.29036546079442, -0.06400000303983688, -0.03200000151991844, 1.0400000493973494, 0.0, 0.0, 0.0, 0.0, 0.0, 1.7622063588312097E9, 0.0, 2025-11-03 16:45:58.831
13.0, 311.13349701371044, -30.523193488363177, 258.2195224906318, 22.452489383984357, -0.06400000303983688, -0.03200000151991844, 1.0400000493973494, 0.0, 0.0, 0.0, 0.0, 0.0, 1.7622063588312097E9, 0.0, 2025-11-03 16:45:58.831
14.0, 266.2359980456531, -67.72397834761068, 218.54292386071756, -5.929611379746348, -0.06400000303983688, -0.03200000151991844, 1.0400000493973494, 0.0, 0.0, 0.0, 0.0, 0.0, 1.7622063588469276E9, 0.0, 2025-11-03 16:45:58.846
14.0, 320.20275440625846, -24.509434359613806, 264.2968599186279, 21.667110393289477, -0.06400000303983688, -0.03200000151991844, 1.0400000493973494, 0.0, 0.0, 0.0, 0.0, 0.0, 1.7622063588469276E9, 0.0, 2025-11-03 16:45:58.846
15.0, 343.7977832267061, 0.6339130424894392, 292.39846818568185, 51.511512039694935, -0.06400000303983688, -0.03200000151991844, 1.0400000493973494, 0.0, 0.0, 0.0, 0.0, 0.0, 1.7622063588476062E9, 0.0, 2025-11-03 16:45:58.847
15.0, 269.9833778012544, -57.75714496569708, 225.9778449726291, -10.529688325244933, -0.06400000303983688, -0.03200000151991844, 1.0400000493973494, 0.0, 0.0, 0.0, 0.0, 0.0, 1.7622063588476062E9, 0.0, 2025-11-03 16:45:58.847
16.0, 290.63884525652975, -42.09444395126775, 249.95808348851278, 17.325086544733495, -0.06400000303983688, -0.03200000151991844, 1.0400000493973494, 0.0, 0.0, 0.0, 0.0, 0.0, 1.7622063588612568E9, 0.0, 2025-11-03 16:45:58.861
16.0, 353.9740510061383, 10.013582131359726, 310.92593256616965, 76.84933423949406, -0.06400000303983688, -0.03200000151991844, 1.0400000493973494, 0.0, 0.0, 0.0, 0.0, 0.0, 1.7622063588612568E9, 0.0, 2025-11-03 16:45:58.861
17.0, 293.03986102808267, -33.15608305716887, 258.97498228168115, 41.439961459022015, -0.06400000303983688, -0.03200000151991844, 1.0400000493973494, 0.0, 0.0, 0.0, 0.0, 0.0, 1.7622063588768835E9, 0.0, 2025-11-03 16:45:58.876
17.0, 280.08110768161714, -55.988172286655754, 241.7677025855519, 14.108772582840174, -0.06400000303983688, -0.03200000151991844, 1.0400000493973494, 0.0, 0.0, 0.0, 0.0, 0.0, 1.7622063588768835E9, 0.0, 2025-11-03 16:45:58.876
18.0, 340.8956208610907, 1.1201000367291272, 301.22089218115434, 70.70467861229554, -0.06400000303983688, -0.03200000151991844, 1.0400000493973494, 0.0, 0.0, 0.0, 0.0, 0.0, 1.7622063588775935E9, 0.0, 2025-11-03 16:45:58.877
18.0, 314.5667251730338, -18.129165035206825, 277.76797955902293, 46.41402840008959, -0.06400000303983688, -0.03200000151991844, 1.0400000493973494, 0.0, 0.0, 0.0, 0.0, 0.0, 1.7622063588775935E9, 0.0, 2025-11-03 16:45:58.877
19.0, 276.99943011812866, -57.7122661662288, 235.85492075560614, 8.016475555021316, -0.06400000303983688, -0.03200000151991844, 1.0400000493973494, 0.0, 0.0, 0.0, 0.0, 0.0, 1.762206358891304E9, 0.0, 2025-11-03 16:45:58.891
19.0, 312.51352009736, -26.83191223209724, 271.3802304347046, 38.14510959805921, -0.06400000303983688, -0.03200000151991844, 1.0400000493973494, 0.0, 0.0, 0.0, 0.0, 0.0, 1.762206358891304E9, 0.0, 2025-11-03 16:45:58.891
20.0, 319.6978679122403, -9.774228534195572, 290.5172985079698, 61.9009541166015, -0.06400000303983688, -0.03200000151991844, 1.0400000493973494, 0.0, 0.0, 0.0, 0.0, 0.0, 1.7622063589068823E9, 0.0, 2025-11-03 16:45:58.906
20.0, 264.8297956623137, -61.972012215759605, 230.61906081764027, 6.572874172125012, -0.06400000303983688, -0.03200000151991844, 1.0400000493973494, 0.0, 0.0, 0.0, 0.0, 0.0, 1.7622063589068823E9, 0.0, 2025-11-03 16:45:58.906
21.0, 286.4763366058469, -49.80985755985603, 245.88533243676648, 18.27876103343442, -0.06400000303983688, -0.03200000151991844, 1.0400000493973494, 0.0, 0.0, 0.0, 0.0, 0.0, 1.7622063589075842E9, 0.0, 2025-11-03 16:45:58.907
21.0, 354.0114500056952, 13.360792591702193, 315.89251970732585, 79.23539041122422, -0.06400000303983688, -0.03200000151991844, 1.0400000493973494, 0.0, 0.0, 0.0, 0.0, 0.0, 1.7622063589075842E9, 0.0, 2025-11-03 16:45:58.907
22.0, 267.0475563360378, -48.672927973326296, 250.70606347965077, 28.630804110784084, -0.06400000303983688, -0.03200000151991844, 1.0400000493973494, 0.0, 0.0, 0.0, 0.0, 0.0, 1.7622063589212227E9, 0.0, 2025-11-03 16:45:58.921
22.0, 267.7843166273087, -58.68838005466387, 235.70158485742286, 0.3459407459013164, -0.06400000303983688, -0.03200000151991844, 1.0400000493973494, 0.0, 0.0, 0.0, 0.0, 0.0, 1.7622063589212227E9, 0.0, 2025-11-03 16:45:58.921
23.0, 357.81866816058755, 8.136152353603393, 303.5059710540809, 63.73350509488955, -0.06400000303983688, -0.03200000151991844, 1.0400000493973494, 0.0, 0.0, 0.0, 0.0, 0.0, 1.7622063589368844E9, 0.0, 2025-11-03 16:45:58.936
23.0, 288.94093067664653, -33.851704448927194, 269.08393186191097, 39.33813768392429, -0.06400000303983688, -0.03200000151991844, 1.0400000493973494, 0.0, 0.0, 0.0, 0.0, 0.0, 1.7622063589368844E9, 0.0, 2025-11-03 16:45:58.936
24.0, 262.25300459284335, -62.794790206011385, 231.62135400576517, -4.598206995520741, -0.06400000303983688, -0.03200000151991844, 1.0400000493973494, 0.0, 0.0, 0.0, 0.0, 0.0, 1.7622063589376066E9, 0.0, 2025-11-03 16:45:58.937
24.0, 307.8162057530135, -31.95183527143672, 268.1078179734759, 34.06487874640152, -0.06400000303983688, -0.03200000151991844, 1.0400000493973494, 0.0, 0.0, 0.0, 0.0, 0.0, 1.7622063589376066E9, 0.0, 2025-11-03 16:45:58.937
25.0, 329.8516962919384, -3.779168905224651, 299.36216190317646, 65.57727577304468, -0.06400000303983688, -0.03200000151991844, 1.0400000493973494, 0.0, 0.0, 0.0, 0.0, 0.0, 1.7622063589512413E9, 0.0, 2025-11-03 16:45:58.951
25.0, 273.52132315933704, -54.63058860274032, 238.45415122481063, 10.780261622276157, -0.06400000303983688, -0.03200000151991844, 1.0400000493973494, 0.0, 0.0, 0.0, 0.0, 0.0, 1.7622063589512413E9, 0.0, 2025-11-03 16:45:58.951
26.0, 267.4664251310751, -58.44528655754402, 240.71305079804733, 8.760715646203607, -0.06400000303983688, -0.03200000151991844, 1.0400000493973494, 0.0, 0.0, 0.0, 0.0, 0.0, 1.7622063589668915E9, 0.0, 2025-11-03 16:45:58.966
26.0, 348.9738047653809, 12.059307407122105, 312.0927813523449, 74.97564436169341, -0.06400000303983688, -0.03200000151991844, 1.0400000493973494, 0.0, 0.0, 0.0, 0.0, 0.0, 1.7622063589668915E9, 0.0, 2025-11-03 16:45:58.966
27.0, 275.5371292354539, -49.98937275772914, 245.48890304146335, 10.507248925510794, -0.06400000303983688, -0.03200000151991844, 1.0400000493973494, 0.0, 0.0, 0.0, 0.0, 0.0, 1.7622063589675918E9, 0.0, 2025-11-03 16:45:58.967
27.0, 263.59562867693603, -71.89396679820493, 224.36594809172675, -9.385278938803822, -0.06400000303983688, -0.03200000151991844, 1.0400000493973494, 0.0, 0.0, 0.0, 0.0, 0.0, 1.7622063589675918E9, 0.0, 2025-11-03 16:45:58.967
28.0, 328.2323196111247, -19.284794121515006, 281.3657633163966, 33.429095753934234, -0.06400000303983688, -0.03200000151991844, 1.0400000493973494, 0.0, 0.0, 0.0, 0.0, 0.0, 1.762206358981259E9, 0.0, 2025-11-03 16:45:58.981
28.0, 290.22371636144817, -36.42849551839754, 252.9911423525773, 14.632358576636761, -0.06400000303983688, -0.03200000151991844, 1.0400000493973494, 0.0, 0.0, 0.0, 0.0, 0.0, 1.762206358981259E9, 0.0, 2025-11-03 16:45:58.981
29.0, 275.1706190397963, -60.749064930249006, 231.7634702040814, -4.160638700705022, -0.06400000303983688, -0.03200000151991844, 1.0400000493973494, 0.0, 0.0, 0.0, 0.0, 0.0, 1.762206358996994E9, 0.0, 2025-11-03 16:45:58.996
29.0, 301.248941430822, -36.35743741923943, 260.38118466502056, 28.937475907150656, -0.06400000303983688, -0.03200000151991844, 1.0400000493973494, 0.0, 0.0, 0.0, 0.0, 0.0, 1.762206358996994E9, 0.0, 2025-11-03 16:45:58.996
30.0, 325.24039964657277, -6.180184676777571, 295.02761785453185, 56.06297028576955, -0.06400000303983688, -0.03200000151991844, 1.0400000493973494, 0.0, 0.0, 0.0, 0.0, 0.0, 1.7622063589976108E9, 0.0, 2025-11-03 16:45:58.997
30.0, 262.0772292949259, -59.537337344605476, 230.57792191812769, -2.0737745254300535, -0.06400000303983688, -0.03200000151991844, 1.0400000493973494, 0.0, 0.0, 0.0, 0.0, 0.0, 1.7622063589976108E9, 0.0, 2025-11-03 16:45:58.997
31.0, 286.0612077107653, -44.17008842667565, 248.98196960007772, 18.390958032105118, -0.06400000303983688, -0.03200000151991844, 1.0400000493973494, 0.0, 0.0, 0.0, 0.0, 0.0, 1.7622063590112033E9, 0.0, 2025-11-03 16:45:59.011
31.0, 357.5045165643096, 11.685317411553115, 313.30450893798843, 76.81567513989285, -0.06400000303983688, -0.03200000151991844, 1.0400000493973494, 0.0, 0.0, 0.0, 0.0, 0.0, 1.7622063590112033E9, 0.0, 2025-11-03 16:45:59.011
32.0, 272.2721965741366, -54.297737506683916, 239.67709851032123, 1.7259638295508921, -0.06400000303983688, -0.03200000151991844, 1.0400000493973494, 0.0, 0.0, 0.0, 0.0, 0.0, 1.7622063590269012E9, 0.0, 2025-11-03 16:45:59.026
32.0, 270.22647129837424, -61.42598682222888, 231.864447502885, -1.4417314329184592, -0.06400000303983688, -0.03200000151991844, 1.0400000493973494, 0.0, 0.0, 0.0, 0.0, 0.0, 1.7622063590269012E9, 0.0, 2025-11-03 16:45:59.026
33.0, 330.6108959829435, -7.642485559452325, 292.4919656845741, 58.42658705776557, -0.06400000303983688, -0.03200000151991844, 1.0400000493973494, 0.0, 0.0, 0.0, 0.0, 0.0, 1.7622063590275865E9, 0.0, 2025-11-03 16:45:59.027
33.0, 295.44835659954697, -27.067525929305702, 264.9962212103419, 36.40231621870771, -0.06400000303983688, -0.03200000151991844, 1.0400000493973494, 0.0, 0.0, 0.0, 0.0, 0.0, 1.7622063590275865E9, 0.0, 2025-11-03 16:45:59.027
34.0, 267.25699073355645, -61.42224692227319, 226.0900419712998, -7.646225459408015, -0.06400000303983688, -0.03200000151991844, 1.0400000493973494, 0.0, 0.0, 0.0, 0.0, 0.0, 1.7622063590412383E9, 0.0, 2025-11-03 16:45:59.041
34.0, 294.8462327066809, -37.93941510049626, 260.31386646581814, 26.34198533790186, -0.06400000303983688, -0.03200000151991844, 1.0400000493973494, 0.0, 0.0, 0.0, 0.0, 0.0, 1.7622063590412383E9, 0.0, 2025-11-03 16:45:59.041
35.0, 319.2154208179563, -20.436683307867497, 282.36057670461014, 45.39303571218625, -0.06400000303983688, -0.03200000151991844, 1.0400000493973494, 0.0, 0.0, 0.0, 0.0, 0.0, 1.7622063590568888E9, 0.0, 2025-11-03 16:45:59.056
35.0, 257.55195034854114, -71.9425854976289, 221.17581342952326, -11.85361290955916, -0.06400000303983688, -0.03200000151991844, 1.0400000493973494, 0.0, 0.0, 0.0, 0.0, 0.0, 1.7622063590568888E9, 0.0, 2025-11-03 16:45:59.056
36.0, 274.5049168476835, -62.035590515006334, 232.81438209163025, -1.688564829993993, -0.06400000303983688, -0.03200000151991844, 1.0400000493973494, 0.0, 0.0, 0.0, 0.0, 0.0, 1.7622063590575848E9, 0.0, 2025-11-03 16:45:59.057
36.0, 364.1764980852604, 10.357652927283198, 308.37158089643344, 66.77778365882114, -0.06400000303983688, -0.03200000151991844, 1.0400000493973494, 0.0, 0.0, 0.0, 0.0, 0.0, 1.7622063590575848E9, 0.0, 2025-11-03 16:45:59.057
37.0, 258.84595573320985, -66.54590986156836, 235.82126165600494, 2.1074336250312626, -0.06400000303983688, -0.03200000151991844, 1.0400000493973494, 0.0, 0.0, 0.0, 0.0, 0.0, 1.762206359071369E9, 0.0, 2025-11-03 16:45:59.071
37.0, 254.4964520847425, -73.7938359756954, 225.74971107533202, -5.510742584709078, -0.06400000303983688, -0.03200000151991844, 1.0400000493973494, 0.0, 0.0, 0.0, 0.0, 0.0, 1.762206359071369E9, 0.0, 2025-11-03 16:45:59.071
38.0, 338.95087288413197, -4.777722193393856, 295.2968906513415, 62.357221911195666, -0.06400000303983688, -0.03200000151991844, 1.0400000493973494, 0.0, 0.0, 0.0, 0.0, 0.0, 1.7622063590868828E9, 0.0, 2025-11-03 16:45:59.086
38.0, 296.01308149285614, -36.52573291724548, 258.3317194893025, 21.839145791251212, -0.06400000303983688, -0.03200000151991844, 1.0400000493973494, 0.0, 0.0, 0.0, 0.0, 0.0, 1.7622063590868828E9, 0.0, 2025-11-03 16:45:59.086
39.0, 248.8978218510747, -76.4977836436592, 214.42903390945867, -15.5074951662682, -0.06400000303983688, -0.03200000151991844, 1.0400000493973494, 0.0, 0.0, 0.0, 0.0, 0.0, 1.7622063590875928E9, 0.0, 2025-11-03 16:45:59.087
39.0, 307.3225389588624, -32.610057663638145, 262.9542358345352, 30.687749086413532, -0.06400000303983688, -0.03200000151991844, 1.0400000493973494, 0.0, 0.0, 0.0, 0.0, 0.0, 1.7622063590875928E9, 0.0, 2025-11-03 16:45:59.087
40.0, 319.02468592021614, -15.51871486613527, 283.88271598657593, 51.02532504545525, -0.06400000303983688, -0.03200000151991844, 1.0400000493973494, 0.0, 0.0, 0.0, 0.0, 0.0, 1.762206359101338E9, 0.0, 2025-11-03 16:45:59.101
40.0, 274.2880026502535, -57.543970668222755, 232.63112699380144, -5.877252780366689, -0.06400000303983688, -0.03200000151991844, 1.0400000493973494, 0.0, 0.0, 0.0, 0.0, 0.0, 1.762206359101338E9, 0.0, 2025-11-03 16:45:59.101
41.0, 285.3880257187411, -51.71720653725788, 241.36753329029307, 0.7984686405397952, -0.06400000303983688, -0.03200000151991844, 1.0400000493973494, 0.0, 0.0, 0.0, 0.0, 0.0, 1.7622063591168694E9, 0.0, 2025-11-03 16:45:59.116
41.0, 347.7994761792943, -4.332674098666757, 303.3414154560305, 68.419599739369, -0.06400000303983688, -0.03200000151991844, 1.0400000493973494, 0.0, 0.0, 0.0, 0.0, 0.0, 1.7622063591168694E9, 0.0, 2025-11-03 16:45:59.116
42.0, 266.9390992373228, -65.68573287175968, 223.43845290271565, -18.72006922820583, -0.06400000303983688, -0.03200000151991844, 1.0400000493973494, 0.0, 0.0, 0.0, 0.0, 0.0, 1.762206359117579E9, 0.0, 2025-11-03 16:45:59.117
42.0, 260.62614811211824, -79.56824150728062, 209.64944176608697, -19.16137742297724, -0.06400000303983688, -0.03200000151991844, 1.0400000493973494, 0.0, 0.0, 0.0, 0.0, 0.0, 1.762206359117579E9, 0.0, 2025-11-03 16:45:59.117
43.0, 320.09429730754346, -33.025186558719724, 267.53935318021104, 26.248487839009613, -0.06400000303983688, -0.03200000151991844, 1.0400000493973494, 0.0, 0.0, 0.0, 0.0, 0.0, 1.7622063591312335E9, 0.0, 2025-11-03 16:45:59.131
43.0, 286.27064210828394, -52.19965363154188, 241.06834129383788, 1.6810850300826132, -0.06400000303983688, -0.03200000151991844, 1.0400000493973494, 0.0, 0.0, 0.0, 0.0, 0.0, 1.7622063591312335E9, 0.0, 2025-11-03 16:45:59.131
44.0, 257.1517810532823, -91.67055776389316, 194.90675614075735, -46.58980369800702, -0.06400000303983688, -0.03200000151991844, 1.0400000493973494, 0.0, 0.0, 0.0, 0.0, 0.0, 1.7622063591469002E9, 0.0, 2025-11-03 16:45:59.146
44.0, 305.0711191855371, -56.00313188647851, 227.15591345867142, -11.04205461917445, -0.06400000303983688, -0.03200000151991844, 1.0400000493973494, 0.0, 0.0, 0.0, 0.0, 0.0, 1.7622063591469002E9, 0.0, 2025-11-03 16:45:59.146
45.0, 312.1582296015695, -38.70983449136838, 248.9483105004765, 8.177291253115982, -0.06400000303983688, -0.03200000151991844, 1.0400000493973494, 0.0, 0.0, 0.0, 0.0, 0.0, 1.7622063591475823E9, 0.0, 2025-11-03 16:45:59.147
45.0, 243.3365906169638, -104.54329341137782, 174.14657148672268, -67.0507963555865, -0.06400000303983688, -0.03200000151991844, 1.0400000493973494, 0.0, 0.0, 0.0, 0.0, 0.0, 1.7622063591475823E9, 0.0, 2025-11-03 16:45:59.147
46.0, 275.70542473345995, -82.88927266793326, 200.17253527836874, -35.037252734880894, -0.06400000303983688, -0.03200000151991844, 1.0400000493973494, 0.0, 0.0, 0.0, 0.0, 0.0, 1.7622063591612792E9, 0.0, 2025-11-03 16:45:59.161
46.0, 331.99091906659305, -29.861231196206063, 257.6959364968352, 11.782554810401052, -0.06400000303983688, -0.03200000151991844, 1.0400000493973494, 0.0, 0.0, 0.0, 0.0, 0.0, 1.7622063591612792E9, 0.0, 2025-11-03 16:45:59.161
47.0, 254.77694458141923, -87.58658701227978, 194.95537484018132, -37.456968006212264, -0.06400000303983688, -0.03200000151991844, 1.0400000493973494, 0.0, 0.0, 0.0, 0.0, 0.0, 1.7622063591768868E9, 0.0, 2025-11-03 16:45:59.176
47.0, 265.55159635376185, -84.64328574715182, 196.24564032489434, -43.67642163252458, -0.06400000303983688, -0.03200000151991844, 1.0400000493973494, 0.0, 0.0, 0.0, 0.0, 0.0, 1.7622063591768868E9, 0.0, 2025-11-03 16:45:59.176
48.0, 334.02168474253267, -26.207348939497024, 258.7431084844284, 10.009842231404036, -0.06400000303983688, -0.03200000151991844, 1.0400000493973494, 0.0, 0.0, 0.0, 0.0, 0.0, 1.762206359177583E9, 0.0, 2025-11-03 16:45:59.177
48.0, 311.20455511286855, -38.290965696331114, 242.10429358156398, -3.8464871044270694, -0.06400000303983688, -0.03200000151991844, 1.0400000493973494, 0.0, 0.0, 0.0, 0.0, 0.0, 1.762206359177583E9, 0.0, 2025-11-03 16:45:59.177
49.0, 252.4133278094232, -89.8380067856051, 191.47352798143402, -50.748572448734194, -0.06400000303983688, -0.03200000151991844, 1.0400000493973494, 0.0, 0.0, 0.0, 0.0, 0.0, 1.7622063591912925E9, 0.0, 2025-11-03 16:45:59.191
49.0, 308.38841044623405, -51.82566363597289, 231.2810231097974, -18.222662534099072, -0.06400000303983688, -0.03200000151991844, 1.0400000493973494, 0.0, 0.0, 0.0, 0.0, 0.0, 1.7622063591912925E9, 0.0, 2025-11-03 16:45:59.191
50.0, 343.99973782431334, -17.306387044955045, 271.339091535192, 29.17682950431481, -0.06400000303983688, -0.03200000151991844, 1.0400000493973494, 0.0, 0.0, 0.0, 0.0, 0.0, 1.7622063592068655E9, 0.0, 2025-11-03 16:45:59.206
50.0, 256.10460906568915, -89.37425919109955, 191.72784117842093, -55.02327809808776, -0.06400000303983688, -0.03200000151991844, 1.0400000493973494, 0.0, 0.0, 0.0, 0.0, 0.0, 1.7622063592068655E9, 0.0, 2025-11-03 16:45:59.206
51.0, 268.2443243218586, -80.06190830143169, 208.64340867800638, -32.33704496687278, -0.06400000303983688, -0.03200000151991844, 1.0400000493973494, 0.0, 0.0, 0.0, 0.0, 0.0, 1.7622063592075703E9, 0.0, 2025-11-03 16:45:59.207
51.0, 354.10494750458747, -1.692304729949683, 289.51500531984493, 39.405455883126706, -0.06400000303983688, -0.03200000151991844, 1.0400000493973494, 0.0, 0.0, 0.0, 0.0, 0.0, 1.7622063592075703E9, 0.0, 2025-11-03 16:45:59.207
52.0, 279.7258171858266, -62.428280010353774, 220.72702543484047, -27.422816425096244, -0.04800000227987766, -0.03200000151991844, 1.0400000493973494, 0.0, 0.0, 0.0, 0.0, 0.0, 1.7622063592375956E9, 0.0, 2025-11-03 16:45:59.237
52.0, 264.7549976631999, -79.75523650506511, 206.51166570326313, -37.11289721028879, -0.04800000227987766, -0.03200000151991844, 1.0400000493973494, 0.0, 0.0, 0.0, 0.0, 0.0, 1.7622063592375956E9, 0.0, 2025-11-03 16:45:59.237
53.0, 330.20698678772897, -21.12482489971444, 267.8572446764447, 27.007687530014664, -0.04800000227987766, -0.03200000151991844, 1.0400000493973494, 0.0, 0.0, 0.0, 0.0, 0.0, 1.762206359238326E9, 0.0, 2025-11-03 16:45:59.238
53.0, 300.2167290430516, -41.836390854325145, 240.64199269888923, -11.943370508495718, -0.04800000227987766, -0.03200000151991844, 1.0400000493973494, 0.0, 0.0, 0.0, 0.0, 0.0, 1.762206359238326E9, 0.0, 2025-11-03 16:45:59.238
54.0, 254.66474758274853, -86.40477862628177, 196.39523632312194, -43.69886103225872, -0.04800000227987766, -0.03200000151991844, 1.0400000493973494, 0.0, 0.0, 0.0, 0.0, 0.0, 1.762206359239039E9, 0.0, 2025-11-03 16:45:59.239
54.0, 298.79182715993375, -53.575936815235764, 237.16014584014192, 0.36464024567976594, -0.04800000227987766, -0.03200000151991844, 1.0400000493973494, 0.0, 0.0, 0.0, 0.0, 0.0, 1.762206359239039E9, 0.0, 2025-11-03 16:45:59.239
55.0, 325.5545512428507, -26.6972758336924, 270.27695994777605, 30.698968786280602, -0.04800000227987766, -0.03200000151991844, 1.0400000493973494, 0.0, 0.0, 0.0, 0.0, 0.0, 1.762206359251207E9, 0.0, 2025-11-03 16:45:59.251
55.0, 257.21909925248474, -85.2828086395748, 204.24154643015936, -32.90550976013765, -0.04800000227987766, -0.03200000151991844, 1.0400000493973494, 0.0, 0.0, 0.0, 0.0, 0.0, 1.762206359251207E9, 0.0, 2025-11-03 16:45:59.251
56.0, 257.9072408443317, -87.38089251471683, 199.97432058071718, -47.1507886913605, -0.04800000227987766, -0.03200000151991844, 1.0400000493973494, 0.0, 0.0, 0.0, 0.0, 0.0, 1.762206359266907E9, 0.0, 2025-11-03 16:45:59.266
56.0, 356.1357131805271, -1.366933433804661, 290.92120770318434, 46.49630619911477, -0.04800000227987766, -0.03200000151991844, 1.0400000493973494, 0.0, 0.0, 0.0, 0.0, 0.0, 1.762206359266907E9, 0.0, 2025-11-03 16:45:59.266
57.0, 270.11053439974785, -67.48836465040222, 220.4203536384739, -11.509542113635689, -0.04800000227987766, -0.03200000151991844, 1.0400000493973494, 0.0, 0.0, 0.0, 0.0, 0.0, 1.762206359267622E9, 0.0, 2025-11-03 16:45:59.267
57.0, 263.21415888145566, -84.99483634298667, 196.42889542272314, -36.28637932008132, -0.04800000227987766, -0.03200000151991844, 1.0400000493973494, 0.0, 0.0, 0.0, 0.0, 0.0, 1.762206359267622E9, 0.0, 2025-11-03 16:45:59.267
58.0, 333.0829698536545, -24.838545555714518, 266.20794879598543, 29.296506302896887, -0.04800000227987766, -0.03200000151991844, 1.0400000493973494, 0.0, 0.0, 0.0, 0.0, 0.0, 1.7622063592812684E9, 0.0, 2025-11-03 16:45:59.281
58.0, 315.8831699574366, -34.94001533603296, 245.58988034026697, 6.468156973365694, -0.04800000227987766, -0.03200000151991844, 1.0400000493973494, 0.0, 0.0, 0.0, 0.0, 0.0, 1.7622063592812684E9, 0.0, 2025-11-03 16:45:59.281
59.0, 255.73809887003154, -86.49079632526264, 196.71686771931127, -39.78318577865139, -0.04800000227987766, -0.03200000151991844, 1.0400000493973494, 0.0, 0.0, 0.0, 0.0, 0.0, 1.7622063592969007E9, 0.0, 2025-11-03 16:45:59.296
59.0, 301.60049202665687, -49.1890341672115, 238.81318162055686, 5.061954590026289, -0.04800000227987766, -0.03200000151991844, 1.0400000493973494, 0.0, 0.0, 0.0, 0.0, 0.0, 1.7622063592969007E9, 0.0, 2025-11-03 16:45:59.296
60.0, 334.0104650426656, -16.868818750139326, 277.98115385649726, 33.25332045601681, -0.04800000227987766, -0.03200000151991844, 1.0400000493973494, 0.0, 0.0, 0.0, 0.0, 0.0, 1.7622063592976108E9, 0.0, 2025-11-03 16:45:59.297
60.0, 259.193766429089, -85.00231614289805, 201.2645860654302, -41.19312806194648, -0.04800000227987766, -0.03200000151991844, 1.0400000493973494, 0.0, 0.0, 0.0, 0.0, 0.0, 1.7622063592976108E9, 0.0, 2025-11-03 16:45:59.297
61.0, 278.26725620310754, -68.53927653795108, 219.13008815376088, -22.033620588947088, -0.04800000227987766, -0.03200000151991844, 1.0400000493973494, 0.0, 0.0, 0.0, 0.0, 0.0, 1.762206359311276E9, 0.0, 2025-11-03 16:45:59.311
61.0, 345.8397686025128, -7.261015763971955, 291.91228119144216, 66.25793756498024, -0.04800000227987766, -0.03200000151991844, 1.0400000493973494, 0.0, 0.0, 0.0, 0.0, 0.0, 1.762206359311276E9, 0.0, 2025-11-03 16:45:59.311
62.0, 286.6446321038529, -52.349249629769474, 229.81124242721125, -19.89813771424815, -0.06400000303983688, -0.03200000151991844, 1.0400000493973494, 0.0, 0.0, 0.0, 0.0, 0.0, 1.7622063593273659E9, 0.0, 2025-11-03 16:45:59.327
62.0, 278.9778371946886, -62.390881010796875, 222.4959981138818, -36.260200020391494, -0.06400000303983688, -0.03200000151991844, 1.0400000493973494, 0.0, 0.0, 0.0, 0.0, 0.0, 1.7622063593273659E9, 0.0, 2025-11-03 16:45:59.327
63.0, 350.7240779446438, -11.206610217224807, 286.69886065321043, 45.445394311565906, -0.06400000303983688, -0.03200000151991844, 1.0400000493973494, 0.0, 0.0, 0.0, 0.0, 0.0, 1.76220635934191E9, 0.0, 2025-11-03 16:45:59.341
63.0, 307.3337586587295, -32.9242092599161, 261.41339705279097, 21.753128092270344, -0.06400000303983688, -0.03200000151991844, 1.0400000493973494, 0.0, 0.0, 0.0, 0.0, 0.0, 1.76220635934191E9, 0.0, 2025-11-03 16:45:59.341
64.0, 266.6847860403359, -68.48317803861573, 224.2350515932776, -8.689657547045499, -0.06400000303983688, -0.03200000151991844, 1.0400000493973494, 0.0, 0.0, 0.0, 0.0, 0.0, 1.7622063593426254E9, 0.0, 2025-11-03 16:45:59.342
64.0, 312.1208306020126, -34.71562133869156, 265.8937971997075, 38.93796838866547, -0.06400000303983688, -0.03200000151991844, 1.0400000493973494, 0.0, 0.0, 0.0, 0.0, 0.0, 1.7622063593426254E9, 0.0, 2025-11-03 16:45:59.342
65.0, 341.25839115679264, -1.1201000367291272, 297.4211538261734, 55.554343891795725, -0.06400000303983688, -0.03200000151991844, 1.0400000493973494, 0.0, 0.0, 0.0, 0.0, 0.0, 1.7622063593569603E9, 0.0, 2025-11-03 16:45:59.356
65.0, 275.74656363297254, -54.731565901543945, 238.6523659224622, 8.62981914775446, -0.06400000303983688, -0.03200000151991844, 1.0400000493973494, 0.0, 0.0, 0.0, 0.0, 0.0, 1.7622063593569603E9, 0.0, 2025-11-03 16:45:59.356
66.0, 300.34388564154506, -41.20060786185786, 252.8789453539066, 11.012135419528931, -0.06400000303983688, -0.03200000151991844, 1.0400000493973494, 0.0, 0.0, 0.0, 0.0, 0.0, 1.7622063593576288E9, 0.0, 2025-11-03 16:45:59.357
66.0, 381.39125758130103, 31.024340082425624, 328.518421957735, 85.49224303709343, -0.06400000303983688, -0.03200000151991844, 1.0400000493973494, 0.0, 0.0, 0.0, 0.0, 0.0, 1.7622063593576288E9, 0.0, 2025-11-03 16:45:59.357
67.0, 291.0539741516113, -31.6264639752917, 264.56239281548187, 34.93253553612158, -0.06400000303983688, -0.03200000151991844, 1.0400000493973494, 0.0, 0.0, 0.0, 0.0, 0.0, 1.762206359371269E9, 0.0, 2025-11-03 16:45:59.371
67.0, 289.8833854654804, -36.4060561186634, 265.8115194006823, 44.01301262853667, -0.06400000303983688, -0.03200000151991844, 1.0400000493973494, 0.0, 0.0, 0.0, 0.0, 0.0, 1.762206359371269E9, 0.0, 2025-11-03 16:45:59.371
68.0, 350.19301215093583, 13.600146188866347, 321.7679025377147, 92.35121955582872, -0.06400000303983688, -0.03200000151991844, 1.0400000493973494, 0.0, 0.0, 0.0, 0.0, 0.0, 1.7622063593869228E9, 0.0, 2025-11-03 16:45:59.386
68.0, 326.3848090330139, 4.112020001281053, 311.25878366222605, 75.6450864537619, -0.06400000303983688, -0.03200000151991844, 1.0400000493973494, 0.0, 0.0, 0.0, 0.0, 0.0, 1.7622063593869228E9, 0.0, 2025-11-03 16:45:59.386
69.0, 286.53243510518223, -34.83529813727364, 267.26260058349, 39.54757208144292, -0.06400000303983688, -0.03200000151991844, 1.0400000493973494, 0.0, 0.0, 0.0, 0.0, 0.0, 1.7622063593876135E9, 0.0, 2025-11-03 16:45:59.387
69.0, 327.95182711444795, 2.9077722155489028, 310.3088490734808, 87.49682941334322, -0.06400000303983688, -0.03200000151991844, 1.0400000493973494, 0.0, 0.0, 0.0, 0.0, 0.0, 1.7622063593876135E9, 0.0, 2025-11-03 16:45:59.387
70.0, 347.5414230823517, 20.432943407911807, 323.1329660215415, 83.19594446429983, -0.06400000303983688, -0.03200000151991844, 1.0400000493973494, 0.0, 0.0, 0.0, 0.0, 0.0, 1.762206359401286E9, 0.0, 2025-11-03 16:45:59.401
70.0, 264.0556363714859, -48.13812227966264, 250.2535355850123, 26.076452441047877, -0.06400000303983688, -0.03200000151991844, 1.0400000493973494, 0.0, 0.0, 0.0, 0.0, 0.0, 1.762206359401286E9, 0.0, 2025-11-03 16:45:59.401
71.0, 282.8748129485175, -33.14860325725749, 271.1446167374961, 35.822631725575775, -0.06400000303983688, -0.03200000151991844, 1.0400000493973494, 0.0, 0.0, 0.0, 0.0, 0.0, 1.7622063594168868E9, 0.0, 2025-11-03 16:45:59.416
71.0, 354.78186939656734, 22.79282027995214, 335.549433874432, 112.18764892080799, -0.06400000303983688, -0.03200000151991844, 1.0400000493973494, 0.0, 0.0, 0.0, 0.0, 0.0, 1.7622063594168868E9, 0.0, 2025-11-03 16:45:59.416
72.0, 276.9395917188376, -36.215321220923215, 265.97607499873266, 20.152450911235064, -0.06400000303983688, -0.03200000151991844, 1.0400000493973494, 0.0, 0.0, 0.0, 0.0, 0.0, 1.7622063594176116E9, 0.0, 2025-11-03 16:45:59.417
72.0, 248.68838745355606, -62.0842092144303, 244.62872605165467, 11.528241613414139, -0.06400000303983688, -0.03200000151991844, 1.0400000493973494, 0.0, 0.0, 0.0, 0.0, 0.0, 1.7622063594176116E9, 0.0, 2025-11-03 16:45:59.417
73.0, 320.2962519051507, -1.445471332874149, 312.30221574986354, 94.16507103433833, -0.06400000303983688, -0.03200000151991844, 1.0400000493973494, 0.0, 0.0, 0.0, 0.0, 0.0, 1.7622063594312637E9, 0.0, 2025-11-03 16:45:59.431
73.0, 292.71448973193765, -24.81236625602469, 282.02772560855374, 43.20893413806334, -0.06400000303983688, -0.03200000151991844, 1.0400000493973494, 0.0, 0.0, 0.0, 0.0, 0.0, 1.7622063594312637E9, 0.0, 2025-11-03 16:45:59.431
74.0, 251.6765675181523, -63.984078391920775, 240.44751790119335, 22.29541358584538, -0.06400000303983688, -0.03200000151991844, 1.0400000493973494, 0.0, 0.0, 0.0, 0.0, 0.0, 1.7622063594473612E9, 0.0, 2025-11-03 16:45:59.447
74.0, 307.46091525722295, -21.783047291915864, 278.79645204683766, 46.42150820000097, -0.06400000303983688, -0.03200000151991844, 1.0400000493973494, 0.0, 0.0, 0.0, 0.0, 0.0, 1.7622063594473612E9, 0.0, 2025-11-03 16:45:59.447
75.0, 330.6445550825447, 3.3640400101430714, 300.25599799258634, 47.7454327843152, -0.06400000303983688, -0.03200000151991844, 1.0400000493973494, 0.0, 0.0, 0.0, 0.0, 0.0, 1.7622063594619255E9, 0.0, 2025-11-03 16:45:59.461
75.0, 255.50622507277876, -58.381708258297294, 242.96447057137266, 19.408210820052773, -0.06400000303983688, -0.03200000151991844, 1.0400000493973494, 0.0, 0.0, 0.0, 0.0, 0.0, 1.7622063594619255E9, 0.0, 2025-11-03 16:45:59.461
76.0, 264.00327777210623, -57.33827617065981, 241.247856491711, -5.04325509024784, -0.06400000303983688, -0.03200000151991844, 1.0400000493973494, 0.0, 0.0, 0.0, 0.0, 0.0, 1.762206359462618E9, 0.0, 2025-11-03 16:45:59.462
76.0, 340.37203486729413, 11.019615219440311, 312.15635965159163, 61.87851471686736, -0.06400000303983688, -0.03200000151991844, 1.0400000493973494, 0.0, 0.0, 0.0, 0.0, 0.0, 1.762206359462618E9, 0.0, 2025-11-03 16:45:59.462
77.0, 268.9100265139714, -41.107110362965614, 258.6608306854032, 44.54033852228895, -0.06400000303983688, -0.03200000151991844, 1.0400000493973494, 0.0, 0.0, 0.0, 0.0, 0.0, 1.7622063594768963E9, 0.0, 2025-11-03 16:45:59.476
77.0, 258.65896073542535, -64.4590456862934, 237.97544403048232, 3.502416308503598, -0.06400000303983688, -0.03200000151991844, 1.0400000493973494, 0.0, 0.0, 0.0, 0.0, 0.0, 1.7622063594768963E9, 0.0, 2025-11-03 16:45:59.476
78.0, 329.0476178014651, -6.034328578505665, 300.0839625946246, 79.36254700971767, -0.06400000303983688, -0.03200000151991844, 1.0400000493973494, 0.0, 0.0, 0.0, 0.0, 0.0, 1.7622063594775963E9, 0.0, 2025-11-03 16:45:59.477
78.0, 289.74874906707555, -27.437776024919003, 268.45562866935506, 34.618383939843625, -0.06400000303983688, -0.03200000151991844, 1.0400000493973494, 0.0, 0.0, 0.0, 0.0, 0.0, 1.7622063594775963E9, 0.0, 2025-11-03 16:45:59.477
79.0, 248.5574909551069, -68.24382444145158, 229.0894417357631, -3.8838861039839685, -0.06400000303983688, -0.03200000151991844, 1.0400000493973494, 0.0, 0.0, 0.0, 0.0, 0.0, 1.7622063594912243E9, 0.0, 2025-11-03 16:45:59.491
79.0, 293.97109611704946, -38.82203149003908, 268.71368176629767, 41.95232775295153, -0.06400000303983688, -0.03200000151991844, 1.0400000493973494, 0.0, 0.0, 0.0, 0.0, 0.0, 1.7622063594912243E9, 0.0, 2025-11-03 16:45:59.491
80.0, 331.2279794756323, -0.15894574811682105, 298.58052281243727, 53.46747971652076, -0.06400000303983688, -0.03200000151991844, 1.0400000493973494, 0.0, 0.0, 0.0, 0.0, 0.0, 1.7622063595068927E9, 0.0, 2025-11-03 16:45:59.506
80.0, 265.58525545336306, -58.45650625741109, 233.65585958166048, -9.901385132689029, -0.06400000303983688, -0.03200000151991844, 1.0400000493973494, 0.0, 0.0, 0.0, 0.0, 0.0, 1.7622063595068927E9, 0.0, 2025-11-03 16:45:59.506
81.0, 273.00147706549615, -57.603809067513794, 238.1325198286213, 4.456090797204524, -0.06400000303983688, -0.03200000151991844, 1.0400000493973494, 0.0, 0.0, 0.0, 0.0, 0.0, 1.7622063595076027E9, 0.0, 2025-11-03 16:45:59.507
81.0, 343.9099802253768, 8.734536346513778, 309.3589144847356, 73.37496718065813, -0.06400000303983688, -0.03200000151991844, 1.0400000493973494, 0.0, 0.0, 0.0, 0.0, 0.0, 1.7622063595076027E9, 0.0, 2025-11-03 16:45:59.507
82.0, 273.4951438596472, -46.15971520310268, 245.97135013574734, 5.604240083601326, -0.04800000227987766, -0.03200000151991844, 1.0400000493973494, 0.0, 0.0, 0.0, 0.0, 0.0, 1.7622063595212424E9, 0.0, 2025-11-03 16:45:59.521
82.0, 268.47245821915567, -65.44263937463984, 224.14903389429674, -25.60522504663095, -0.04800000227987766, -0.03200000151991844, 1.0400000493973494, 0.0, 0.0, 0.0, 0.0, 0.0, 1.7622063595212424E9, 0.0, 2025-11-03 16:45:59.521
83.0, 318.8115116227418, -10.114559430163354, 290.5584374074824, 49.69018076127395, -0.04800000227987766, -0.03200000151991844, 1.0400000493973494, 0.0, 0.0, 0.0, 0.0, 0.0, 1.7622063595368977E9, 0.0, 2025-11-03 16:45:59.536
83.0, 294.7415155079216, -25.92685644282028, 270.27322004782036, 27.63973062252626, -0.04800000227987766, -0.03200000151991844, 1.0400000493973494, 0.0, 0.0, 0.0, 0.0, 0.0, 1.7622063595368977E9, 0.0, 2025-11-03 16:45:59.536
84.0, 250.91736782714725, -67.51080405013636, 232.13746019965038, 1.3220546343363822, -0.04800000227987766, -0.03200000151991844, 1.0400000493973494, 0.0, 0.0, 0.0, 0.0, 0.0, 1.762206359537599E9, 0.0, 2025-11-03 16:45:59.537
84.0, 293.2156363260001, -36.630450116004795, 270.7407075422816, 45.72214690828696, -0.04800000227987766, -0.03200000151991844, 1.0400000493973494, 0.0, 0.0, 0.0, 0.0, 0.0, 1.762206359537599E9, 0.0, 2025-11-03 16:45:59.537
85.0, 326.8597763273865, -0.11780684860423207, 304.29508994473144, 91.05721417116001, -0.04800000227987766, -0.03200000151991844, 1.0400000493973494, 0.0, 0.0, 0.0, 0.0, 0.0, 1.7622063595512495E9, 0.0, 2025-11-03 16:45:59.551
85.0, 256.98722545523196, -65.4575989744626, 220.76442443439737, -35.54587912885472, -0.04800000227987766, -0.03200000151991844, 1.0400000493973494, 0.0, 0.0, 0.0, 0.0, 0.0, 1.7622063595512495E9, 0.0, 2025-11-03 16:45:59.551
86.0, 271.0829083882272, -61.04451702674851, 239.55742171173915, 11.87231240933761, -0.04800000227987766, -0.03200000151991844, 1.0400000493973494, 0.0, 0.0, 0.0, 0.0, 0.0, 1.7622063595669475E9, 0.0, 2025-11-03 16:45:59.566
86.0, 344.8038163147867, 2.9975298144854605, 302.0137509717606, 79.41864550905302, -0.04800000227987766, -0.03200000151991844, 1.0400000493973494, 0.0, 0.0, 0.0, 0.0, 0.0, 1.7622063595669475E9, 0.0, 2025-11-03 16:45:59.566
87.0, 269.7477641040459, -57.04282407416031, 235.99703695392236, -3.307941510807723, -0.04800000227987766, -0.03200000151991844, 1.0400000493973494, 0.0, 0.0, 0.0, 0.0, 0.0, 1.762206359567646E9, 0.0, 2025-11-03 16:45:59.567
87.0, 261.95381259638816, -64.81433618208393, 225.3458018801175, 0.5591150433756411, -0.04800000227987766, -0.03200000151991844, 1.0400000493973494, 0.0, 0.0, 0.0, 0.0, 0.0, 1.762206359567646E9, 0.0, 2025-11-03 16:45:59.567
88.0, 324.5971368541941, -10.529688325244933, 289.0101188258268, 49.73131966078654, -0.04800000227987766, -0.03200000151991844, 1.0400000493973494, 0.0, 0.0, 0.0, 0.0, 0.0, 1.7622063595812457E9, 0.0, 2025-11-03 16:45:59.581
88.0, 293.3988914238289, -34.67074253922328, 265.48988800449297, 24.180323163513094, -0.04800000227987766, -0.03200000151991844, 1.0400000493973494, 0.0, 0.0, 0.0, 0.0, 0.0, 1.7622063595812457E9, 0.0, 2025-11-03 16:45:59.581
89.0, 255.39776797406375, -66.70298565970734, 231.78964950377122, -2.9975298144854605, -0.04800000227987766, -0.03200000151991844, 1.0400000493973494, 0.0, 0.0, 0.0, 0.0, 0.0, 1.76220635959691E9, 0.0, 2025-11-03 16:45:59.596
89.0, 297.595059174113, -34.31171214347705, 269.52897995663807, 48.343816777225584, -0.04800000227987766, -0.03200000151991844, 1.0400000493973494, 0.0, 0.0, 0.0, 0.0, 0.0, 1.76220635959691E9, 0.0, 2025-11-03 16:45:59.596
90.0, 320.9769136970863, -10.26415542839095, 289.91143471514806, 45.54263171041384, -0.04800000227987766, -0.03200000151991844, 1.0400000493973494, 0.0, 0.0, 0.0, 0.0, 0.0, 1.7622063595976052E9, 0.0, 2025-11-03 16:45:59.597
90.0, 259.9716656198725, -62.06550971465185, 232.06266220053658, -8.375505950767547, -0.04800000227987766, -0.03200000151991844, 1.0400000493973494, 0.0, 0.0, 0.0, 0.0, 0.0, 1.7622063595976052E9, 0.0, 2025-11-03 16:45:59.597
91.0, 261.69575949944556, -69.63132732501253, 226.13492077076808, -12.807287398260087, -0.04800000227987766, -0.03200000151991844, 1.0400000493973494, 0.0, 0.0, 0.0, 0.0, 0.0, 1.7622063596112597E9, 0.0, 2025-11-03 16:45:59.611
91.0, 336.20952621661127, -3.0685879136435688, 299.7099725990556, 67.52576364995912, -0.04800000227987766, -0.03200000151991844, 1.0400000493973494, 0.0, 0.0, 0.0, 0.0, 0.0, 1.7622063596112597E9, 0.0, 2025-11-03 16:45:59.611
92.0, 270.29378949757665, -51.156221543904394, 242.60544017562643, 22.157037287484854, -0.04800000227987766, -0.03200000151991844, 1.0400000493973494, 0.0, 0.0, 0.0, 0.0, 0.0, 1.7622063596268952E9, 0.0, 2025-11-03 16:45:59.626
92.0, 254.47775258496404, -76.21729114698246, 219.5339973489754, -13.226156193297356, -0.04800000227987766, -0.03200000151991844, 1.0400000493973494, 0.0, 0.0, 0.0, 0.0, 0.0, 1.7622063596268952E9, 0.0, 2025-11-03 16:45:59.626
93.0, 329.73575939331204, -16.838899550493807, 278.47108075069264, 44.648795621003956, -0.04800000227987766, -0.03200000151991844, 1.0400000493973494, 0.0, 0.0, 0.0, 0.0, 0.0, 1.7622063596276152E9, 0.0, 2025-11-03 16:45:59.627
93.0, 303.9902880983427, -32.10517116962001, 266.4360826932825, 46.83289719512686, -0.04800000227987766, -0.03200000151991844, 1.0400000493973494, 0.0, 0.0, 0.0, 0.0, 0.0, 1.7622063596276152E9, 0.0, 2025-11-03 16:45:59.627
94.0, 257.7576448461041, -79.09701411286369, 210.43108085682616, -23.94844936626032, -0.04800000227987766, -0.03200000151991844, 1.0400000493973494, 0.0, 0.0, 0.0, 0.0, 0.0, 1.7622063596412373E9, 0.0, 2025-11-03 16:45:59.641
94.0, 291.6934970440343, -53.168287720065564, 242.63161947531626, 9.097306642215699, -0.04800000227987766, -0.03200000151991844, 1.0400000493973494, 0.0, 0.0, 0.0, 0.0, 0.0, 1.7622063596412373E9, 0.0, 2025-11-03 16:45:59.641
95.0, 320.2700726054609, -16.046040759887546, 285.95088066207245, 52.51754512777552, -0.04800000227987766, -0.03200000151991844, 1.0400000493973494, 0.0, 0.0, 0.0, 0.0, 0.0, 1.7622063596569016E9, 0.0, 2025-11-03 16:45:59.656
95.0, 247.03535167314112, -79.85621380386874, 218.55788346054032, 1.5127895320765674, -0.04800000227987766, -0.03200000151991844, 1.0400000493973494, 0.0, 0.0, 0.0, 0.0, 0.0, 1.7622063596569016E9, 0.0, 2025-11-03 16:45:59.656
96.0, 267.3504882324487, -70.14369361894205, 229.15675993496552, 9.927564432378858, -0.04800000227987766, -0.03200000151991844, 1.0400000493973494, 0.0, 0.0, 0.0, 0.0, 0.0, 1.7622063596575866E9, 0.0, 2025-11-03 16:45:59.657
96.0, 341.69595945160836, -1.2397768353112042, 298.83857590937987, 50.91686794674024, -0.04800000227987766, -0.03200000151991844, 1.0400000493973494, 0.0, 0.0, 0.0, 0.0, 0.0, 1.7622063596575866E9, 0.0, 2025-11-03 16:45:59.657
97.0, 272.69854516908526, -54.9335204991512, 241.75648288568482, 9.609672936145216, -0.04800000227987766, -0.03200000151991844, 1.0400000493973494, 0.0, 0.0, 0.0, 0.0, 0.0, 1.7622063596712816E9, 0.0, 2025-11-03 16:45:59.671
97.0, 263.2440780811012, -69.68742582434788, 226.51265066629276, -7.635005759540945, -0.04800000227987766, -0.03200000151991844, 1.0400000493973494, 0.0, 0.0, 0.0, 0.0, 0.0, 1.7622063596712816E9, 0.0, 2025-11-03 16:45:59.671
98.0, 333.4120810497552, -12.036868007387966, 285.99201956158504, 46.18589450279251, -0.04800000227987766, -0.03200000151991844, 1.0400000493973494, 0.0, 0.0, 0.0, 0.0, 0.0, 1.7622063596868896E9, 0.0, 2025-11-03 16:45:59.686
98.0, 305.4787682807073, -19.628864917438477, 278.91612884541973, 50.61393605032936, -0.04800000227987766, -0.03200000151991844, 1.0400000493973494, 0.0, 0.0, 0.0, 0.0, 0.0, 1.7622063596868896E9, 0.0, 2025-11-03 16:45:59.686
99.0, 263.40115387924016, -66.13452086644247, 222.2753440164961, -12.829726797994226, -0.04800000227987766, -0.03200000151991844, 1.0400000493973494, 0.0, 0.0, 0.0, 0.0, 0.0, 1.762206359687599E9, 0.0, 2025-11-03 16:45:59.687
99.0, 288.5819002809003, -50.0417313571088, 249.46067679440603, 11.50580221368, -0.04800000227987766, -0.03200000151991844, 1.0400000493973494, 0.0, 0.0, 0.0, 0.0, 0.0, 1.762206359687599E9, 0.0, 2025-11-03 16:45:59.687
100.0, 318.5571984257549, -18.634051529224962, 286.98683294979855, 56.8595689763315, -0.04800000227987766, -0.03200000151991844, 1.0400000493973494, 0.0, 0.0, 0.0, 0.0, 0.0, 1.7622063597019277E9, 0.0, 2025-11-03 16:45:59.701
100.0, 264.11173487082124, -69.10774133121595, 227.42892615543678, -5.219030388165265, -0.04800000227987766, -0.03200000151991844, 1.0400000493973494, 0.0, 0.0, 0.0, 0.0, 0.0, 1.7622063597019277E9, 0.0, 2025-11-03 16:45:59.701
0.0, 262.4512192904949, -75.11963050998747, 223.93398964684457, -5.134882639162242, -0.04800000227987766, -0.03200000151991844, 1.0400000493973494, 0.0, 0.0, 0.0, 0.0, 0.0, 1.762206359702593E9, 0.0, 2025-11-03 16:45:59.702
1.0, 343.2367982333526, -2.8759830659255385, 299.6183450501412, 74.69328191503882, -0.04800000227987766, -0.03200000151991844, 1.0400000493973494, 0.0, 0.0, 0.0, 0.0, 0.0, 1.762206359716232E9, 0.0, 2025-11-03 16:45:59.716
1.0, 285.5712808165699, -45.058314666152, 247.2634855704382, 22.49549823347479, -0.04800000227987766, -0.03200000151991844, 1.0400000493973494, 0.0, 0.0, 0.0, 0.0, 0.0, 1.762206359716232E9, 0.0, 2025-11-03 16:45:59.716
2.0, 255.0462173782289, -76.11818379815668, 220.37360488902777, -7.038491716608405, -0.04800000227987766, -0.03200000151991844, 1.0400000493973494, 0.0, 0.0, 0.0, 0.0, 0.0, 1.7622063597482915E9, 0.0, 2025-11-03 16:45:59.748
2.0, 320.13917610701174, -22.19256633706391, 278.55522849969566, 52.05940738320351, -0.04800000227987766, -0.03200000151991844, 1.0400000493973494, 0.0, 0.0, 0.0, 0.0, 0.0, 1.7622063597482915E9, 0.0, 2025-11-03 16:45:59.748
3.0, 307.27392025943846, -29.672366248443723, 272.11886067595333, 50.36149280332029, -0.04800000227987766, -0.03200000151991844, 1.0400000493973494, 0.0, 0.0, 0.0, 0.0, 0.0, 1.7622063597489886E9, 0.0, 2025-11-03 16:45:59.748
3.0, 252.47316620871425, -78.89692946523428, 214.14667146280408, -17.106302397325635, -0.04800000227987766, -0.03200000151991844, 1.0400000493973494, 0.0, 0.0, 0.0, 0.0, 0.0, 1.7622063597489886E9, 0.0, 2025-11-03 16:45:59.748
4.0, 307.1879025604576, -37.50745665561408, 254.72458598203957, 11.967679858207703, -0.04800000227987766, -0.03200000151991844, 1.0400000493973494, 0.0, 0.0, 0.0, 0.0, 0.0, 1.7622063597497282E9, 0.0, 2025-11-03 16:45:59.749
4.0, 324.10347006004304, -12.113535956479609, 282.1717117568478, 42.19355130009353, -0.04800000227987766, -0.03200000151991844, 1.0400000493973494, 0.0, 0.0, 0.0, 0.0, 0.0, 1.7622063597497282E9, 0.0, 2025-11-03 16:45:59.749
5.0, 255.80541706923395, -75.58711800444871, 212.31412048451602, -19.522277768701315, -0.04800000227987766, -0.03200000151991844, 1.0400000493973494, 0.0, 0.0, 0.0, 0.0, 0.0, 1.762206359750471E9, 0.0, 2025-11-03 16:45:59.750
5.0, 263.58066907711327, -72.46804144140333, 229.05017278622836, -0.1570757981389761, -0.04800000227987766, -0.03200000151991844, 1.0400000493973494, 0.0, 0.0, 0.0, 0.0, 0.0, 1.762206359750471E9, 0.0, 2025-11-03 16:45:59.750
6.0, 331.88620186783373, -8.84486339520663, 297.01911458093673, 82.87618301808834, -0.04800000227987766, -0.03200000151991844, 1.0400000493973494, 0.0, 0.0, 0.0, 0.0, 0.0, 1.7622063597612944E9, 0.0, 2025-11-03 16:45:59.761
6.0, 257.7501650461927, -71.85843774862587, 220.6615771856159, -8.164201603271067, -0.04800000227987766, -0.03200000151991844, 1.0400000493973494, 0.0, 0.0, 0.0, 0.0, 0.0, 1.7622063597612944E9, 0.0, 2025-11-03 16:45:59.761
7.0, 249.8253170400858, -84.08417070377618, 206.3527199551463, -30.902793333865702, -0.04800000227987766, -0.03200000151991844, 1.0400000493973494, 0.0, 0.0, 0.0, 0.0, 0.0, 1.7622063597762537E9, 0.0, 2025-11-03 16:45:59.776
7.0, 323.9688336616382, -26.18303958978504, 273.6821388574317, 36.396706368774176, -0.04800000227987766, -0.03200000151991844, 1.0400000493973494, 0.0, 0.0, 0.0, 0.0, 0.0, 1.7622063597762537E9, 0.0, 2025-11-03 16:45:59.776
8.0, 304.86916458792984, -34.840907987207174, 265.6039549531415, 39.35496723372489, -0.04800000227987766, -0.03200000151991844, 1.0400000493973494, 0.0, 0.0, 0.0, 0.0, 0.0, 1.762206359791927E9, 0.0, 2025-11-03 16:45:59.791
8.0, 265.8956671496853, -73.78448622580618, 221.8433855716139, -7.917368206195533, -0.04800000227987766, -0.03200000151991844, 1.0400000493973494, 0.0, 0.0, 0.0, 0.0, 0.0, 1.762206359791927E9, 0.0, 2025-11-03 16:45:59.791
9.0, 288.60433968063444, -55.44027694314718, 242.35673682857305, 12.49126585200429, -0.04800000227987766, -0.03200000151991844, 1.0400000493973494, 0.0, 0.0, 0.0, 0.0, 0.0, 1.7622063597926352E9, 0.0, 2025-11-03 16:45:59.792
9.0, 324.6794146532193, -15.737499013543129, 291.3681257478893, 66.57769901119173, -0.04800000227987766, -0.03200000151991844, 1.0400000493973494, 0.0, 0.0, 0.0, 0.0, 0.0, 1.7622063597926352E9, 0.0, 2025-11-03 16:45:59.792
10.0, 268.58465521782637, -64.92840313073248, 227.44949560519308, -5.0526048401370645, -0.04800000227987766, -0.03200000151991844, 1.0400000493973494, 0.0, 0.0, 0.0, 0.0, 0.0, 1.7622063598062885E9, 0.0, 2025-11-03 16:45:59.806
10.0, 271.9430853780359, -67.7370679974556, 235.98020740412176, 9.67512118536979, -0.04800000227987766, -0.03200000151991844, 1.0400000493973494, 0.0, 0.0, 0.0, 0.0, 0.0, 1.7622063598062885E9, 0.0, 2025-11-03 16:45:59.806
11.0, 341.06765625905246, -0.6619622921571136, 301.7089491253719, 59.9543361896649, -0.04800000227987766, -0.03200000151991844, 1.0400000493973494, 0.0, 0.0, 0.0, 0.0, 0.0, 1.762206359821915E9, 0.0, 2025-11-03 16:45:59.821
11.0, 269.62060750555247, -59.714982592500746, 239.12172336690128, 11.223439767025411, -0.04800000227987766, -0.03200000151991844, 1.0400000493973494, 0.0, 0.0, 0.0, 0.0, 0.0, 1.762206359821915E9, 0.0, 2025-11-03 16:45:59.821
12.0, 255.05369717814028, -81.4101422354579, 216.86931863054633, -11.945240458473563, -0.04800000227987766, -0.03200000151991844, 1.0400000493973494, 0.0, 0.0, 0.0, 0.0, 0.0, 1.7622063598226187E9, 0.0, 2025-11-03 16:45:59.822
12.0, 334.5976293357089, -19.3801615703851, 285.8068945137784, 57.64307801704854, -0.04800000227987766, -0.03200000151991844, 1.0400000493973494, 0.0, 0.0, 0.0, 0.0, 0.0, 1.7622063598226187E9, 0.0, 2025-11-03 16:45:59.822
13.0, 304.01646739803255, -32.380053816363215, 266.1911192461848, 33.93585219793022, -0.04800000227987766, -0.03200000151991844, 1.0400000493973494, 0.0, 0.0, 0.0, 0.0, 0.0, 1.7622063598362708E9, 0.0, 2025-11-03 16:45:59.836
13.0, 252.12909541279078, -81.70185443200171, 218.38023821264505, -23.849342017434537, -0.04800000227987766, -0.03200000151991844, 1.0400000493973494, 0.0, 0.0, 0.0, 0.0, 0.0, 1.7622063598362708E9, 0.0, 2025-11-03 16:45:59.836
14.0, 287.31033429596573, -54.63993835262954, 240.47182725090533, 0.8639168897643685, -0.04800000227987766, -0.03200000151991844, 1.0400000493973494, 0.0, 0.0, 0.0, 0.0, 0.0, 1.7622063598519404E9, 0.0, 2025-11-03 16:45:59.851
14.0, 331.8188836686313, -8.4484339999035, 297.79701377172023, 57.96844931319356, -0.04800000227987766, -0.03200000151991844, 1.0400000493973494, 0.0, 0.0, 0.0, 0.0, 0.0, 1.7622063598519404E9, 0.0, 2025-11-03 16:45:59.851
15.0, 256.50477836094797, -70.26898026745766, 220.81865298375487, -6.305471325293183, -0.04800000227987766, -0.03200000151991844, 1.0400000493973494, 0.0, 0.0, 0.0, 0.0, 0.0, 1.7622063598526287E9, 0.0, 2025-11-03 16:45:59.852
15.0, 271.2773831859231, -66.22240851540118, 227.2512809075415, -17.34939589444548, -0.04800000227987766, -0.03200000151991844, 1.0400000493973494, 0.0, 0.0, 0.0, 0.0, 0.0, 1.7622063598526287E9, 0.0, 2025-11-03 16:45:59.852
16.0, 334.61632883548737, -16.605155803263187, 282.97205034736544, 50.855159597471356, -0.04800000227987766, -0.03200000151991844, 1.0400000493973494, 0.0, 0.0, 0.0, 0.0, 0.0, 1.7622063598662815E9, 0.0, 2025-11-03 16:45:59.866
16.0, 273.1772523634136, -62.202016063034534, 231.17443596106023, 2.531912270002067, -0.04800000227987766, -0.03200000151991844, 1.0400000493973494, 0.0, 0.0, 0.0, 0.0, 0.0, 1.7622063598662815E9, 0.0, 2025-11-03 16:45:59.866
17.0, 255.85403576865792, -83.97571360506117, 205.51872226502746, -30.899053433910012, -0.04800000227987766, -0.03200000151991844, 1.0400000493973494, 0.0, 0.0, 0.0, 0.0, 0.0, 1.76220635988192E9, 0.0, 2025-11-03 16:45:59.881
17.0, 332.4883257606998, -18.785517477430403, 273.7681565564126, 37.9076259508729, -0.04800000227987766, -0.03200000151991844, 1.0400000493973494, 0.0, 0.0, 0.0, 0.0, 0.0, 1.76220635988192E9, 0.0, 2025-11-03 16:45:59.881
18.0, 305.1459171846509, -33.34120810497552, 256.4898187611252, 25.39392069913447, -0.04800000227987766, -0.03200000151991844, 1.0400000493973494, 0.0, 0.0, 0.0, 0.0, 0.0, 1.7622063598826203E9, 0.0, 2025-11-03 16:45:59.882
18.0, 256.1981065645814, -79.94410145282745, 208.97064992412925, -23.79698341805488, -0.04800000227987766, -0.03200000151991844, 1.0400000493973494, 0.0, 0.0, 0.0, 0.0, 0.0, 1.7622063598826203E9, 0.0, 2025-11-03 16:45:59.882
19.0, 293.0697802277282, -44.18317807652056, 258.2064328407869, 44.067241177894175, -0.04800000227987766, -0.03200000151991844, 1.0400000493973494, 0.0, 0.0, 0.0, 0.0, 0.0, 1.7622063598962831E9, 0.0, 2025-11-03 16:45:59.896
19.0, 332.4471868611872, -8.396075400523841, 285.93405111227185, 33.550642502494156, -0.04800000227987766, -0.03200000151991844, 1.0400000493973494, 0.0, 0.0, 0.0, 0.0, 0.0, 1.7622063598962831E9, 0.0, 2025-11-03 16:45:59.896
20.0, 257.88854134455323, -73.13000373356044, 220.11555179208517, -19.080969573929906, -0.04800000227987766, -0.03200000151991844, 1.0400000493973494, 0.0, 0.0, 0.0, 0.0, 0.0, 1.762206359911921E9, 0.0, 2025-11-03 16:45:59.911
20.0, 272.47415117174387, -67.3630780018866, 224.40895694121718, -17.7495651897043, -0.04800000227987766, -0.03200000151991844, 1.0400000493973494, 0.0, 0.0, 0.0, 0.0, 0.0, 1.762206359911921E9, 0.0, 2025-11-03 16:45:59.911
21.0, 347.7284180801362, 3.1976144621148705, 309.31964553520083, 75.9274489004165, -0.04800000227987766, -0.03200000151991844, 1.0400000493973494, 0.0, 0.0, 0.0, 0.0, 0.0, 1.762206359912636E9, 0.0, 2025-11-03 16:45:59.912
21.0, 274.37028044927865, -54.920430849306285, 237.9249553810805, 3.343470560386777, -0.04800000227987766, -0.03200000151991844, 1.0400000493973494, 0.0, 0.0, 0.0, 0.0, 0.0, 1.762206359912636E9, 0.0, 2025-11-03 16:45:59.912
22.0, 260.96273910813034, -72.7747132377699, 213.85121936630458, -18.52372448053211, -0.04800000227987766, -0.03200000151991844, 1.0400000493973494, 0.0, 0.0, 0.0, 0.0, 0.0, 1.7622063599262977E9, 0.0, 2025-11-03 16:45:59.926
22.0, 334.47795253712684, -15.453266616910696, 273.3567675612867, 30.461485139094293, -0.04800000227987766, -0.03200000151991844, 1.0400000493973494, 0.0, 0.0, 0.0, 0.0, 0.0, 1.7622063599262977E9, 0.0, 2025-11-03 16:45:59.926
23.0, 319.5183527143672, -20.730265454389155, 273.40912616066635, 37.7580299526453, -0.04800000227987766, -0.03200000151991844, 1.0400000493973494, 0.0, 0.0, 0.0, 0.0, 0.0, 1.7622063599419205E9, 0.0, 2025-11-03 16:45:59.941
23.0, 277.85960710793734, -49.58733351249248, 235.4416618105024, 5.426594835706055, -0.04800000227987766, -0.03200000151991844, 1.0400000493973494, 0.0, 0.0, 0.0, 0.0, 0.0, 1.7622063599419205E9, 0.0, 2025-11-03 16:45:59.941
24.0, 288.33506688382477, -48.36812612693757, 249.27555174659938, 9.540484786964953, -0.04800000227987766, -0.03200000151991844, 1.0400000493973494, 0.0, 0.0, 0.0, 0.0, 0.0, 1.7622063599426136E9, 0.0, 2025-11-03 16:45:59.942
24.0, 337.18190020509064, -3.6912812562659383, 292.74440893158317, 54.27342815697193, -0.04800000227987766, -0.03200000151991844, 1.0400000493973494, 0.0, 0.0, 0.0, 0.0, 0.0, 1.7622063599426136E9, 0.0, 2025-11-03 16:45:59.942
25.0, 248.30317775812, -81.78413223102689, 211.04255449958146, -23.69600611925125, -0.04800000227987766, -0.03200000151991844, 1.0400000493973494, 0.0, 0.0, 0.0, 0.0, 0.0, 1.7622063599562721E9, 0.0, 2025-11-03 16:45:59.956
25.0, 262.43251979071647, -66.34208531398326, 228.05535939801484, -5.176021538674831, -0.04800000227987766, -0.03200000151991844, 1.0400000493973494, 0.0, 0.0, 0.0, 0.0, 0.0, 1.7622063599562721E9, 0.0, 2025-11-03 16:45:59.956
26.0, 335.58496292401105, -3.021839164197445, 298.89654435869306, 60.75093488022685, -0.04800000227987766, -0.03200000151991844, 1.0400000493973494, 0.0, 0.0, 0.0, 0.0, 0.0, 1.7622063599719799E9, 0.0, 2025-11-03 16:45:59.971
26.0, 286.2743820082396, -42.72835699375719, 250.43118083290756, 10.84196997154504, -0.04800000227987766, -0.03200000151991844, 1.0400000493973494, 0.0, 0.0, 0.0, 0.0, 0.0, 1.7622063599719799E9, 0.0, 2025-11-03 16:45:59.971
27.0, 262.3016232922673, -71.14785675704479, 215.97922244109213, -15.064317021518946, -0.04800000227987766, -0.03200000151991844, 1.0400000493973494, 0.0, 0.0, 0.0, 0.0, 0.0, 1.762206359972654E9, 0.0, 2025-11-03 16:45:59.972
27.0, 333.84964934457093, -16.95296649914235, 279.37800648994744, 39.3138283342123, -0.04800000227987766, -0.03200000151991844, 1.0400000493973494, 0.0, 0.0, 0.0, 0.0, 0.0, 1.762206359972654E9, 0.0, 2025-11-03 16:45:59.972
28.0, 296.82089988328516, -38.21055784728378, 260.92160020861775, 18.617221979424357, -0.04800000227987766, -0.03200000151991844, 1.0400000493973494, 0.0, 0.0, 0.0, 0.0, 0.0, 1.7622063599862332E9, 0.0, 2025-11-03 16:45:59.986
28.0, 257.8361827451736, -77.47202758211643, 214.4346437593922, -24.073736014775932, -0.04800000227987766, -0.03200000151991844, 1.0400000493973494, 0.0, 0.0, 0.0, 0.0, 0.0, 1.7622063599862332E9, 0.0, 2025-11-03 16:45:59.986
29.0, 285.81811421364546, -53.4319506669417, 244.58571720216423, 8.523231999017298, -0.04800000227987766, -0.03200000151991844, 1.0400000493973494, 0.0, 0.0, 0.0, 0.0, 0.0, 1.7622063600019348E9, 0.0, 2025-11-03 16:46:00.001
29.0, 329.88535539153963, -7.457360511645675, 297.1387913795188, 62.579745958559215, -0.04800000227987766, -0.03200000151991844, 1.0400000493973494, 0.0, 0.0, 0.0, 0.0, 0.0, 1.7622063600019348E9, 0.0, 2025-11-03 16:46:00.001
30.0, 261.7181988991797, -72.78967283759266, 218.60837210994214, -14.940900322981179, -0.04800000227987766, -0.03200000151991844, 1.0400000493973494, 0.0, 0.0, 0.0, 0.0, 0.0, 1.7622063600026124E9, 0.0, 2025-11-03 16:46:00.002
30.0, 265.32346245646477, -77.85723727755249, 211.57362029328942, -23.36689492315054, -0.04800000227987766, -0.03200000151991844, 1.0400000493973494, 0.0, 0.0, 0.0, 0.0, 0.0, 1.7622063600026124E9, 0.0, 2025-11-03 16:46:00.002
31.0, 345.1366674108431, -8.900961894541979, 285.3955055186525, 46.35979985073209, -0.04800000227987766, -0.03200000151991844, 1.0400000493973494, 0.0, 0.0, 0.0, 0.0, 0.0, 1.7622063600162764E9, 0.0, 2025-11-03 16:46:00.016
31.0, 280.0549283819273, -56.25557513348758, 228.97537478711456, -15.068056921474636, -0.04800000227987766, -0.03200000151991844, 1.0400000493973494, 0.0, 0.0, 0.0, 0.0, 0.0, 1.7622063600162764E9, 0.0, 2025-11-03 16:46:00.016
32.0, 257.3761750506237, -77.36357048340142, 204.1349592814222, -32.843801410868764, -0.04800000227987766, -0.03200000151991844, 1.0400000493973494, 0.0, 0.0, 0.0, 0.0, 0.0, 1.762206360031916E9, 0.0, 2025-11-03 16:46:00.031
32.0, 327.7835316164419, -21.814836441539228, 271.25868368614465, 36.62858016602695, -0.04800000227987766, -0.03200000151991844, 1.0400000493973494, 0.0, 0.0, 0.0, 0.0, 0.0, 1.762206360031916E9, 0.0, 2025-11-03 16:46:00.031
33.0, 313.31759858783334, -26.92727968096733, 264.47076526656747, 19.862608664669096, -0.04800000227987766, -0.03200000151991844, 1.0400000493973494, 0.0, 0.0, 0.0, 0.0, 0.0, 1.762206360032636E9, 0.0, 2025-11-03 16:46:00.032
33.0, 265.59647515323013, -68.15219689253718, 216.07271993998438, -13.471119640395045, -0.04800000227987766, -0.03200000151991844, 1.0400000493973494, 0.0, 0.0, 0.0, 0.0, 0.0, 1.762206360032636E9, 0.0, 2025-11-03 16:46:00.032
34.0, 295.5194146987051, -47.238676340319216, 248.49765255581588, 31.575975325889885, -0.04800000227987766, -0.03200000151991844, 1.0400000493973494, 0.0, 0.0, 0.0, 0.0, 0.0, 1.7622063600462549E9, 0.0, 2025-11-03 16:46:00.046
34.0, 331.557090671733, -15.124155420809984, 274.2019849512726, 16.014251610264182, -0.04800000227987766, -0.03200000151991844, 1.0400000493973494, 0.0, 0.0, 0.0, 0.0, 0.0, 1.7622063600462549E9, 0.0, 2025-11-03 16:46:00.046
35.0, 265.63387415278703, -65.7736205207184, 215.27612124942243, -19.398861070163548, -0.04800000227987766, -0.03200000151991844, 1.0400000493973494, 0.0, 0.0, 0.0, 0.0, 0.0, 1.762206360061962E9, 0.0, 2025-11-03 16:46:00.061
35.0, 258.70009963493794, -76.83250468969345, 227.0343667101115, -4.136329350993037, -0.04800000227987766, -0.03200000151991844, 1.0400000493973494, 0.0, 0.0, 0.0, 0.0, 0.0, 1.762206360061962E9, 0.0, 2025-11-03 16:46:00.061
36.0, 343.39761393144727, -3.7623393554240465, 298.05506686866283, 56.0648402357474, -0.04800000227987766, -0.03200000151991844, 1.0400000493973494, 0.0, 0.0, 0.0, 0.0, 0.0, 1.762206360062634E9, 0.0, 2025-11-03 16:46:00.062
36.0, 278.97035739477724, -51.09451319463551, 242.58861062582582, 8.534451698884368, -0.04800000227987766, -0.03200000151991844, 1.0400000493973494, 0.0, 0.0, 0.0, 0.0, 0.0, 1.762206360062634E9, 0.0, 2025-11-03 16:46:00.062
37.0, 258.3074101395905, -71.9968140469864, 216.77956103160977, -27.275090376846492, -0.04800000227987766, -0.03200000151991844, 1.0400000493973494, 0.0, 0.0, 0.0, 0.0, 0.0, 1.7622063600763018E9, 0.0, 2025-11-03 16:46:00.076
37.0, 326.58302373066545, -16.43686030525714, 279.4602842889726, 37.986163849942386, -0.04800000227987766, -0.03200000151991844, 1.0400000493973494, 0.0, 0.0, 0.0, 0.0, 0.0, 1.7622063600763018E9, 0.0, 2025-11-03 16:46:00.076
38.0, 303.5452400036156, -34.11910729575902, 258.0082181431353, 20.0832627620548, -0.04800000227987766, -0.03200000151991844, 1.0400000493973494, 0.0, 0.0, 0.0, 0.0, 0.0, 1.762206360091931E9, 0.0, 2025-11-03 16:46:00.091
38.0, 254.36929548624903, -80.38540964759886, 211.21832979749888, -27.518183873966336, -0.04800000227987766, -0.03200000151991844, 1.0400000493973494, 0.0, 0.0, 0.0, 0.0, 0.0, 1.762206360091931E9, 0.0, 2025-11-03 16:46:00.091
39.0, 306.1930891722441, -38.26291644666344, 258.02317774295807, 19.75415156595409, -0.04800000227987766, -0.03200000151991844, 1.0400000493973494, 0.0, 0.0, 0.0, 0.0, 0.0, 1.7622063600926256E9, 0.0, 2025-11-03 16:46:00.092
39.0, 340.73480516299605, 0.22065409738570452, 297.38562477659434, 56.68192372843623, -0.04800000227987766, -0.03200000151991844, 1.0400000493973494, 0.0, 0.0, 0.0, 0.0, 0.0, 1.7622063600926256E9, 0.0, 2025-11-03 16:46:00.092
40.0, 266.40803344361484, -59.23253549821675, 230.5947514679283, -8.680307797156274, -0.04800000227987766, -0.03200000151991844, 1.0400000493973494, 0.0, 0.0, 0.0, 0.0, 0.0, 1.7622063601062212E9, 0.0, 2025-11-03 16:46:00.106
40.0, 286.60349320434034, -53.383331967517734, 235.13872991409153, -10.647495173849165, -0.04800000227987766, -0.03200000151991844, 1.0400000493973494, 0.0, 0.0, 0.0, 0.0, 0.0, 1.7622063601062212E9, 0.0, 2025-11-03 16:46:00.106
41.0, 357.74761006142944, 9.925694482401013, 308.61654434353113, 57.777714415453374, -0.04800000227987766, -0.03200000151991844, 1.0400000493973494, 0.0, 0.0, 0.0, 0.0, 0.0, 1.7622063601219192E9, 0.0, 2025-11-03 16:46:00.121
41.0, 286.8391069015488, -35.267256582155824, 262.21560559328645, 32.59322811383754, -0.04800000227987766, -0.03200000151991844, 1.0400000493973494, 0.0, 0.0, 0.0, 0.0, 0.0, 1.7622063601219192E9, 0.0, 2025-11-03 16:46:00.121
42.0, 274.534836047329, -54.68481715209782, 233.05934553872794, -5.3330973368138075, -0.04800000227987766, -0.03200000151991844, 1.0400000493973494, 0.0, 0.0, 0.0, 0.0, 0.0, 1.7622063601226149E9, 0.0, 2025-11-03 16:46:00.122
42.0, 346.41197329573333, 4.42056174762547, 296.9480564817786, 40.64149281848222, -0.04800000227987766, -0.03200000151991844, 1.0400000493973494, 0.0, 0.0, 0.0, 0.0, 0.0, 1.7622063601226149E9, 0.0, 2025-11-03 16:46:00.122
43.0, 337.0136047070846, 3.0816775634884834, 293.1109191272408, 41.48297030851245, -0.04800000227987766, -0.03200000151991844, 1.0400000493973494, 0.0, 0.0, 0.0, 0.0, 0.0, 1.7622063601363115E9, 0.0, 2025-11-03 16:46:00.136
43.0, 271.11282758787274, -56.3602923322469, 238.14186957851052, -11.919061158783734, -0.04800000227987766, -0.03200000151991844, 1.0400000493973494, 0.0, 0.0, 0.0, 0.0, 0.0, 1.7622063601363115E9, 0.0, 2025-11-03 16:46:00.136
44.0, 300.3588452413678, -31.471258127130568, 263.85368177387863, 15.771158113144338, -0.04800000227987766, -0.03200000151991844, 1.0400000493973494, 0.0, 0.0, 0.0, 0.0, 0.0, 1.7622063601519024E9, 0.0, 2025-11-03 16:46:00.151
44.0, 349.59836805798113, 13.392581741325557, 312.6743357954547, 67.78194679692388, -0.04800000227987766, -0.03200000151991844, 1.0400000493973494, 0.0, 0.0, 0.0, 0.0, 0.0, 1.7622063601519024E9, 0.0, 2025-11-03 16:46:00.151
45.0, 247.14006887190044, -67.94650239497423, 230.81914546526968, -1.0284724878147244, -0.04800000227987766, -0.03200000151991844, 1.0400000493973494, 0.0, 0.0, 0.0, 0.0, 0.0, 1.762206360152635E9, 0.0, 2025-11-03 16:46:00.152
45.0, 265.96672524884343, -64.44595603644848, 238.00349328015, -15.737499013543129, -0.04800000227987766, -0.03200000151991844, 1.0400000493973494, 0.0, 0.0, 0.0, 0.0, 0.0, 1.762206360152635E9, 0.0, 2025-11-03 16:46:00.152
46.0, 361.7193838143721, 15.337329718284309, 313.0071868915111, 58.79870710335672, -0.04800000227987766, -0.03200000151991844, 1.0400000493973494, 0.0, 0.0, 0.0, 0.0, 0.0, 1.7622063601662543E9, 0.0, 2025-11-03 16:46:00.166
46.0, 283.56669444032013, -40.398399321362376, 255.97371256724, 7.431181211955845, -0.04800000227987766, -0.03200000151991844, 1.0400000493973494, 0.0, 0.0, 0.0, 0.0, 0.0, 1.7622063601662543E9, 0.0, 2025-11-03 16:46:00.166
47.0, 250.823870328255, -73.78074632585049, 222.05281996913254, -15.898314711637795, -0.04800000227987766, -0.03200000151991844, 1.0400000493973494, 0.0, 0.0, 0.0, 0.0, 0.0, 1.76220636018191E9, 0.0, 2025-11-03 16:46:00.181
47.0, 346.21375859808177, -2.984440164640546, 291.34942624811083, 47.81836083345115, -0.04800000227987766, -0.03200000151991844, 1.0400000493973494, 0.0, 0.0, 0.0, 0.0, 0.0, 1.76220636018191E9, 0.0, 2025-11-03 16:46:00.181
48.0, 321.5565981902182, -15.221392819657922, 278.9815770946443, 28.456898762844503, -0.04800000227987766, -0.03200000151991844, 1.0400000493973494, 0.0, 0.0, 0.0, 0.0, 0.0, 1.76220636018262E9, 0.0, 2025-11-03 16:46:00.182
48.0, 261.66584029980004, -65.1041784286499, 224.45383574068546, -21.7512581422925, -0.04800000227987766, -0.03200000151991844, 1.0400000493973494, 0.0, 0.0, 0.0, 0.0, 0.0, 1.76220636018262E9, 0.0, 2025-11-03 16:46:00.182
49.0, 296.89943778235465, -37.79168905224651, 259.784670622088, 16.5266179041937, -0.04800000227987766, -0.03200000151991844, 1.0400000493973494, 0.0, 0.0, 0.0, 0.0, 0.0, 1.7622063601962411E9, 0.0, 2025-11-03 16:46:00.196
49.0, 350.2378909504041, 7.980946505442262, 307.52823345642537, 61.955182665959, -0.04800000227987766, -0.03200000151991844, 1.0400000493973494, 0.0, 0.0, 0.0, 0.0, 0.0, 1.7622063601962411E9, 0.0, 2025-11-03 16:46:00.196
50.0, 278.8805997958407, -54.21732965763658, 230.31799887120724, -9.147795291617513, -0.04800000227987766, -0.03200000151991844, 1.0400000493973494, 0.0, 0.0, 0.0, 0.0, 0.0, 1.7622063602118957E9, 0.0, 2025-11-03 16:46:00.211
50.0, 266.2322581456974, -63.361385049298406, 227.0306268101558, -14.039584433659911, -0.04800000227987766, -0.03200000151991844, 1.0400000493973494, 0.0, 0.0, 0.0, 0.0, 0.0, 1.7622063602118957E9, 0.0, 2025-11-03 16:46:00.211
51.0, 347.92663277778774, 7.2254867143929005, 302.41579021699727, 54.70725655183196, -0.04800000227987766, -0.03200000151991844, 1.0400000493973494, 0.0, 0.0, 0.0, 0.0, 0.0, 1.7622063602126074E9, 0.0, 2025-11-03 16:46:00.212
51.0, 292.4751361347735, -34.87830698676407, 249.8178372401744, 4.629996145144105, -0.04800000227987766, -0.03200000151991844, 1.0400000493973494, 0.0, 0.0, 0.0, 0.0, 0.0, 1.7622063602126074E9, 0.0, 2025-11-03 16:46:00.212
52.0, 272.279676374048, -63.63813764601946, 231.57460525631905, -11.474013064056635, -0.04800000227987766, -0.03200000151991844, 1.0400000493973494, 0.0, 0.0, 0.0, 0.0, 0.0, 1.7622063602262418E9, 0.0, 2025-11-03 16:46:00.226
52.0, 327.2711653225124, -18.736898778006434, 284.59890682809055, 48.506502425298095, -0.04800000227987766, -0.03200000151991844, 1.0400000493973494, 0.0, 0.0, 0.0, 0.0, 0.0, 1.7622063602262418E9, 0.0, 2025-11-03 16:46:00.226
53.0, 325.6704881414771, -17.36809539422393, 276.6142204226926, 32.21549821831286, -0.04800000227987766, -0.03200000151991844, 1.0400000493973494, 0.0, 0.0, 0.0, 0.0, 0.0, 1.762206360241898E9, 0.0, 2025-11-03 16:46:00.241
53.0, 247.94414736237377, -84.88824919424951, 208.89959182497114, -35.30465558171272, -0.04800000227987766, -0.03200000151991844, 1.0400000493973494, 0.0, 0.0, 0.0, 0.0, 0.0, 1.762206360241898E9, 0.0, 2025-11-03 16:46:00.241
54.0, 300.20176944322884, -53.327233468182385, 242.8242243230343, 8.186641003005207, -0.04800000227987766, -0.03200000151991844, 1.0400000493973494, 0.0, 0.0, 0.0, 0.0, 0.0, 1.7622063602425964E9, 0.0, 2025-11-03 16:46:00.242
54.0, 324.91502835042775, -16.025471310131252, 283.8771061366424, 47.21997684054077, -0.04800000227987766, -0.03200000151991844, 1.0400000493973494, 0.0, 0.0, 0.0, 0.0, 0.0, 1.7622063602425964E9, 0.0, 2025-11-03 16:46:00.242
55.0, 248.44155405648053, -78.33968437183648, 217.52380112279207, -16.88564829993993, -0.04800000227987766, -0.03200000151991844, 1.0400000493973494, 0.0, 0.0, 0.0, 0.0, 0.0, 1.762206360256223E9, 0.0, 2025-11-03 16:46:00.256
55.0, 275.5707883350551, -66.07281251717359, 225.665563326329, -21.149134249426425, -0.04800000227987766, -0.03200000151991844, 1.0400000493973494, 0.0, 0.0, 0.0, 0.0, 0.0, 1.762206360256223E9, 0.0, 2025-11-03 16:46:00.256
56.0, 359.0266558462754, 4.547718346118927, 303.9977678982541, 57.01103492453694, -0.04800000227987766, -0.03200000151991844, 1.0400000493973494, 0.0, 0.0, 0.0, 0.0, 0.0, 1.7622063602719038E9, 0.0, 2025-11-03 16:46:00.271
56.0, 280.3129814788699, -51.767695186659694, 242.7830854235217, -0.5385455936193466, -0.04800000227987766, -0.03200000151991844, 1.0400000493973494, 0.0, 0.0, 0.0, 0.0, 0.0, 1.7622063602719038E9, 0.0, 2025-11-03 16:46:00.271
57.0, 263.65920697618276, -70.87110416032374, 224.50619434006512, -20.446033057756722, -0.04800000227987766, -0.03200000151991844, 1.0400000493973494, 0.0, 0.0, 0.0, 0.0, 0.0, 1.7622063602725956E9, 0.0, 2025-11-03 16:46:00.272
57.0, 315.08657126687467, -25.32660249993205, 273.70831815712154, 27.963231968693435, -0.04800000227987766, -0.03200000151991844, 1.0400000493973494, 0.0, 0.0, 0.0, 0.0, 0.0, 1.7622063602725956E9, 0.0, 2025-11-03 16:46:00.272
58.0, 320.62162320129573, -19.623255067504942, 278.3121350025758, 35.43181218020618, -0.04800000227987766, -0.03200000151991844, 1.0400000493973494, 0.0, 0.0, 0.0, 0.0, 0.0, 1.7622063602863543E9, 0.0, 2025-11-03 16:46:00.286
58.0, 259.9791454197839, -71.7387609500438, 225.4075102293864, -14.06950363330543, -0.04800000227987766, -0.03200000151991844, 1.0400000493973494, 0.0, 0.0, 0.0, 0.0, 0.0, 1.7622063602863543E9, 0.0, 2025-11-03 16:46:00.286
59.0, 303.46296220459044, -38.23673714697361, 261.5686029009521, 31.80784912314266, -0.04800000227987766, -0.03200000151991844, 1.0400000493973494, 0.0, 0.0, 0.0, 0.0, 0.0, 1.7622063603019917E9, 0.0, 2025-11-03 16:46:00.301
59.0, 355.2456169910729, 7.038491716608405, 302.0380603214726, 49.11610611807555, -0.04800000227987766, -0.03200000151991844, 1.0400000493973494, 0.0, 0.0, 0.0, 0.0, 0.0, 1.7622063603019917E9, 0.0, 2025-11-03 16:46:00.301
60.0, 275.5333893354982, -51.03467479534447, 235.23970721289515, -10.8569295713678, -0.04800000227987766, -0.03200000151991844, 1.0400000493973494, 0.0, 0.0, 0.0, 0.0, 0.0, 1.7622063603026628E9, 0.0, 2025-11-03 16:46:00.302
60.0, 274.33662134967744, -64.38985753711313, 224.81660603638738, -14.017145033925772, -0.04800000227987766, -0.03200000151991844, 1.0400000493973494, 0.0, 0.0, 0.0, 0.0, 0.0, 1.7622063603026628E9, 0.0, 2025-11-03 16:46:00.302
61.0, 362.34020720701665, 11.29449786618352, 303.5415001036599, 58.80992680322379, -0.04800000227987766, -0.01600000075995922, 1.0400000493973494, 0.0, 0.0, 0.0, 0.0, 0.0, 1.762206360316268E9, 0.0, 2025-11-03 16:46:00.316
61.0, 283.2001842446625, -47.01428234297782, 237.46868758648634, -9.544224686920643, -0.04800000227987766, -0.01600000075995922, 1.0400000493973494, 0.0, 0.0, 0.0, 0.0, 0.0, 1.762206360316268E9, 0.0, 2025-11-03 16:46:00.316
62.0, 261.123554806225, -76.97836078796536, 208.12917243409902, -32.439892215654254, -0.04800000227987766, -0.01600000075995922, 1.0400000493973494, 0.0, 0.0, 0.0, 0.0, 0.0, 1.7622063603482845E9, 0.0, 2025-11-03 16:46:00.348
62.0, 331.0447243778035, -20.09822236187756, 269.6841858047992, 25.259284300729632, -0.04800000227987766, -0.01600000075995922, 1.0400000493973494, 0.0, 0.0, 0.0, 0.0, 0.0, 1.7622063603482845E9, 0.0, 2025-11-03 16:46:00.348
63.0, 314.4844473740086, -29.687325848266482, 260.7533047106117, 17.517691392451525, -0.04800000227987766, -0.01600000075995922, 1.0400000493973494, 0.0, 0.0, 0.0, 0.0, 0.0, 1.7622063603489845E9, 0.0, 2025-11-03 16:46:00.348
63.0, 242.35673682857305, -88.44115415215492, 192.47021131962538, -54.24350895732641, -0.04800000227987766, -0.01600000075995922, 1.0400000493973494, 0.0, 0.0, 0.0, 0.0, 0.0, 1.7622063603489845E9, 0.0, 2025-11-03 16:46:00.348
64.0, 301.42471672873944, -44.890019168145955, 243.24683301802725, -1.3762831836938858, -0.04800000227987766, -0.01600000075995922, 1.0400000493973494, 0.0, 0.0, 0.0, 0.0, 0.0, 1.7622063603497438E9, 0.0, 2025-11-03 16:46:00.349
64.0, 352.36963392514735, 1.3014851845800877, 300.82259283587337, 50.04734120704234, -0.04800000227987766, -0.01600000075995922, 1.0400000493973494, 0.0, 0.0, 0.0, 0.0, 0.0, 1.7622063603497438E9, 0.0, 2025-11-03 16:46:00.349
65.0, 276.89845281932503, -62.82283945567906, 220.2576679904014, -24.731958406977355, -0.04800000227987766, -0.01600000075995922, 1.0400000493973494, 0.0, 0.0, 0.0, 0.0, 0.0, 1.7622063603504848E9, 0.0, 2025-11-03 16:46:00.350
