%OpenBCI Raw EXG Data
%Number of channels = 4
%Sample Rate = 200 Hz
%Board = OpenBCI_GUI$BoardGanglionBLE
Sample Index, EXG Channel 0, EXG Channel 1, EXG Channel 2, EXG Channel 3, Accel Channel 0, Accel Channel 1, Accel Channel 2, Other, Other, Other, Other, Other, Timestamp, Marker Channel, Timestamp (Formatted)
1.0, -29.608787949196994, -18.0450172862038, -13.545917639508843, -2.124263174831867, 0.0, -0.06400000303983688, 0.0, 0.0, 0.0, 0.0, 0.0, 0.0, 1.76220662261521E9, 0.0, 2025-11-03 16:50:22.615
1.0, 182.37435138924047, 20.95091955177486, 203.17941484274343, -44.127079577185214, 0.0, -0.06400000303983688, 0.0, 0.0, 0.0, 0.0, 0.0, 0.0, 1.76220662261521E9, 0.0, 2025-11-03 16:50:22.615
0.0, 322.37376633053645, -7.2666256139054894, 307.5170137565583, 61.356798673048615, 0.0, -0.06400000303983688, 0.0, 0.0, 0.0, 0.0, 0.0, 0.0, 1.762206622646853E9, 0.0, 2025-11-03 16:50:22.646
1.0, 289.03255822556093, -23.512751021422446, 288.30140778422356, 42.17485180031508, 0.0, -0.06400000303983688, 0.0, 0.0, 0.0, 0.0, 0.0, 0.0, 1.762206622660332E9, 0.0, 2025-11-03 16:50:22.660
1.0, 208.25819898257032, -94.88500177580863, 214.59919935744256, -32.70916501246393, 0.0, -0.06400000303983688, 0.0, 0.0, 0.0, 0.0, 0.0, 0.0, 1.762206622660332E9, 0.0, 2025-11-03 16:50:22.660
2.0, 269.2260480602272, -49.288141516037285, 259.39572102669626, 11.021485169418156, -0.04800000227987766, -0.06400000303983688, 0.0, 0.0, 0.0, 0.0, 0.0, 0.0, 1.7622066226771767E9, 0.0, 2025-11-03 16:50:22.677
2.0, 334.18811029056087, 12.229472855105996, 329.25705219898373, 76.84746428951621, -0.04800000227987766, -0.06400000303983688, 0.0, 0.0, 0.0, 0.0, 0.0, 0.0, 1.7622066226771767E9, 0.0, 2025-11-03 16:50:22.677
3.0, 210.28522475855425, -94.1183222848922, 211.68207739200443, -31.86394762247801, -0.04800000227987766, -0.06400000303983688, 0.0, 0.0, 0.0, 0.0, 0.0, 0.0, 1.7622066226777883E9, 0.0, 2025-11-03 16:50:22.677
3.0, 238.0203228299506, -73.37683713063598, 234.3309115236625, -10.89806847088039, -0.04800000227987766, -0.06400000303983688, 0.0, 0.0, 0.0, 0.0, 0.0, 0.0, 1.7622066226777883E9, 0.0, 2025-11-03 16:50:22.677
4.0, 345.27691365918145, 16.10026930924505, 331.9759594667703, 81.95616762898862, -0.04800000227987766, -0.06400000303983688, 0.0, 0.0, 0.0, 0.0, 0.0, 0.0, 1.7622066226901317E9, 0.0, 2025-11-03 16:50:22.690
4.0, 222.1930662174709, -87.82781055942178, 219.90237749461085, -21.33238934725523, -0.04800000227987766, -0.06400000303983688, 0.0, 0.0, 0.0, 0.0, 0.0, 0.0, 1.7622066226901317E9, 0.0, 2025-11-03 16:50:22.690
5.0, 195.38172343512997, -115.77234302833676, 190.55912244226784, -54.20237005781382, -0.04800000227987766, -0.06400000303983688, 0.0, 0.0, 0.0, 0.0, 0.0, 0.0, 1.7622066227058196E9, 0.0, 2025-11-03 16:50:22.705
5.0, 289.31679062219337, -35.85068097524345, 271.8383681792766, 23.33323582354933, -0.04800000227987766, -0.06400000303983688, 0.0, 0.0, 0.0, 0.0, 0.0, 0.0, 1.7622066227058196E9, 0.0, 2025-11-03 16:50:22.705
6.0, 272.1095109260641, -43.19958438817412, 262.088448994793, 22.248664836399257, -0.04800000227987766, -0.06400000303983688, 0.0, 0.0, 0.0, 0.0, 0.0, 0.0, 1.76220662270652E9, 0.0, 2025-11-03 16:50:22.706
6.0, 203.5646245381795, -109.14898020680994, 187.88135407399386, -55.376698643900454, -0.04800000227987766, -0.06400000303983688, 0.0, 0.0, 0.0, 0.0, 0.0, 0.0, 1.76220662270652E9, 0.0, 2025-11-03 16:50:22.706
7.0, 255.12662522727624, -68.89643698371947, 236.23078070115298, -8.07070410437882, -0.04800000227987766, -0.06400000303983688, 0.0, 0.0, 0.0, 0.0, 0.0, 0.0, 1.762206622720198E9, 0.0, 2025-11-03 16:50:22.720
7.0, 316.9808305944316, -4.2073874501511455, 306.53342006821185, 67.55381289962679, -0.04800000227987766, -0.06400000303983688, 0.0, 0.0, 0.0, 0.0, 0.0, 0.0, 1.762206622720198E9, 0.0, 2025-11-03 16:50:22.720
8.0, 199.21138098975644, -115.94811832625419, 185.1287877066061, -51.767695186659694, -0.04800000227987766, -0.06400000303983688, 0.0, 0.0, 0.0, 0.0, 0.0, 0.0, 1.762206622735868E9, 0.0, 2025-11-03 16:50:22.735
8.0, 200.5540050738491, -112.0922814719379, 192.44777191989124, -45.44352436158806, -0.04800000227987766, -0.06400000303983688, 0.0, 0.0, 0.0, 0.0, 0.0, 0.0, 1.762206622735868E9, 0.0, 2025-11-03 16:50:22.735
9.0, 319.03403567010537, -4.356983448378742, 309.67867593094707, 66.39818381331861, -0.04800000227987766, -0.06400000303983688, 0.0, 0.0, 0.0, 0.0, 0.0, 0.0, 1.762206622736552E9, 0.0, 2025-11-03 16:50:22.736
9.0, 237.25738323898986, -65.67638312187046, 241.05525164399296, -1.7427933793514967, -0.04800000227987766, -0.06400000303983688, 0.0, 0.0, 0.0, 0.0, 0.0, 0.0, 1.762206622736552E9, 0.0, 2025-11-03 16:50:22.736
10.0, 201.27954566525295, -105.13232765439898, 205.42148486617953, -36.834274663589895, -0.04800000227987766, -0.06400000303983688, 0.5280000250786543, 0.0, 0.0, 0.0, 0.0, 0.0, 1.7622066227501836E9, 0.0, 2025-11-03 16:50:22.750
10.0, 289.900215015281, -29.982777944765985, 282.8673331486061, 46.838507045060396, -0.04800000227987766, -0.06400000303983688, 0.5280000250786543, 0.0, 0.0, 0.0, 0.0, 0.0, 1.7622066227501836E9, 0.0, 2025-11-03 16:50:22.750
11.0, 255.56045362213627, -55.58987294137478, 252.35348941013217, 4.82821084279567, -0.04800000227987766, 0.01600000075995922, 0.5280000250786543, 0.0, 0.0, 0.0, 0.0, 0.0, 1.7622066227660336E9, 0.0, 2025-11-03 16:50:22.766
11.0, 190.78912628954276, -117.41041920892894, 184.5640628132969, -61.955182665959, -0.04800000227987766, 0.01600000075995922, 0.5280000250786543, 0.0, 0.0, 0.0, 0.0, 0.0, 1.7622066227660336E9, 0.0, 2025-11-03 16:50:22.766
12.0, 257.01901460485533, -59.15773749910295, 251.24273912329227, 12.89891494717449, -0.04800000227987766, 0.01600000075995922, 0.5280000250786543, 0.0, 0.0, 0.0, 0.0, 0.0, 1.7622066227665436E9, 0.0, 2025-11-03 16:50:22.766
12.0, 314.6583527219482, -5.871642930433154, 304.94770248699933, 56.3976913318038, -0.04800000227987766, 0.01600000075995922, 0.5280000250786543, 0.0, 0.0, 0.0, 0.0, 0.0, 1.7622066227665436E9, 0.0, 2025-11-03 16:50:22.766
13.0, 206.20499390689656, -102.94822608027607, 204.0265021827072, -46.26256245188415, -0.04800000227987766, 0.01600000075995922, 0.5280000250786543, 0.0, 0.0, 0.0, 0.0, 0.0, 1.7622066227801309E9, 0.0, 2025-11-03 16:50:22.780
13.0, 228.0160904484801, -85.18370129074901, 222.96909545827657, -25.629534396342933, -0.04800000227987766, 0.01600000075995922, 0.5280000250786543, 0.0, 0.0, 0.0, 0.0, 0.0, 1.7622066227801309E9, 0.0, 2025-11-03 16:50:22.780
14.0, 347.23288133600727, 22.10654863808304, 344.66544001642615, 92.49894560407847, -0.04800000227987766, 0.01600000075995922, 0.5280000250786543, 0.0, 0.0, 0.0, 0.0, 0.0, 1.7622066227958753E9, 0.0, 2025-11-03 16:50:22.795
14.0, 223.22527860524133, -78.47058087028563, 229.73083457816392, -16.590196203440428, -0.04800000227987766, 0.01600000075995922, 0.5280000250786543, 0.0, 0.0, 0.0, 0.0, 0.0, 1.7622066227958753E9, 0.0, 2025-11-03 16:50:22.795
15.0, 199.8583836820908, -109.02930340822786, 195.3200150858611, -50.054821006953716, -0.04800000227987766, 0.01600000075995922, 0.5280000250786543, 0.0, 0.0, 0.0, 0.0, 0.0, 1.7622066227965925E9, 0.0, 2025-11-03 16:50:22.796
15.0, 320.1709652566351, -5.2134205382317305, 304.9925812864676, 60.79207377973944, -0.04800000227987766, 0.01600000075995922, 0.5280000250786543, 0.0, 0.0, 0.0, 0.0, 0.0, 1.7622066227965925E9, 0.0, 2025-11-03 16:50:22.796
16.0, 290.3490030099638, -26.61312808468938, 285.5151823172346, 30.880353934131563, -0.04800000227987766, 0.01600000075995922, 0.5280000250786543, 0.0, 0.0, 0.0, 0.0, 0.0, 1.7622066228265872E9, 0.0, 2025-11-03 16:50:22.826
16.0, 203.3028315412812, -103.37457467522472, 202.8783528963104, -42.76949589326978, -0.04800000227987766, 0.01600000075995922, 0.5280000250786543, 0.0, 0.0, 0.0, 0.0, 0.0, 1.7622066228265872E9, 0.0, 2025-11-03 16:50:22.826
17.0, 277.42390876309946, -47.5042092371732, 250.53589803166687, 3.2088341619819403, -0.04800000227987766, 0.01600000075995922, 0.5280000250786543, 0.0, 0.0, 0.0, 0.0, 0.0, 1.7622066228272712E9, 0.0, 2025-11-03 16:50:22.827
17.0, 341.63799100229517, 15.771158113144338, 324.2979448577389, 79.34571745991707, -0.04800000227987766, 0.01600000075995922, 0.5280000250786543, 0.0, 0.0, 0.0, 0.0, 0.0, 1.7622066228272712E9, 0.0, 2025-11-03 16:50:22.827
18.0, 222.95600580843166, -92.4129279050976, 212.44127708300948, -23.987718315795064, -0.04800000227987766, 0.01600000075995922, 0.5280000250786543, 0.0, 0.0, 0.0, 0.0, 0.0, 1.7622066228279932E9, 0.0, 2025-11-03 16:50:22.827
18.0, 247.18681762134656, -75.56841850467026, 229.5214001806453, -12.663301249966025, -0.04800000227987766, 0.01600000075995922, 0.5280000250786543, 0.0, 0.0, 0.0, 0.0, 0.0, 1.7622066228279932E9, 0.0, 2025-11-03 16:50:22.827
19.0, 362.42435495601967, 30.884093834087253, 341.51644425373524, 94.27913798298687, -0.04800000227987766, 0.01600000075995922, 0.5280000250786543, 0.0, 0.0, 0.0, 0.0, 0.0, 1.7622066228401868E9, 0.0, 2025-11-03 16:50:22.840
19.0, 235.81752175604925, -79.85808375384659, 226.48834131658077, -20.45725275762379, -0.04800000227987766, 0.01600000075995922, 0.5280000250786543, 0.0, 0.0, 0.0, 0.0, 0.0, 1.7622066228401868E9, 0.0, 2025-11-03 16:50:22.840
20.0, 220.6036087363027, -97.88814144022763, 208.3535664314404, -35.349534381181, -0.04800000227987766, 0.01600000075995922, 0.7840000372380018, 0.0, 0.0, 0.0, 0.0, 0.0, 1.7622066228558497E9, 0.0, 2025-11-03 16:50:22.855
20.0, 313.1362134399824, -14.024624833837152, 296.7760210838169, 50.107179606333375, -0.04800000227987766, 0.01600000075995922, 0.7840000372380018, 0.0, 0.0, 0.0, 0.0, 0.0, 1.7622066228558497E9, 0.0, 2025-11-03 16:50:22.855
21.0, 273.7363674067892, -43.19958438817412, 270.9108729902655, 19.630734867416322, -0.04800000227987766, 0.01600000075995922, 0.7840000372380018, 0.0, 0.0, 0.0, 0.0, 0.0, 1.7622066228565736E9, 0.0, 2025-11-03 16:50:22.856
21.0, 208.79674457618967, -102.92578668054193, 210.01034211181104, -30.386687139980495, -0.04800000227987766, 0.01600000075995922, 0.7840000372380018, 0.0, 0.0, 0.0, 0.0, 0.0, 1.7622066228565736E9, 0.0, 2025-11-03 16:50:22.856
22.0, 263.9228699230589, -60.85191217903048, 253.87936859205365, 6.0960369277745485, -0.04800000227987766, 0.01600000075995922, 0.7840000372380018, 0.0, 0.0, 0.0, 0.0, 0.0, 1.7622066228701777E9, 0.0, 2025-11-03 16:50:22.870
22.0, 336.6639240612276, 7.782731807790697, 325.31519764568657, 75.04109261091799, -0.04800000227987766, 0.01600000075995922, 0.7840000372380018, 0.0, 0.0, 0.0, 0.0, 0.0, 1.7622066228701777E9, 0.0, 2025-11-03 16:50:22.870
23.0, 234.00741017749533, -75.26922650821507, 229.67473607882857, -18.48632548097521, -0.04800000227987766, 0.01600000075995922, 0.7840000372380018, 0.0, 0.0, 0.0, 0.0, 0.0, 1.7622066228859005E9, 0.0, 2025-11-03 16:50:22.885
23.0, 246.34908003127202, -70.56817226391286, 235.47532091010362, -17.614928791299462, -0.04800000227987766, 0.01600000075995922, 0.7840000372380018, 0.0, 0.0, 0.0, 0.0, 0.0, 1.7622066228859005E9, 0.0, 2025-11-03 16:50:22.885
24.0, 372.3350898385979, 42.477783696725965, 350.8624542430043, 92.71585980150849, -0.04800000227987766, 0.01600000075995922, 0.7840000372380018, 0.0, 0.0, 0.0, 0.0, 0.0, 1.762206622886586E9, 0.0, 2025-11-03 16:50:22.886
24.0, 254.37490533618256, -63.60073864646256, 238.2241473775357, -14.813743724487722, -0.04800000227987766, 0.01600000075995922, 0.7840000372380018, 0.0, 0.0, 0.0, 0.0, 0.0, 1.762206622886586E9, 0.0, 2025-11-03 16:50:22.886
25.0, 235.69410505751148, -87.82407065946609, 210.56384730525315, -32.94851860962808, -0.04800000227987766, 0.01600000075995922, 0.7840000372380018, 0.0, 0.0, 0.0, 0.0, 0.0, 1.7622066229001684E9, 0.0, 2025-11-03 16:50:22.900
25.0, 312.18253895128146, -22.738591730594635, 286.97000339999795, 34.90822618640959, -0.04800000227987766, 0.01600000075995922, 0.7840000372380018, 0.0, 0.0, 0.0, 0.0, 0.0, 1.7622066229001684E9, 0.0, 2025-11-03 16:50:22.900
26.0, 282.24089990602806, -49.18342431727797, 260.87672140914947, 10.636275473982096, -0.04800000227987766, 0.01600000075995922, 0.7840000372380018, 0.0, 0.0, 0.0, 0.0, 0.0, 1.7622066229159095E9, 0.0, 2025-11-03 16:50:22.915
26.0, 211.0070254500024, -113.32644845731556, 190.72741794027388, -54.74091565143317, -0.04800000227987766, 0.01600000075995922, 0.7840000372380018, 0.0, 0.0, 0.0, 0.0, 0.0, 1.7622066229159095E9, 0.0, 2025-11-03 16:50:22.915
27.0, 277.1583758662455, -55.46271634288132, 251.01460522599518, 0.8826163895428181, -0.04800000227987766, 0.01600000075995922, 0.7840000372380018, 0.0, 0.0, 0.0, 0.0, 0.0, 1.7622066229165833E9, 0.0, 2025-11-03 16:50:22.916
27.0, 330.04430113965645, -6.9038553182035685, 304.57371249143034, 57.51966131851077, -0.04800000227987766, 0.01600000075995922, 0.7840000372380018, 0.0, 0.0, 0.0, 0.0, 0.0, 1.7622066229165833E9, 0.0, 2025-11-03 16:50:22.916
28.0, 211.31369724636897, -106.11592134274542, 199.41146563738585, -39.15675253607333, -0.04800000227987766, 0.01600000075995922, 0.7840000372380018, 0.0, 0.0, 0.0, 0.0, 0.0, 1.7622066229302351E9, 0.0, 2025-11-03 16:50:22.930
28.0, 223.81992269819602, -98.87173512857407, 205.75059606228024, -38.24421694688499, -0.04800000227987766, 0.01600000075995922, 0.7840000372380018, 0.0, 0.0, 0.0, 0.0, 0.0, 1.7622066229302351E9, 0.0, 2025-11-03 16:50:22.930
29.0, 343.2611075830646, 10.673674473538995, 326.2352130347863, 85.17996139079332, -0.04800000227987766, 0.01600000075995922, 0.7840000372380018, 0.0, 0.0, 0.0, 0.0, 0.0, 1.762206622945901E9, 0.0, 2025-11-03 16:50:22.945
29.0, 229.18293923465535, -85.62874938547611, 225.26539403107017, -6.671981520950794, -0.04800000227987766, 0.01600000075995922, 0.7840000372380018, 0.0, 0.0, 0.0, 0.0, 0.0, 1.762206622945901E9, 0.0, 2025-11-03 16:50:22.945
30.0, 216.74029208207503, -101.71031919494271, 210.08140021096915, -22.15516733750701, -0.04800000227987766, 0.01600000075995922, 0.9120000433176756, 0.0, 0.0, 0.0, 0.0, 0.0, 1.7622066229465907E9, 0.0, 2025-11-03 16:50:22.946
30.0, 295.7568983458914, -27.00581758003682, 293.5372677221894, 56.64452472887933, -0.04800000227987766, 0.01600000075995922, 0.9120000433176756, 0.0, 0.0, 0.0, 0.0, 0.0, 1.7622066229465907E9, 0.0, 2025-11-03 16:50:22.946
31.0, 276.0738048790954, -41.93175830319524, 274.6058941464871, 27.80989607051015, -0.04800000227987766, 0.01600000075995922, 0.9120000433176756, 0.0, 0.0, 0.0, 0.0, 0.0, 1.7622066229602215E9, 0.0, 2025-11-03 16:50:22.960
31.0, 223.3823544033803, -93.31050389446318, 218.68317010905594, -21.033197350800037, -0.04800000227987766, 0.01600000075995922, 0.9120000433176756, 0.0, 0.0, 0.0, 0.0, 0.0, 1.7622066229602215E9, 0.0, 2025-11-03 16:50:22.960
32.0, 276.49641357408836, -44.70676407031715, 269.2466175099835, 23.647387419827282, -0.06400000303983688, 0.01600000075995922, 0.9120000433176756, 0.0, 0.0, 0.0, 0.0, 0.0, 1.7622066229758408E9, 0.0, 2025-11-03 16:50:22.975
32.0, 341.3275793059729, 20.685386654920876, 337.11084210593253, 83.50448621064425, -0.06400000303983688, 0.01600000075995922, 0.9120000433176756, 0.0, 0.0, 0.0, 0.0, 0.0, 1.7622066229758408E9, 0.0, 2025-11-03 16:50:22.975
33.0, 216.66549408296123, -94.16320108436048, 216.65240443311632, -27.151673678308725, -0.06400000303983688, 0.01600000075995922, 0.9120000433176756, 0.0, 0.0, 0.0, 0.0, 0.0, 1.7622066229765415E9, 0.0, 2025-11-03 16:50:22.976
33.0, 241.00850289454684, -80.3367909481749, 224.1471639443189, -22.435659834183753, -0.06400000303983688, 0.01600000075995922, 0.9120000433176756, 0.0, 0.0, 0.0, 0.0, 0.0, 1.7622066229765415E9, 0.0, 2025-11-03 16:50:22.976
34.0, 349.01307371491566, 16.578976503573358, 328.17996101174504, 72.19876864459366, -0.06400000303983688, 0.01600000075995922, 0.9120000433176756, 0.0, 0.0, 0.0, 0.0, 0.0, 1.7622066229903178E9, 0.0, 2025-11-03 16:50:22.990
34.0, 237.33592113805935, -75.99476709961891, 231.9224159521982, -16.339622906409204, -0.06400000303983688, 0.01600000075995922, 0.9120000433176756, 0.0, 0.0, 0.0, 0.0, 0.0, 1.7622066229903178E9, 0.0, 2025-11-03 16:50:22.990
35.0, 225.69735247595236, -89.6715812375769, 210.56010740529746, -39.669118830002844, -0.06400000303983688, 0.01600000075995922, 0.9120000433176756, 0.0, 0.0, 0.0, 0.0, 0.0, 1.76220662300586E9, 0.0, 2025-11-03 16:50:23.005
35.0, 332.07880671555176, 2.0793843753635883, 313.635490084067, 65.49312802404165, -0.06400000303983688, 0.01600000075995922, 0.9120000433176756, 0.0, 0.0, 0.0, 0.0, 0.0, 1.76220662300586E9, 0.0, 2025-11-03 16:50:23.005
36.0, 290.58087680721655, -30.764417035505176, 282.15301225706935, 33.01209690887481, -0.06400000303983688, 0.01600000075995922, 0.9120000433176756, 0.0, 0.0, 0.0, 0.0, 0.0, 1.7622066230065641E9, 0.0, 2025-11-03 16:50:23.006
36.0, 204.02837213268504, -108.5356366140768, 199.2843090388924, -42.025255802087486, -0.06400000303983688, 0.01600000075995922, 0.9120000433176756, 0.0, 0.0, 0.0, 0.0, 0.0, 1.7622066230065641E9, 0.0, 2025-11-03 16:50:23.006
37.0, 251.99632896436378, -74.5549056166783, 236.58233129698783, -2.4458945710211992, -0.06400000303983688, 0.01600000075995922, 0.9120000433176756, 0.0, 0.0, 0.0, 0.0, 0.0, 1.76220662302023E9, 0.0, 2025-11-03 16:50:23.020
37.0, 320.04754855809733, -12.693220449611545, 300.0222542453557, 60.593859082087874, -0.06400000303983688, 0.01600000075995922, 0.9120000433176756, 0.0, 0.0, 0.0, 0.0, 0.0, 1.76220662302023E9, 0.0, 2025-11-03 16:50:23.020
38.0, 203.49730633897707, -106.3851941395551, 197.43305856082588, -38.18437854759395, -0.06400000303983688, 0.01600000075995922, 0.9120000433176756, 0.0, 0.0, 0.0, 0.0, 0.0, 1.7622066230359128E9, 0.0, 2025-11-03 16:50:23.035
38.0, 211.25759874703363, -110.99649078492075, 196.85337406769395, -40.480677120387554, -0.06400000303983688, 0.01600000075995922, 0.9120000433176756, 0.0, 0.0, 0.0, 0.0, 0.0, 1.7622066230359128E9, 0.0, 2025-11-03 16:50:23.035
39.0, 303.3488952559419, -32.9036398101598, 282.2165905563161, 40.061808325350285, -0.06400000303983688, 0.01600000075995922, 0.9120000433176756, 0.0, 0.0, 0.0, 0.0, 0.0, 1.762206623036548E9, 0.0, 2025-11-03 16:50:23.036
39.0, 242.06689458200708, -76.02094639930874, 234.79465911816806, -2.539392069913447, -0.06400000303983688, 0.01600000075995922, 0.9120000433176756, 0.0, 0.0, 0.0, 0.0, 0.0, 1.762206623036548E9, 0.0, 2025-11-03 16:50:23.036
40.0, 229.7588838278316, -90.84216992370784, 224.40895694121718, -10.916767970658839, -0.06400000303983688, 0.01600000075995922, 0.9760000463575125, 0.0, 0.0, 0.0, 0.0, 0.0, 1.7622066230502012E9, 0.0, 2025-11-03 16:50:23.050
40.0, 270.9950207392685, -55.17848394624889, 265.67127315234393, 29.84440164640546, -0.06400000303983688, 0.01600000075995922, 0.9760000463575125, 0.0, 0.0, 0.0, 0.0, 0.0, 1.7622066230502012E9, 0.0, 2025-11-03 16:50:23.050
41.0, 273.3661173111759, -44.14577907696366, 276.3449476258829, 35.92921887431294, -0.06400000303983688, 0.03200000151991844, 0.9760000463575125, 0.0, 0.0, 0.0, 0.0, 0.0, 1.7622066230661552E9, 0.0, 2025-11-03 16:50:23.066
41.0, 223.7563443989493, -89.96329343412071, 217.886571418494, -21.152874149382114, -0.06400000303983688, 0.03200000151991844, 0.9760000463575125, 0.0, 0.0, 0.0, 0.0, 0.0, 1.7622066230661552E9, 0.0, 2025-11-03 16:50:23.066
42.0, 265.7367214015685, -54.583839853294194, 251.3736356217414, -1.5894574811682105, -0.06400000303983688, 0.03200000151991844, 0.9760000463575125, 0.0, 0.0, 0.0, 0.0, 0.0, 1.7622066230665681E9, 0.0, 2025-11-03 16:50:23.066
42.0, 322.74775632610545, 0.2655328968539834, 312.16570940148085, 61.61859166994691, -0.06400000303983688, 0.03200000151991844, 0.9760000463575125, 0.0, 0.0, 0.0, 0.0, 0.0, 1.7622066230665681E9, 0.0, 2025-11-03 16:50:23.066
43.0, 242.4259249777533, -75.41882250644267, 226.0657326215878, -23.153720625676215, -0.06400000303983688, 0.03200000151991844, 0.9760000463575125, 0.0, 0.0, 0.0, 0.0, 0.0, 1.7622066230802612E9, 0.0, 2025-11-03 16:50:23.080
43.0, 251.81681376649067, -66.48794141225517, 238.02593267988414, -16.96418619900942, -0.06400000303983688, 0.03200000151991844, 0.9760000463575125, 0.0, 0.0, 0.0, 0.0, 0.0, 1.7622066230802612E9, 0.0, 2025-11-03 16:50:23.080
44.0, 334.30778708914295, 4.188687950372696, 309.6375370314345, 58.08438621181995, -0.06400000303983688, 0.03200000151991844, 0.9760000463575125, 0.0, 0.0, 0.0, 0.0, 0.0, 1.7622066230958517E9, 0.0, 2025-11-03 16:50:23.095
44.0, 277.1920349658467, -46.67395144701004, 261.37038820330054, 12.113535956479609, -0.06400000303983688, 0.03200000151991844, 0.9760000463575125, 0.0, 0.0, 0.0, 0.0, 0.0, 1.7622066230958517E9, 0.0, 2025-11-03 16:50:23.095
45.0, 237.87820663163438, -83.11927651520818, 218.56723321042955, -29.115121155045927, -0.06400000303983688, 0.03200000151991844, 0.9760000463575125, 0.0, 0.0, 0.0, 0.0, 0.0, 1.762206623096562E9, 0.0, 2025-11-03 16:50:23.096
45.0, 288.9727198262699, -35.85442087519914, 272.48163097165525, 22.652574031613767, -0.06400000303983688, 0.03200000151991844, 0.9760000463575125, 0.0, 0.0, 0.0, 0.0, 0.0, 1.762206623096562E9, 0.0, 2025-11-03 16:50:23.096
46.0, 292.65652128262445, -33.11681410763413, 278.7571830973029, 27.40972677525133, -0.06400000303983688, 0.03200000151991844, 0.9760000463575125, 0.0, 0.0, 0.0, 0.0, 0.0, 1.762206623110188E9, 0.0, 2025-11-03 16:50:23.110
46.0, 217.81364336935803, -96.15282786078751, 210.52644830569625, -35.44303188007325, -0.06400000303983688, 0.03200000151991844, 0.9760000463575125, 0.0, 0.0, 0.0, 0.0, 0.0, 1.762206623110188E9, 0.0, 2025-11-03 16:50:23.110
47.0, 260.68037666147575, -60.28344738576561, 250.70419352967292, 4.330804148688912, -0.06400000303983688, 0.03200000151991844, 0.9760000463575125, 0.0, 0.0, 0.0, 0.0, 0.0, 1.7622066231259308E9, 0.0, 2025-11-03 16:50:23.125
47.0, 310.80999566754326, -13.957306634634733, 299.8165597477928, 44.78530196938664, -0.06400000303983688, 0.03200000151991844, 0.9760000463575125, 0.0, 0.0, 0.0, 0.0, 0.0, 1.7622066231259308E9, 0.0, 2025-11-03 16:50:23.125
48.0, 226.18353947019204, -89.86979593522847, 223.45528245251626, -16.620115403085947, -0.06400000303983688, 0.03200000151991844, 0.9760000463575125, 0.0, 0.0, 0.0, 0.0, 0.0, 1.7622066231270802E9, 0.0, 2025-11-03 16:50:23.127
48.0, 229.29139633337036, -94.27913798298687, 209.79342791438103, -40.56295491941273, -0.06400000303983688, 0.03200000151991844, 0.9760000463575125, 0.0, 0.0, 0.0, 0.0, 0.0, 1.7622066231270802E9, 0.0, 2025-11-03 16:50:23.127
49.0, 320.7730891495012, -13.018591745756567, 297.67359707318246, 41.76346280518919, -0.06400000303983688, 0.03200000151991844, 0.9760000463575125, 0.0, 0.0, 0.0, 0.0, 0.0, 1.7622066231401694E9, 0.0, 2025-11-03 16:50:23.140
49.0, 270.16476294910535, -51.734036087058485, 259.6500342236832, 13.538437839597464, -0.06400000303983688, 0.03200000151991844, 0.9760000463575125, 0.0, 0.0, 0.0, 0.0, 0.0, 1.7622066231401694E9, 0.0, 2025-11-03 16:50:23.140
50.0, 258.49253518739715, -63.09585215244442, 248.31813735794276, 1.5931973811239004, -0.06400000303983688, 0.03200000151991844, 1.008000047877431, 0.0, 0.0, 0.0, 0.0, 0.0, 1.7622066231558487E9, 0.0, 2025-11-03 16:50:23.155
50.0, 293.7448321697302, -33.33372830506414, 287.67684449162334, 40.51807611994445, -0.06400000303983688, 0.03200000151991844, 1.008000047877431, 0.0, 0.0, 0.0, 0.0, 0.0, 1.7622066231558487E9, 0.0, 2025-11-03 16:50:23.155
51.0, 281.4443012154661, -37.32794145774096, 280.866486672312, 28.658853360451758, -0.06400000303983688, 0.03200000151991844, 1.008000047877431, 0.0, 0.0, 0.0, 0.0, 0.0, 1.7622066231565428E9, 0.0, 2025-11-03 16:50:23.156
51.0, 233.52870298316702, -82.12446312699467, 224.89514393545687, -26.18677948974073, -0.06400000303983688, 0.03200000151991844, 1.008000047877431, 0.0, 0.0, 0.0, 0.0, 0.0, 1.7622066231565428E9, 0.0, 2025-11-03 16:50:23.156
52.0, 267.80114617710933, -53.82464016228914, 247.8169907638803, -1.4660407826304436, -0.06400000303983688, 0.03200000151991844, 1.008000047877431, 0.0, 0.0, 0.0, 0.0, 0.0, 1.7622066231702554E9, 0.0, 2025-11-03 16:50:23.170
52.0, 332.1797840143554, 4.2073874501511455, 312.670595895499, 58.907164202071726, -0.06400000303983688, 0.03200000151991844, 1.008000047877431, 0.0, 0.0, 0.0, 0.0, 0.0, 1.7622066231702554E9, 0.0, 2025-11-03 16:50:23.170
53.0, 242.19779108045623, -75.80777210183442, 226.64541711471975, -30.663439736701548, -0.06400000303983688, 0.03200000151991844, 1.008000047877431, 0.0, 0.0, 0.0, 0.0, 0.0, 1.7622066231859448E9, 0.0, 2025-11-03 16:50:23.185
53.0, 244.44921085378155, -75.63199680391699, 226.09939172118902, -25.32660249993205, -0.06400000303983688, 0.03200000151991844, 1.008000047877431, 0.0, 0.0, 0.0, 0.0, 0.0, 1.7622066231859448E9, 0.0, 2025-11-03 16:50:23.185
54.0, 330.71748313168064, -3.9194151535630226, 301.4434162285179, 44.074720977805555, -0.06400000303983688, 0.03200000151991844, 1.008000047877431, 0.0, 0.0, 0.0, 0.0, 0.0, 1.7622066231865723E9, 0.0, 2025-11-03 16:50:23.186
54.0, 258.53741398686543, -62.92381675448269, 242.5175525266677, -6.589703721925616, -0.06400000303983688, 0.03200000151991844, 1.008000047877431, 0.0, 0.0, 0.0, 0.0, 0.0, 1.7622066231865723E9, 0.0, 2025-11-03 16:50:23.186
55.0, 231.2398842102848, -90.80103102419525, 209.49797581788152, -43.304301586933434, -0.06400000303983688, 0.03200000151991844, 1.008000047877431, 0.0, 0.0, 0.0, 0.0, 0.0, 1.7622066232001894E9, 0.0, 2025-11-03 16:50:23.200
55.0, 294.6498879590072, -31.216944930143654, 274.2468637507409, 22.345902235247195, -0.06400000303983688, 0.03200000151991844, 1.008000047877431, 0.0, 0.0, 0.0, 0.0, 0.0, 1.7622066232001894E9, 0.0, 2025-11-03 16:50:23.200
56.0, 291.24657899932936, -24.58236240874976, 290.7622619550675, 41.74102340545505, -0.06400000303983688, 0.03200000151991844, 1.008000047877431, 0.0, 0.0, 0.0, 0.0, 0.0, 1.762206623215828E9, 0.0, 2025-11-03 16:50:23.215
56.0, 234.32530167372897, -78.57903796900064, 229.04269298631698, -12.539884551428258, -0.06400000303983688, 0.03200000151991844, 1.008000047877431, 0.0, 0.0, 0.0, 0.0, 0.0, 1.762206623215828E9, 0.0, 2025-11-03 16:50:23.215
57.0, 254.03831434017047, -68.1447170926258, 244.46604040358216, 0.5422854935750365, -0.06400000303983688, 0.03200000151991844, 1.008000047877431, 0.0, 0.0, 0.0, 0.0, 0.0, 1.7622066232165768E9, 0.0, 2025-11-03 16:50:23.216
57.0, 318.0691414815374, -9.173974591307342, 302.8757979115471, 51.25532889273018, -0.06400000303983688, 0.03200000151991844, 1.008000047877431, 0.0, 0.0, 0.0, 0.0, 0.0, 1.7622066232165768E9, 0.0, 2025-11-03 16:50:23.216
58.0, 234.16822587559, -85.06776439212263, 224.37529784161597, -15.759938413277268, -0.06400000303983688, 0.03200000151991844, 1.008000047877431, 0.0, 0.0, 0.0, 0.0, 0.0, 1.762206623230297E9, 0.0, 2025-11-03 16:50:23.230
58.0, 240.30540170287713, -78.82961126603186, 228.82951868884265, -13.534697939641774, -0.06400000303983688, 0.03200000151991844, 1.008000047877431, 0.0, 0.0, 0.0, 0.0, 0.0, 1.762206623230297E9, 0.0, 2025-11-03 16:50:23.230
59.0, 315.6943050096743, -17.136221596971154, 302.5429468154907, 59.09041929990053, -0.06400000303983688, 0.03200000151991844, 1.008000047877431, 0.0, 0.0, 0.0, 0.0, 0.0, 1.7622066232458577E9, 0.0, 2025-11-03 16:50:23.245
59.0, 244.0640011583455, -73.78074632585049, 236.15598270203918, -7.311504413373768, -0.06400000303983688, 0.03200000151991844, 1.008000047877431, 0.0, 0.0, 0.0, 0.0, 0.0, 1.7622066232458577E9, 0.0, 2025-11-03 16:50:23.245
60.0, 218.99545175535604, -96.72877245396376, 214.04195426404476, -19.215605972334743, -0.06400000303983688, 0.03200000151991844, 1.0240000486373901, 0.0, 0.0, 0.0, 0.0, 0.0, 1.7622066232465732E9, 0.0, 2025-11-03 16:50:23.246
60.0, 286.05933776078746, -41.16133891232312, 268.5659557180479, 24.60854170843959, -0.06400000303983688, 0.03200000151991844, 1.0240000486373901, 0.0, 0.0, 0.0, 0.0, 0.0, 1.7622066232465732E9, 0.0, 2025-11-03 16:50:23.246
61.0, 275.6212769844569, -46.3186609512195, 263.9845782723278, 11.451573664322495, -0.06400000303983688, 0.03200000151991844, 1.0240000486373901, 0.0, 0.0, 0.0, 0.0, 0.0, 1.762206623260517E9, 0.0, 2025-11-03 16:50:23.260
61.0, 229.11562103545293, -85.99525958113372, 219.64806429762393, -28.99170445650816, -0.06400000303983688, 0.03200000151991844, 1.0240000486373901, 0.0, 0.0, 0.0, 0.0, 0.0, 1.762206623260517E9, 0.0, 2025-11-03 16:50:23.260
62.0, 259.5509268748574, -71.43582905363292, 233.72130783088505, -17.543870692141354, -0.06400000303983688, 0.03200000151991844, 1.0240000486373901, 0.0, 0.0, 0.0, 0.0, 0.0, 1.762206623275851E9, 0.0, 2025-11-03 16:50:23.275
62.0, 323.3536201189272, -11.070103868842125, 295.9644627934322, 45.92223155591637, -0.06400000303983688, 0.03200000151991844, 1.0240000486373901, 0.0, 0.0, 0.0, 0.0, 0.0, 1.762206623275851E9, 0.0, 2025-11-03 16:50:23.275
63.0, 233.82789497962222, -87.71187366079539, 215.89694464206696, -36.404186168685555, -0.06400000303983688, 0.03200000151991844, 1.0240000486373901, 0.0, 0.0, 0.0, 0.0, 0.0, 1.762206623276538E9, 0.0, 2025-11-03 16:50:23.276
63.0, 236.64029974630103, -86.38794907648116, 218.31665991339833, -21.983131939545274, -0.06400000303983688, 0.03200000151991844, 1.0240000486373901, 0.0, 0.0, 0.0, 0.0, 0.0, 1.762206623276538E9, 0.0, 2025-11-03 16:50:23.276
64.0, 326.3268405837007, -5.093743739649653, 305.2618540832773, 55.25702184531838, -0.06400000303983688, 0.03200000151991844, 1.0240000486373901, 0.0, 0.0, 0.0, 0.0, 0.0, 1.762206623290389E9, 0.0, 2025-11-03 16:50:23.290
64.0, 262.24365484295413, -57.05217382404953, 246.42948788031936, -3.870796454139054, -0.06400000303983688, 0.03200000151991844, 1.0240000486373901, 0.0, 0.0, 0.0, 0.0, 0.0, 1.762206623290389E9, 0.0, 2025-11-03 16:50:23.290
65.0, 237.2386837392114, -80.47516724653542, 224.49871454015374, -12.928834146820009, -0.06400000303983688, 0.03200000151991844, 1.0240000486373901, 0.0, 0.0, 0.0, 0.0, 0.0, 1.7622066233058836E9, 0.0, 2025-11-03 16:50:23.305
65.0, 299.9717655959539, -23.30331662390381, 287.2130968971178, 45.46970366127789, -0.06400000303983688, 0.03200000151991844, 1.0240000486373901, 0.0, 0.0, 0.0, 0.0, 0.0, 1.7622066233058836E9, 0.0, 2025-11-03 16:50:23.305
66.0, 295.25949165178463, -29.186179254204035, 281.5695878639817, 37.50745665561408, -0.06400000303983688, 0.03200000151991844, 1.0240000486373901, 0.0, 0.0, 0.0, 0.0, 0.0, 1.7622066233065596E9, 0.0, 2025-11-03 16:50:23.306
66.0, 244.92417814815417, -71.97437464725226, 235.68849520757794, -3.059238163754344, -0.06400000303983688, 0.03200000151991844, 1.0240000486373901, 0.0, 0.0, 0.0, 0.0, 0.0, 1.7622066233065596E9, 0.0, 2025-11-03 16:50:23.306
67.0, 253.59326624544337, -60.578899482265115, 251.42973412107676, 6.45506732352078, -0.06400000303983688, 0.03200000151991844, 1.0240000486373901, 0.0, 0.0, 0.0, 0.0, 0.0, 1.762206623320158E9, 0.0, 2025-11-03 16:50:23.320
67.0, 315.6905651097186, -7.805171207524836, 305.19453588407487, 58.35365900862962, -0.06400000303983688, 0.03200000151991844, 1.0240000486373901, 0.0, 0.0, 0.0, 0.0, 0.0, 1.762206623320158E9, 0.0, 2025-11-03 16:50:23.320
68.0, 235.39865296101198, -75.69557510316372, 231.86257755290717, -13.69177373778075, -0.06400000303983688, 0.03200000151991844, 1.0240000486373901, 0.0, 0.0, 0.0, 0.0, 0.0, 1.762206623335893E9, 0.0, 2025-11-03 16:50:23.335
68.0, 241.08704079361632, -71.3685108544305, 232.75641364231706, -17.181100396439433, -0.06400000303983688, 0.03200000151991844, 1.0240000486373901, 0.0, 0.0, 0.0, 0.0, 0.0, 1.762206623335893E9, 0.0, 2025-11-03 16:50:23.335
69.0, 316.15805260417983, -12.248172354884446, 298.1410845676437, 49.00016921944916, -0.06400000303983688, 0.03200000151991844, 1.0240000486373901, 0.0, 0.0, 0.0, 0.0, 0.0, 1.7622066233365903E9, 0.0, 2025-11-03 16:50:23.336
69.0, 235.92971875471994, -81.63827613275498, 224.4388761408627, -21.7512581422925, -0.06400000303983688, 0.03200000151991844, 1.0240000486373901, 0.0, 0.0, 0.0, 0.0, 0.0, 1.7622066233365903E9, 0.0, 2025-11-03 16:50:23.336
70.0, 217.94453986780718, -108.41595981549472, 198.12120015267283, -55.85166593827307, -0.06400000303983688, 0.03200000151991844, 1.0400000493973494, 0.0, 0.0, 0.0, 0.0, 0.0, 1.7622066233501859E9, 0.0, 2025-11-03 16:50:23.350
70.0, 297.32391642732546, -35.07278178445995, 271.5391761828214, 18.740638677962124, -0.06400000303983688, 0.03200000151991844, 1.0400000493973494, 0.0, 0.0, 0.0, 0.0, 0.0, 1.7622066233501859E9, 0.0, 2025-11-03 16:50:23.350
71.0, 293.6326351710595, -28.96552515681833, 277.7661096090451, 35.54026927892119, -0.06400000303983688, 0.03200000151991844, 1.0400000493973494, 0.0, 0.0, 0.0, 0.0, 0.0, 1.7622066233823304E9, 0.0, 2025-11-03 16:50:23.382
71.0, 232.3169753975235, -84.95930729340762, 216.08393963985145, -38.95105803851038, -0.06400000303983688, 0.03200000151991844, 1.0400000493973494, 0.0, 0.0, 0.0, 0.0, 0.0, 1.7622066233823304E9, 0.0, 2025-11-03 16:50:23.382
72.0, 260.52704076329246, -58.25268170982599, 242.61105002555996, -2.251419773325324, -0.06400000303983688, 0.03200000151991844, 1.0400000493973494, 0.0, 0.0, 0.0, 0.0, 0.0, 1.7622066233829472E9, 0.0, 2025-11-03 16:50:23.382
72.0, 313.7906959322281, -13.029811445623636, 292.93888372927904, 48.072674030438066, -0.06400000303983688, 0.03200000151991844, 1.0400000493973494, 0.0, 0.0, 0.0, 0.0, 0.0, 1.7622066233829472E9, 0.0, 2025-11-03 16:50:23.382
73.0, 228.6780527406372, -88.77774514816701, 214.85725245438516, -25.655713696032763, -0.06400000303983688, 0.03200000151991844, 1.0400000493973494, 0.0, 0.0, 0.0, 0.0, 0.0, 1.7622066233836837E9, 0.0, 2025-11-03 16:50:23.383
73.0, 237.60519393486902, -83.39976901188493, 220.15295079164207, -17.27459789533168, -0.06400000303983688, 0.03200000151991844, 1.0400000493973494, 0.0, 0.0, 0.0, 0.0, 0.0, 1.7622066233836837E9, 0.0, 2025-11-03 16:50:23.383
74.0, 332.71832960797474, -0.14585609827190638, 307.2963596591726, 68.8104192847386, -0.06400000303983688, 0.03200000151991844, 1.0400000493973494, 0.0, 0.0, 0.0, 0.0, 0.0, 1.7622066233844202E9, 0.0, 2025-11-03 16:50:23.384
74.0, 248.9557903003879, -67.20974210370332, 233.7811462301761, -12.521185051649809, -0.06400000303983688, 0.03200000151991844, 1.0400000493973494, 0.0, 0.0, 0.0, 0.0, 0.0, 1.7622066233844202E9, 0.0, 2025-11-03 16:50:23.384
75.0, 220.76816433435306, -95.81997676473111, 208.96317012421787, -35.630026877857745, -0.06400000303983688, 0.03200000151991844, 1.0400000493973494, 0.0, 0.0, 0.0, 0.0, 0.0, 1.7622066233952832E9, 0.0, 2025-11-03 16:50:23.395
75.0, 290.6294955066405, -34.829688287340105, 275.9036394311115, 32.821362011134624, -0.06400000303983688, 0.03200000151991844, 1.0400000493973494, 0.0, 0.0, 0.0, 0.0, 0.0, 1.7622066233952832E9, 0.0, 2025-11-03 16:50:23.395
76.0, 285.1468021715991, -33.13551360741258, 277.9082258073613, 38.16941894777119, -0.06400000303983688, 0.03200000151991844, 1.0400000493973494, 0.0, 0.0, 0.0, 0.0, 0.0, 1.762206623410232E9, 0.0, 2025-11-03 16:50:23.410
76.0, 220.31563643971458, -94.43995368108153, 203.10648679360747, -38.62194684240967, -0.06400000303983688, 0.03200000151991844, 1.0400000493973494, 0.0, 0.0, 0.0, 0.0, 0.0, 1.762206623410232E9, 0.0, 2025-11-03 16:50:23.410
77.0, 250.44053058279678, -74.55116571672261, 236.53745249751955, -6.279292025603354, -0.06400000303983688, 0.03200000151991844, 1.0400000493973494, 0.0, 0.0, 0.0, 0.0, 0.0, 1.7622066234258811E9, 0.0, 2025-11-03 16:50:23.425
77.0, 308.1733661987819, -19.35398227069527, 293.27173482533544, 47.717383534647524, -0.06400000303983688, 0.03200000151991844, 1.0400000493973494, 0.0, 0.0, 0.0, 0.0, 0.0, 1.7622066234258811E9, 0.0, 2025-11-03 16:50:23.425
78.0, 232.73958409251645, -81.23062703758478, 225.02604043390602, -12.50248555187136, -0.06400000303983688, 0.03200000151991844, 1.0400000493973494, 0.0, 0.0, 0.0, 0.0, 0.0, 1.7622066234265914E9, 0.0, 2025-11-03 16:50:23.426
78.0, 231.5353363067843, -89.50702563952655, 224.326679142192, -20.745225054211915, -0.06400000303983688, 0.03200000151991844, 1.0400000493973494, 0.0, 0.0, 0.0, 0.0, 0.0, 1.7622066234265914E9, 0.0, 2025-11-03 16:50:23.426
79.0, 300.0465635950677, -28.397060363553464, 287.5496878931299, 42.481523596681654, -0.06400000303983688, 0.03200000151991844, 1.0400000493973494, 0.0, 0.0, 0.0, 0.0, 0.0, 1.7622066234566007E9, 0.0, 2025-11-03 16:50:23.456
79.0, 251.01273527601734, -60.42930348403752, 248.25829895865172, 2.6328895688056946, -0.06400000303983688, 0.03200000151991844, 1.0400000493973494, 0.0, 0.0, 0.0, 0.0, 0.0, 1.7622066234566007E9, 0.0, 2025-11-03 16:50:23.456
80.0, 238.55138862365857, -75.89752970077097, 226.65289691463113, -22.53663713298738, -0.06400000303983688, 0.03200000151991844, 1.0400000493973494, 0.0, 0.0, 0.0, 0.0, 0.0, 1.7622066234573276E9, 0.0, 2025-11-03 16:50:23.457
80.0, 285.0720041724853, -37.69445165339857, 268.66693301685154, 20.303916859440506, -0.06400000303983688, 0.03200000151991844, 1.0400000493973494, 0.0, 0.0, 0.0, 0.0, 0.0, 1.7622066234573276E9, 0.0, 2025-11-03 16:50:23.457
81.0, 281.02543242042884, -39.669118830002844, 262.6868329877034, 16.268564807251096, -0.06400000303983688, 0.03200000151991844, 1.0400000493973494, 0.0, 0.0, 0.0, 0.0, 0.0, 1.7622066234581263E9, 0.0, 2025-11-03 16:50:23.458
81.0, 235.54824895923957, -81.94120802916586, 218.40641751233488, -24.59732200857252, -0.06400000303983688, 0.03200000151991844, 1.0400000493973494, 0.0, 0.0, 0.0, 0.0, 0.0, 1.7622066234581263E9, 0.0, 2025-11-03 16:50:23.458
82.0, 272.1431700256653, -49.56115421280265, 252.02063831407577, 8.676567897200584, -0.06400000303983688, 0.03200000151991844, 1.0400000493973494, 0.0, 0.0, 0.0, 0.0, 0.0, 1.762206623470268E9, 0.0, 2025-11-03 16:50:23.470
82.0, 319.88673286000267, -3.541685258038342, 299.5809460505843, 58.604232305660844, -0.06400000303983688, 0.03200000151991844, 1.0400000493973494, 0.0, 0.0, 0.0, 0.0, 0.0, 1.762206623470268E9, 0.0, 2025-11-03 16:50:23.470
83.0, 239.34424741426483, -71.17029615677893, 226.20036901999265, -14.948380122892559, -0.06400000303983688, 0.03200000151991844, 1.0400000493973494, 0.0, 0.0, 0.0, 0.0, 0.0, 1.762206623485876E9, 0.0, 2025-11-03 16:50:23.485
83.0, 238.92537861922756, -81.49615993443877, 215.67629054468125, -22.372081534937024, -0.06400000303983688, 0.03200000151991844, 1.0400000493973494, 0.0, 0.0, 0.0, 0.0, 0.0, 1.762206623485876E9, 0.0, 2025-11-03 16:50:23.485
84.0, 310.3051091735251, -15.595382815226912, 286.96252360008657, 49.714490110985935, -0.06400000303983688, 0.03200000151991844, 1.0400000493973494, 0.0, 0.0, 0.0, 0.0, 0.0, 1.7622066234865572E9, 0.0, 2025-11-03 16:50:23.486
84.0, 256.75722160795704, -56.83899952657521, 239.58547096140683, 3.911935353651643, -0.06400000303983688, 0.03200000151991844, 1.0400000493973494, 0.0, 0.0, 0.0, 0.0, 0.0, 1.7622066234865572E9, 0.0, 2025-11-03 16:50:23.486
85.0, 232.9789376896806, -80.90525574143976, 212.6955902799964, -28.666333160363138, -0.06400000303983688, 0.03200000151991844, 1.0400000493973494, 0.0, 0.0, 0.0, 0.0, 0.0, 1.7622066235002272E9, 0.0, 2025-11-03 16:50:23.500
85.0, 292.2376524875872, -21.855975341051817, 282.51952245272696, 39.11561363656074, -0.06400000303983688, 0.03200000151991844, 1.0400000493973494, 0.0, 0.0, 0.0, 0.0, 0.0, 1.7622066235002272E9, 0.0, 2025-11-03 16:50:23.500
86.0, 292.2600918873213, -28.15396686643362, 277.07048821728677, 31.673212724737823, -0.06400000303983688, 0.03200000151991844, 1.0400000493973494, 0.0, 0.0, 0.0, 0.0, 0.0, 1.7622066235165348E9, 0.0, 2025-11-03 16:50:23.516
86.0, 216.06711009005085, -98.8231164291501, 201.67784501053393, -38.001123449765146, -0.06400000303983688, 0.03200000151991844, 1.0400000493973494, 0.0, 0.0, 0.0, 0.0, 0.0, 1.7622066235165348E9, 0.0, 2025-11-03 16:50:23.516
87.0, 250.64996498031542, -72.90934963617474, 231.28663295973092, -5.770665631629527, -0.06400000303983688, 0.03200000151991844, 1.0400000493973494, 0.0, 0.0, 0.0, 0.0, 0.0, 1.7622066235165577E9, 0.0, 2025-11-03 16:50:23.516
87.0, 310.88105376670137, -17.24467869568616, 287.12333929818124, 48.21479022875428, -0.06400000303983688, 0.03200000151991844, 1.0400000493973494, 0.0, 0.0, 0.0, 0.0, 0.0, 1.7622066235165577E9, 0.0, 2025-11-03 16:50:23.516
88.0, 222.421200114768, -95.02711797412485, 207.5756672406569, -30.61856093723327, -0.06400000303983688, 0.03200000151991844, 1.0400000493973494, 0.0, 0.0, 0.0, 0.0, 0.0, 1.762206623530174E9, 0.0, 2025-11-03 16:50:23.530
88.0, 223.70398579956964, -98.40050773415715, 211.023854999803, -26.003524391911924, -0.06400000303983688, 0.03200000151991844, 1.0400000493973494, 0.0, 0.0, 0.0, 0.0, 0.0, 1.762206623530174E9, 0.0, 2025-11-03 16:50:23.530
89.0, 309.0447628884576, -21.927033440209925, 290.41071135923266, 47.8370603332296, -0.06400000303983688, 0.03200000151991844, 1.0400000493973494, 0.0, 0.0, 0.0, 0.0, 0.0, 1.7622066235458496E9, 0.0, 2025-11-03 16:50:23.545
89.0, 241.44233128940687, -80.31061164848506, 225.5907653272152, -17.147441296838224, -0.06400000303983688, 0.03200000151991844, 1.0400000493973494, 0.0, 0.0, 0.0, 0.0, 0.0, 1.7622066235458496E9, 0.0, 2025-11-03 16:50:23.545
90.0, 221.38898772699758, -103.56156967300922, 195.87726017925888, -48.75333582237363, -0.06400000303983688, 0.03200000151991844, 1.0400000493973494, 0.0, 0.0, 0.0, 0.0, 0.0, 1.7622066235465543E9, 0.0, 2025-11-03 16:50:23.546
90.0, 300.9665789841674, -35.173759083263576, 262.03235049545765, 19.129588273353875, -0.06400000303983688, 0.03200000151991844, 1.0400000493973494, 0.0, 0.0, 0.0, 0.0, 0.0, 1.7622066235465543E9, 0.0, 2025-11-03 16:50:23.546
91.0, 291.0483643016778, -38.55462864320725, 261.29185030423105, 15.864655612036586, -0.06400000303983688, 0.03200000151991844, 1.0400000493973494, 0.0, 0.0, 0.0, 0.0, 0.0, 1.7622066235602095E9, 0.0, 2025-11-03 16:50:23.560
91.0, 219.7135125468485, -102.57049618475139, 195.2788761863485, -50.30539430398494, -0.06400000303983688, 0.03200000151991844, 1.0400000493973494, 0.0, 0.0, 0.0, 0.0, 0.0, 1.7622066235602095E9, 0.0, 2025-11-03 16:50:23.560
92.0, 261.1403843560256, -71.12541735731065, 228.67992269061506, -17.083862997591496, -0.06400000303983688, 0.03200000151991844, 1.0400000493973494, 0.0, 0.0, 0.0, 0.0, 0.0, 1.7622066235759277E9, 0.0, 2025-11-03 16:50:23.575
92.0, 317.9158055833541, -14.08446323312819, 286.6184528041631, 39.3886263333261, -0.06400000303983688, 0.03200000151991844, 1.0400000493973494, 0.0, 0.0, 0.0, 0.0, 0.0, 1.7622066235759277E9, 0.0, 2025-11-03 16:50:23.575
93.0, 239.30684841470793, -85.53525188658386, 210.3918119072914, -28.61397456098348, -0.06400000303983688, 0.03200000151991844, 1.0400000493973494, 0.0, 0.0, 0.0, 0.0, 0.0, 1.7622066235765734E9, 0.0, 2025-11-03 16:50:23.576
93.0, 241.7602227856405, -82.54707182198763, 215.0629469519481, -25.599615196697414, -0.06400000303983688, 0.03200000151991844, 1.0400000493973494, 0.0, 0.0, 0.0, 0.0, 0.0, 1.7622066235765734E9, 0.0, 2025-11-03 16:50:23.576
94.0, 328.1369521622546, -4.760892643593252, 297.3931045765057, 53.93309726100415, -0.06400000303983688, 0.03200000151991844, 1.0400000493973494, 0.0, 0.0, 0.0, 0.0, 0.0, 1.7622066235902214E9, 0.0, 2025-11-03 16:50:23.590
94.0, 250.87061907770112, -71.04687945824116, 230.5947514679283, -7.034751816652715, -0.06400000303983688, 0.03200000151991844, 1.0400000493973494, 0.0, 0.0, 0.0, 0.0, 0.0, 1.7622066235902214E9, 0.0, 2025-11-03 16:50:23.590
95.0, 240.7990684970282, -84.11035000346601, 218.45503621175885, -13.104609444737434, -0.06400000303983688, 0.03200000151991844, 1.0400000493973494, 0.0, 0.0, 0.0, 0.0, 0.0, 1.7622066236058967E9, 0.0, 2025-11-03 16:50:23.605
95.0, 289.14101532427594, -37.275582858361304, 263.18423968181014, 18.347949182614684, -0.06400000303983688, 0.03200000151991844, 1.0400000493973494, 0.0, 0.0, 0.0, 0.0, 0.0, 1.7622066236058967E9, 0.0, 2025-11-03 16:50:23.605
96.0, 282.8841626984067, -32.769003411754966, 269.8412616029382, 28.049249667674303, -0.06400000303983688, 0.03200000151991844, 1.0400000493973494, 0.0, 0.0, 0.0, 0.0, 0.0, 1.7622066236066031E9, 0.0, 2025-11-03 16:50:23.606
96.0, 219.35822205105796, -102.16658698953688, 194.18682539928705, -43.248203087598085, -0.06400000303983688, 0.03200000151991844, 1.0400000493973494, 0.0, 0.0, 0.0, 0.0, 0.0, 1.7622066236066031E9, 0.0, 2025-11-03 16:50:23.606
97.0, 252.33665986033157, -69.62197757512331, 231.87005735281855, -7.965986905619502, -0.06400000303983688, 0.03200000151991844, 1.0400000493973494, 0.0, 0.0, 0.0, 0.0, 0.0, 1.7622066236202233E9, 0.0, 2025-11-03 16:50:23.620
97.0, 309.59078828198835, -23.7147056190297, 287.79278139024973, 41.95793760288507, -0.06400000303983688, 0.03200000151991844, 1.0400000493973494, 0.0, 0.0, 0.0, 0.0, 0.0, 1.7622066236202233E9, 0.0, 2025-11-03 16:50:23.620
98.0, 241.03842209419236, -84.30482480116189, 222.68112316168845, -18.08989608567208, -0.06400000303983688, 0.03200000151991844, 1.0400000493973494, 0.0, 0.0, 0.0, 0.0, 0.0, 1.7622066236358905E9, 0.0, 2025-11-03 16:50:23.635
98.0, 230.29742942145094, -91.93796061072499, 219.12447830382735, -21.115475149825215, -0.06400000303983688, 0.03200000151991844, 1.0400000493973494, 0.0, 0.0, 0.0, 0.0, 0.0, 1.7622066236358905E9, 0.0, 2025-11-03 16:50:23.635
99.0, 305.55169632984325, -23.624948020093143, 293.5110884224996, 50.23433620482683, -0.06400000303983688, 0.03200000151991844, 1.0400000493973494, 0.0, 0.0, 0.0, 0.0, 0.0, 1.7622066236366105E9, 0.0, 2025-11-03 16:50:23.636
99.0, 251.78689456684515, -75.94988830015063, 236.46265449840575, -6.301731425337493, -0.06400000303983688, 0.03200000151991844, 1.0400000493973494, 0.0, 0.0, 0.0, 0.0, 0.0, 1.7622066236366105E9, 0.0, 2025-11-03 16:50:23.636
100.0, 214.24577881162986, -102.68643308337778, 203.59267378784716, -42.78071559313685, -0.06400000303983688, 0.03200000151991844, 1.0400000493973494, 0.0, 0.0, 0.0, 0.0, 0.0, 1.7622066236511288E9, 0.0, 2025-11-03 16:50:23.651
100.0, 284.51101917913184, -47.47802993748337, 252.7125198058784, 13.912427835166454, -0.06400000303983688, 0.03200000151991844, 1.0400000493973494, 0.0, 0.0, 0.0, 0.0, 0.0, 1.7622066236511288E9, 0.0, 2025-11-03 16:50:23.651
0.0, 300.4916116897948, -31.703131924383342, 275.8120118821971, 25.403270449023694, -0.06400000303983688, 0.03200000151991844, 1.0400000493973494, 0.0, 0.0, 0.0, 0.0, 0.0, 1.7622066236516263E9, 0.0, 2025-11-03 16:50:23.651
1.0, 230.83971491502598, -90.58785672672093, 205.72628671256825, -39.491473582107574, -0.06400000303983688, 0.03200000151991844, 1.0400000493973494, 0.0, 0.0, 0.0, 0.0, 0.0, 1.7622066236653008E9, 0.0, 2025-11-03 16:50:23.665
1.0, 263.3282258301042, -65.93443621881306, 230.35726782074198, -9.08982684230432, -0.06400000303983688, 0.03200000151991844, 1.0400000493973494, 0.0, 0.0, 0.0, 0.0, 0.0, 1.7622066236653008E9, 0.0, 2025-11-03 16:50:23.665
2.0, 318.7647628732957, -14.436013828963041, 284.0435316846706, 39.91408227710053, -0.06400000303983688, 0.03200000151991844, 1.0400000493973494, 0.0, 0.0, 0.0, 0.0, 0.0, 1.7622066236809852E9, 0.0, 2025-11-03 16:50:23.680
2.0, 232.32819509739056, -90.62525572627783, 204.2602459299378, -39.831804478075355, -0.06400000303983688, 0.03200000151991844, 1.0400000493973494, 0.0, 0.0, 0.0, 0.0, 0.0, 1.7622066236809852E9, 0.0, 2025-11-03 16:50:23.680
3.0, 235.1256402642466, -92.44284710474312, 206.6724814013578, -41.68679485609755, -0.06400000303983688, 0.03200000151991844, 1.0400000493973494, 0.0, 0.0, 0.0, 0.0, 0.0, 1.7622066236816459E9, 0.0, 2025-11-03 16:50:23.681
3.0, 322.9123119241558, -14.596829527057707, 287.73107304098085, 42.72648704377934, -0.06400000303983688, 0.03200000151991844, 1.0400000493973494, 0.0, 0.0, 0.0, 0.0, 0.0, 1.7622066236816459E9, 0.0, 2025-11-03 16:50:23.681
4.0, 247.27283532032743, -76.12192369811237, 234.0934278764762, -6.318560975138098, -0.06400000303983688, 0.03200000151991844, 1.0400000493973494, 0.0, 0.0, 0.0, 0.0, 0.0, 1.7622066236952891E9, 0.0, 2025-11-03 16:50:23.695
4.0, 237.12274684058502, -85.50907258689404, 219.98652524361387, -17.598099241498858, -0.06400000303983688, 0.03200000151991844, 1.0400000493973494, 0.0, 0.0, 0.0, 0.0, 0.0, 1.7622066236952891E9, 0.0, 2025-11-03 16:50:23.695
5.0, 278.91238894546404, -51.752735586836934, 251.7270561675541, 9.119746041949838, -0.06400000303983688, 0.03200000151991844, 1.0400000493973494, 0.0, 0.0, 0.0, 0.0, 0.0, 1.762206623711152E9, 0.0, 2025-11-03 16:50:23.711
5.0, 292.8584758802317, -35.00546358525753, 272.72285451879725, 32.48290106514469, -0.06400000303983688, 0.03200000151991844, 1.0400000493973494, 0.0, 0.0, 0.0, 0.0, 0.0, 1.762206623711152E9, 0.0, 2025-11-03 16:50:23.711
6.0, 222.6829931116663, -98.02277783863246, 207.46534019196406, -29.681715998332947, -0.06400000303983688, 0.03200000151991844, 1.0400000493973494, 0.0, 0.0, 0.0, 0.0, 0.0, 1.7622066237116358E9, 0.0, 2025-11-03 16:50:23.711
6.0, 261.5555132511072, -65.68012302182615, 245.67589803924784, 3.3116814107634127, -0.06400000303983688, 0.03200000151991844, 1.0400000493973494, 0.0, 0.0, 0.0, 0.0, 0.0, 1.7622066237116358E9, 0.0, 2025-11-03 16:50:23.711
7.0, 319.9951899587177, -4.270965749397874, 310.37616727268323, 65.73435157118365, -0.06400000303983688, 0.03200000151991844, 1.0400000493973494, 0.0, 0.0, 0.0, 0.0, 0.0, 1.76220662372517E9, 0.0, 2025-11-03 16:50:23.725
7.0, 238.4242320251651, -80.73322034347802, 227.29802965698764, -7.489149661269039, -0.06400000303983688, 0.03200000151991844, 1.0400000493973494, 0.0, 0.0, 0.0, 0.0, 0.0, 1.76220662372517E9, 0.0, 2025-11-03 16:50:23.725
8.0, 233.23325088666752, -89.49954583961517, 215.8950746920891, -14.29576758062467, -0.06400000303983688, 0.03200000151991844, 1.0400000493973494, 0.0, 0.0, 0.0, 0.0, 0.0, 1.762206623740911E9, 0.0, 2025-11-03 16:50:23.740
8.0, 304.7999764387496, -24.54122350923717, 295.7531584459357, 56.88200837606564, -0.06400000303983688, 0.03200000151991844, 1.0400000493973494, 0.0, 0.0, 0.0, 0.0, 0.0, 1.762206623740911E9, 0.0, 2025-11-03 16:50:23.740
9.0, 248.08065371075645, -66.1812696158886, 249.026848399546, 13.11395919462666, -0.06400000303983688, 0.03200000151991844, 1.0400000493973494, 0.0, 0.0, 0.0, 0.0, 0.0, 1.7622066237416553E9, 0.0, 2025-11-03 16:50:23.741
9.0, 230.44328551972285, -90.50931882765144, 216.44857988553122, -28.3652712139301, -0.06400000303983688, 0.03200000151991844, 1.0400000493973494, 0.0, 0.0, 0.0, 0.0, 0.0, 1.7622066237416553E9, 0.0, 2025-11-03 16:50:23.741
10.0, 280.31111152889207, -45.660438559018075, 265.7816002010368, 15.11106577096507, -0.06400000303983688, 0.03200000151991844, 1.0400000493973494, 0.0, 0.0, 0.0, 0.0, 0.0, 1.7622066237552602E9, 0.0, 2025-11-03 16:50:23.755
10.0, 295.74941854598, -30.97011153306812, 280.3709499281831, 30.276360091287643, -0.06400000303983688, 0.03200000151991844, 1.0400000493973494, 0.0, 0.0, 0.0, 0.0, 0.0, 1.7622066237552602E9, 0.0, 2025-11-03 16:50:23.755
11.0, 236.1653324519284, -87.62211606185883, 216.44857988553122, -26.540200035553426, -0.06400000303983688, 0.03200000151991844, 1.0400000493973494, 0.0, 0.0, 0.0, 0.0, 0.0, 1.7622066237706826E9, 0.0, 2025-11-03 16:50:23.770
11.0, 260.19418966723606, -65.63524422235787, 240.78036899724975, -2.4702039207331836, -0.06400000303983688, 0.03200000151991844, 1.0400000493973494, 0.0, 0.0, 0.0, 0.0, 0.0, 1.7622066237706826E9, 0.0, 2025-11-03 16:50:23.770
12.0, 311.00447046523914, -20.94717965181917, 284.6680949772708, 44.304724825080484, -0.06400000303983688, 0.03200000151991844, 1.0400000493973494, 0.0, 0.0, 0.0, 0.0, 0.0, 1.7622066237859025E9, 0.0, 2025-11-03 16:50:23.785
12.0, 243.14024586929008, -77.44958818238229, 219.76961104618385, -24.35235856147483, -0.06400000303983688, 0.03200000151991844, 1.0400000493973494, 0.0, 0.0, 0.0, 0.0, 0.0, 1.7622066237859025E9, 0.0, 2025-11-03 16:50:23.785
13.0, 250.86313927778974, -74.60352431610227, 224.7212385875173, -22.089719088282436, -0.06400000303983688, 0.03200000151991844, 1.0400000493973494, 0.0, 0.0, 0.0, 0.0, 0.0, 1.76220662378662E9, 0.0, 2025-11-03 16:50:23.786
13.0, 315.73544390918687, -15.198953419923782, 291.88610189175233, 49.518145363312215, -0.06400000303983688, 0.03200000151991844, 1.0400000493973494, 0.0, 0.0, 0.0, 0.0, 0.0, 1.76220662378662E9, 0.0, 2025-11-03 16:50:23.786
14.0, 243.43943786574528, -70.00718727055937, 233.82789497962222, -2.257029623258859, -0.06400000303983688, 0.03200000151991844, 1.0400000493973494, 0.0, 0.0, 0.0, 0.0, 0.0, 1.7622066238008893E9, 0.0, 2025-11-03 16:50:23.800
14.0, 221.24313162872568, -98.05643693823367, 204.65667532524094, -27.385417425539345, -0.06400000303983688, 0.03200000151991844, 1.0400000493973494, 0.0, 0.0, 0.0, 0.0, 0.0, 1.7622066238008893E9, 0.0, 2025-11-03 16:50:23.800
15.0, 287.94798723841086, -43.88772598002106, 267.83106537675485, 33.17104265699163, -0.06400000303983688, 0.03200000151991844, 1.0400000493973494, 0.0, 0.0, 0.0, 0.0, 0.0, 1.762206623801614E9, 0.0, 2025-11-03 16:50:23.801
15.0, 285.06078447261825, -38.2030780473724, 272.87619041698053, 39.816844878252596, -0.06400000303983688, 0.03200000151991844, 1.0400000493973494, 0.0, 0.0, 0.0, 0.0, 0.0, 1.762206623801614E9, 0.0, 2025-11-03 16:50:23.801
16.0, 213.90918781561777, -93.50871859211475, 210.5582374553196, -23.342585573438555, -0.06400000303983688, 0.03200000151991844, 1.0400000493973494, 0.0, 0.0, 0.0, 0.0, 0.0, 1.7622066238152297E9, 0.0, 2025-11-03 16:50:23.815
16.0, 262.3595917415805, -52.62787217646837, 255.23508232599124, 27.09744512895122, -0.06400000303983688, 0.03200000151991844, 1.0400000493973494, 0.0, 0.0, 0.0, 0.0, 0.0, 1.7622066238152297E9, 0.0, 2025-11-03 16:50:23.815
17.0, 308.99988408898935, -17.585009591653943, 299.40704070264474, 58.748218453954905, -0.06400000303983688, 0.03200000151991844, 1.0400000493973494, 0.0, 0.0, 0.0, 0.0, 0.0, 1.7622066238309097E9, 0.0, 2025-11-03 16:50:23.830
17.0, 229.38115393230692, -86.24957277812064, 228.77529013948515, -20.35814540879801, -0.06400000303983688, 0.03200000151991844, 1.0400000493973494, 0.0, 0.0, 0.0, 0.0, 0.0, 1.7622066238309097E9, 0.0, 2025-11-03 16:50:23.830
18.0, 242.32868757890537, -75.94614840019494, 228.93610583757982, -13.271034992765635, -0.06400000303983688, 0.03200000151991844, 1.0400000493973494, 0.0, 0.0, 0.0, 0.0, 0.0, 1.7622066238316662E9, 0.0, 2025-11-03 16:50:23.831
18.0, 310.1966520748101, -13.504778739996254, 297.76896452205256, 50.81589064793661, -0.06400000303983688, 0.03200000151991844, 1.0400000493973494, 0.0, 0.0, 0.0, 0.0, 0.0, 1.7622066238316662E9, 0.0, 2025-11-03 16:50:23.831
19.0, 255.6165521214716, -56.46126963105053, 245.806794537697, -0.3048018463887274, -0.06400000303983688, 0.03200000151991844, 1.0400000493973494, 0.0, 0.0, 0.0, 0.0, 0.0, 1.7622066238452299E9, 0.0, 2025-11-03 16:50:23.845
19.0, 230.12165412353352, -88.70294714905322, 214.07374341366813, -32.5165601647459, -0.06400000303983688, 0.03200000151991844, 1.0400000493973494, 0.0, 0.0, 0.0, 0.0, 0.0, 1.7622066238452299E9, 0.0, 2025-11-03 16:50:23.845
20.0, 292.794897580985, -33.07567520812154, 270.5125736449845, 27.284440126735717, -0.06400000303983688, 0.03200000151991844, 1.0560000501573086, 0.0, 0.0, 0.0, 0.0, 0.0, 1.7622066238608804E9, 0.0, 2025-11-03 16:50:23.860
20.0, 283.3740895926021, -41.643786006607115, 265.9162365994416, 13.529088089708239, -0.06400000303983688, 0.03200000151991844, 1.0560000501573086, 0.0, 0.0, 0.0, 0.0, 0.0, 1.7622066238608804E9, 0.0, 2025-11-03 16:50:23.860
21.0, 229.96831822535023, -93.14594829641283, 206.7435395005159, -40.57230466930196, -0.06400000303983688, 0.03200000151991844, 1.0560000501573086, 0.0, 0.0, 0.0, 0.0, 0.0, 1.7622066238615885E9, 0.0, 2025-11-03 16:50:23.861
21.0, 253.42497074743733, -73.42171593010426, 228.3452016445808, -18.402177731972188, -0.06400000303983688, 0.03200000151991844, 1.0560000501573086, 0.0, 0.0, 0.0, 0.0, 0.0, 1.7622066238615885E9, 0.0, 2025-11-03 16:50:23.861
22.0, 324.86453970102593, -10.337083477526903, 295.83917614491656, 50.20628695515916, -0.06400000303983688, 0.03200000151991844, 1.0560000501573086, 0.0, 0.0, 0.0, 0.0, 0.0, 1.762206623875208E9, 0.0, 2025-11-03 16:50:23.875
22.0, 235.51458985963836, -86.2271333783865, 216.6729738828726, -24.39349746098742, -0.06400000303983688, 0.03200000151991844, 1.0560000501573086, 0.0, 0.0, 0.0, 0.0, 0.0, 1.762206623875208E9, 0.0, 2025-11-03 16:50:23.875
23.0, 238.6860250220634, -87.57349736243486, 215.8950746920891, -24.79740665620193, -0.06400000303983688, 0.03200000151991844, 1.0560000501573086, 0.0, 0.0, 0.0, 0.0, 0.0, 1.7622066238908737E9, 0.0, 2025-11-03 16:50:23.890
23.0, 321.5771676399745, -14.189180431887507, 296.8302496331744, 50.44190065236762, -0.06400000303983688, 0.03200000151991844, 1.0560000501573086, 0.0, 0.0, 0.0, 0.0, 0.0, 1.7622066238908737E9, 0.0, 2025-11-03 16:50:23.890
24.0, 254.8797918302007, -67.50893410015851, 238.08764102915302, -4.5271488963626325, -0.06400000303983688, 0.03200000151991844, 1.0560000501573086, 0.0, 0.0, 0.0, 0.0, 0.0, 1.762206623891582E9, 0.0, 2025-11-03 16:50:23.891
24.0, 232.97519778972492, -84.38710260018706, 218.95805275579914, -22.74420158052817, -0.06400000303983688, 0.03200000151991844, 1.0560000501573086, 0.0, 0.0, 0.0, 0.0, 0.0, 1.762206623891582E9, 0.0, 2025-11-03 16:50:23.891
25.0, 297.40619422635064, -25.236844900995493, 277.7530199592002, 39.95148127665743, -0.06400000303983688, 0.03200000151991844, 1.0560000501573086, 0.0, 0.0, 0.0, 0.0, 0.0, 1.7622066239052432E9, 0.0, 2025-11-03 16:50:23.905
25.0, 298.1504343175329, -20.46847245749086, 285.2702188701369, 36.13304342189804, -0.06400000303983688, 0.03200000151991844, 1.0560000501573086, 0.0, 0.0, 0.0, 0.0, 0.0, 1.7622066239052432E9, 0.0, 2025-11-03 16:50:23.905
26.0, 214.46643290901557, -93.79669088870287, 209.55594426719472, -38.17128889774904, -0.06400000303983688, 0.03200000151991844, 1.0560000501573086, 0.0, 0.0, 0.0, 0.0, 0.0, 1.7622066239209316E9, 0.0, 2025-11-03 16:50:23.920
26.0, 232.99015738954768, -82.1132434271276, 228.270403645467, -10.600746424403042, -0.06400000303983688, 0.03200000151991844, 1.0560000501573086, 0.0, 0.0, 0.0, 0.0, 0.0, 1.7622066239209316E9, 0.0, 2025-11-03 16:50:23.920
27.0, 316.2739895028062, -10.307164277881384, 301.4602457783185, 54.94848009897396, -0.06400000303983688, 0.03200000151991844, 1.0560000501573086, 0.0, 0.0, 0.0, 0.0, 0.0, 1.762206623921635E9, 0.0, 2025-11-03 16:50:23.921
27.0, 252.44511695904657, -71.73502105008811, 239.6097803111188, -9.85276643326506, -0.06400000303983688, 0.03200000151991844, 1.0560000501573086, 0.0, 0.0, 0.0, 0.0, 0.0, 1.762206623921635E9, 0.0, 2025-11-03 16:50:23.921
28.0, 232.612427494023, -83.93831460550427, 220.08002274250612, -23.55949977086857, -0.06400000303983688, 0.03200000151991844, 1.0560000501573086, 0.0, 0.0, 0.0, 0.0, 0.0, 1.7622066239352183E9, 0.0, 2025-11-03 16:50:23.935
28.0, 310.21909147454426, -17.67102729063481, 290.7940511046909, 42.12062325095758, -0.06400000303983688, 0.03200000151991844, 1.0560000501573086, 0.0, 0.0, 0.0, 0.0, 0.0, 1.7622066239352183E9, 0.0, 2025-11-03 16:50:23.935
29.0, 265.5946052032523, -57.81137351505458, 243.16268526902422, -2.0662947255186737, -0.06400000303983688, 0.03200000151991844, 1.0560000501573086, 0.0, 0.0, 0.0, 0.0, 0.0, 1.7622066239509256E9, 0.0, 2025-11-03 16:50:23.950
29.0, 228.07218894781545, -90.7486724248156, 211.21271994756535, -36.667849115561694, -0.06400000303983688, 0.03200000151991844, 1.0560000501573086, 0.0, 0.0, 0.0, 0.0, 0.0, 1.7622066239509256E9, 0.0, 2025-11-03 16:50:23.950
30.0, 279.4172754394822, -45.260269263759255, 261.9295032466762, 16.449949955102056, -0.06400000303983688, 0.03200000151991844, 1.0560000501573086, 0.0, 0.0, 0.0, 0.0, 0.0, 1.762206623951624E9, 0.0, 2025-11-03 16:50:23.951
30.0, 286.01819886127487, -33.206571706570685, 266.4099033935927, 15.11106577096507, -0.06400000303983688, 0.03200000151991844, 1.0560000501573086, 0.0, 0.0, 0.0, 0.0, 0.0, 1.762206623951624E9, 0.0, 2025-11-03 16:50:23.951
31.0, 226.81558256270364, -94.20807988382876, 199.6302497847937, -40.643362768460065, -0.06400000303983688, 0.03200000151991844, 1.0560000501573086, 0.0, 0.0, 0.0, 0.0, 0.0, 1.7622066239652476E9, 0.0, 2025-11-03 16:50:23.965
31.0, 266.7053554900922, -72.35958434268832, 229.18667913461104, -15.256921869236976, -0.06400000303983688, 0.03200000151991844, 1.0560000501573086, 0.0, 0.0, 0.0, 0.0, 0.0, 1.7622066239652476E9, 0.0, 2025-11-03 16:50:23.965
32.0, 315.8252015081234, -18.325509782880545, 287.0092723495327, 43.77365903137252, -0.06400000303983688, 0.03200000151991844, 1.0560000501573086, 0.0, 0.0, 0.0, 0.0, 0.0, 1.7622066239809165E9, 0.0, 2025-11-03 16:50:23.980
32.0, 234.78530936827883, -83.8560368064791, 218.40828746231273, -22.123378187883645, -0.06400000303983688, 0.03200000151991844, 1.0560000501573086, 0.0, 0.0, 0.0, 0.0, 0.0, 1.7622066239809165E9, 0.0, 2025-11-03 16:50:23.980
33.0, 228.26292384555563, -87.31544426549226, 214.7880643052049, -30.126764093060046, -0.06400000303983688, 0.03200000151991844, 1.0560000501573086, 0.0, 0.0, 0.0, 0.0, 0.0, 1.7622066239815803E9, 0.0, 2025-11-03 16:50:23.981
33.0, 331.15879132645205, 1.4623008826747537, 311.3448013612069, 62.020630915183574, -0.06400000303983688, 0.03200000151991844, 1.0560000501573086, 0.0, 0.0, 0.0, 0.0, 0.0, 1.7622066239815803E9, 0.0, 2025-11-03 16:50:23.981
34.0, 256.5029084109701, -66.15135041624308, 239.62473991094157, 0.3384609459899366, -0.06400000303983688, 0.03200000151991844, 1.0560000501573086, 0.0, 0.0, 0.0, 0.0, 0.0, 1.7622066239952593E9, 0.0, 2025-11-03 16:50:23.995
34.0, 219.96782574383542, -92.95147349871695, 213.53519782004878, -28.499907612334937, -0.06400000303983688, 0.03200000151991844, 1.0560000501573086, 0.0, 0.0, 0.0, 0.0, 0.0, 1.7622066239952593E9, 0.0, 2025-11-03 16:50:23.995
35.0, 291.39991489751264, -30.046356244012713, 283.0449783965014, 40.39278947142884, -0.06400000303983688, 0.03200000151991844, 1.0560000501573086, 0.0, 0.0, 0.0, 0.0, 0.0, 1.7622066240108783E9, 0.0, 2025-11-03 16:50:24.010
35.0, 286.20519385905936, -34.63147358968854, 281.264786017593, 38.05161209916696, -0.06400000303983688, 0.03200000151991844, 1.0560000501573086, 0.0, 0.0, 0.0, 0.0, 0.0, 1.7622066240108783E9, 0.0, 2025-11-03 16:50:24.010
36.0, 222.14444751804695, -86.49266627524048, 226.22841826966032, -18.24510193383321, -0.06400000303983688, 0.03200000151991844, 1.0560000501573086, 0.0, 0.0, 0.0, 0.0, 0.0, 1.7622066240115929E9, 0.0, 2025-11-03 16:50:24.011
36.0, 245.27572874398902, -70.27272016741335, 239.13855291670188, -4.441131197381765, -0.06400000303983688, 0.03200000151991844, 1.0560000501573086, 0.0, 0.0, 0.0, 0.0, 0.0, 1.7622066240115929E9, 0.0, 2025-11-03 16:50:24.011
37.0, 302.7542511629872, -13.848849535919726, 306.03788332408294, 61.927133416291326, -0.06400000303983688, 0.03200000151991844, 1.0560000501573086, 0.0, 0.0, 0.0, 0.0, 0.0, 1.762206624025231E9, 0.0, 2025-11-03 16:50:24.025
37.0, 222.14818741800264, -87.55479786265641, 222.35762181552127, -24.68146975757554, -0.06400000303983688, 0.03200000151991844, 1.0560000501573086, 0.0, 0.0, 0.0, 0.0, 0.0, 1.762206624025231E9, 0.0, 2025-11-03 16:50:24.025
38.0, 237.93056523101404, -75.56841850467026, 236.15411275206134, -5.929611379746348, -0.06400000303983688, 0.03200000151991844, 1.0560000501573086, 0.0, 0.0, 0.0, 0.0, 0.0, 1.7622066240410347E9, 0.0, 2025-11-03 16:50:24.041
38.0, 314.2731430265121, -10.209926879033446, 303.3414154560305, 54.01724501000717, -0.06400000303983688, 0.03200000151991844, 1.0560000501573086, 0.0, 0.0, 0.0, 0.0, 0.0, 1.7622066240410347E9, 0.0, 2025-11-03 16:50:24.041
39.0, 233.86155407922342, -80.5200460460037, 224.71001888765022, -23.13689107587561, -0.06400000303983688, 0.03200000151991844, 1.0560000501573086, 0.0, 0.0, 0.0, 0.0, 0.0, 1.7622066240416155E9, 0.0, 2025-11-03 16:50:24.041
39.0, 230.7200381164439, -85.58387058600783, 215.72303929412737, -32.06403227010742, -0.06400000303983688, 0.03200000151991844, 1.0560000501573086, 0.0, 0.0, 0.0, 0.0, 0.0, 1.7622066240416155E9, 0.0, 2025-11-03 16:50:24.041
40.0, 299.36590180313215, -31.02994993235916, 270.5649322443642, 19.827079615090042, -0.06400000303983688, 0.03200000151991844, 1.0400000493973494, 0.0, 0.0, 0.0, 0.0, 0.0, 1.7622066240552366E9, 0.0, 2025-11-03 16:50:24.055
40.0, 307.1336740111001, -21.257591348141432, 282.712127300445, 26.596298534888774, -0.06400000303983688, 0.03200000151991844, 1.0400000493973494, 0.0, 0.0, 0.0, 0.0, 0.0, 1.7622066240552366E9, 0.0, 2025-11-03 16:50:24.055
41.0, 227.6832393524237, -94.43995368108153, 199.2562597892247, -49.72757976083085, -0.06400000303983688, 0.03200000151991844, 1.0400000493973494, 0.0, 0.0, 0.0, 0.0, 0.0, 1.7622066240708723E9, 0.0, 2025-11-03 16:50:24.070
41.0, 264.5100342161022, -68.26065399125218, 235.28645596234128, -14.66227777628228, -0.06400000303983688, 0.03200000151991844, 1.0400000493973494, 0.0, 0.0, 0.0, 0.0, 0.0, 1.7622066240708723E9, 0.0, 2025-11-03 16:50:24.070
42.0, 319.400545865763, -8.755105796270072, 302.671973363962, 53.06357052130625, -0.06400000303983688, 0.03200000151991844, 1.0400000493973494, 0.0, 0.0, 0.0, 0.0, 0.0, 1.762206624071577E9, 0.0, 2025-11-03 16:50:24.071
42.0, 237.7959288326092, -68.12227769289166, 235.88857985520735, -7.86313965683803, -0.06400000303983688, 0.03200000151991844, 1.0400000493973494, 0.0, 0.0, 0.0, 0.0, 0.0, 1.762206624071577E9, 0.0, 2025-11-03 16:50:24.071
43.0, 239.41904541337863, -70.50833386462182, 232.54884919477627, -17.579399741720408, -0.06400000303983688, 0.03200000151991844, 1.0400000493973494, 0.0, 0.0, 0.0, 0.0, 0.0, 1.7622066240852349E9, 0.0, 2025-11-03 16:50:24.085
43.0, 317.36978018982336, -7.520938810892403, 302.78043046267703, 59.82904954114929, -0.06400000303983688, 0.03200000151991844, 1.0400000493973494, 0.0, 0.0, 0.0, 0.0, 0.0, 1.7622066240852349E9, 0.0, 2025-11-03 16:50:24.085
44.0, 251.4764828705229, -61.794366967864335, 250.93045747699216, 6.752389369998127, -0.06400000303983688, 0.03200000151991844, 1.0400000493973494, 0.0, 0.0, 0.0, 0.0, 0.0, 1.7622066241008859E9, 0.0, 2025-11-03 16:50:24.100
44.0, 232.36933399690315, -80.4452480468899, 229.1604998349212, -12.141585206147283, -0.06400000303983688, 0.03200000151991844, 1.0400000493973494, 0.0, 0.0, 0.0, 0.0, 0.0, 1.7622066241008859E9, 0.0, 2025-11-03 16:50:24.100
45.0, 289.17467442387715, -30.99629083275795, 283.35912999277934, 40.643362768460065, -0.06400000303983688, 0.03200000151991844, 1.0400000493973494, 0.0, 0.0, 0.0, 0.0, 0.0, 1.7622066241015792E9, 0.0, 2025-11-03 16:50:24.101
45.0, 278.478560550604, -33.68527890089899, 280.8571369224228, 38.4069025949575, -0.06400000303983688, 0.03200000151991844, 1.0400000493973494, 0.0, 0.0, 0.0, 0.0, 0.0, 1.7622066241015792E9, 0.0, 2025-11-03 16:50:24.101
46.0, 221.59094232460484, -89.043278045021, 221.4600458261557, -19.1015390236862, -0.06400000303983688, 0.03200000151991844, 1.0400000493973494, 0.0, 0.0, 0.0, 0.0, 0.0, 1.762206624115208E9, 0.0, 2025-11-03 16:50:24.115
46.0, 247.953497112263, -68.5149671882391, 245.6571985394694, 9.153405141551048, -0.06400000303983688, 0.03200000151991844, 1.0400000493973494, 0.0, 0.0, 0.0, 0.0, 0.0, 1.762206624115208E9, 0.0, 2025-11-03 16:50:24.115
47.0, 310.04331617662683, -11.982639458030462, 302.9001072612591, 60.07588293822482, -0.06400000303983688, 0.03200000151991844, 1.0400000493973494, 0.0, 0.0, 0.0, 0.0, 0.0, 1.7622066241310277E9, 0.0, 2025-11-03 16:50:24.131
47.0, 215.69312009448186, -95.1954134721309, 208.2320196828805, -28.36153131397441, -0.06400000303983688, 0.03200000151991844, 1.0400000493973494, 0.0, 0.0, 0.0, 0.0, 0.0, 1.7622066241310277E9, 0.0, 2025-11-03 16:50:24.131
48.0, 220.6410077358596, -102.20398598909378, 204.88480922253802, -31.716221574228257, -0.06400000303983688, 0.03200000151991844, 1.0400000493973494, 0.0, 0.0, 0.0, 0.0, 0.0, 1.7622066241315823E9, 0.0, 2025-11-03 16:50:24.131
48.0, 314.0562288290821, -17.506471692584455, 291.3138971985318, 47.31908418936655, -0.06400000303983688, 0.03200000151991844, 1.0400000493973494, 0.0, 0.0, 0.0, 0.0, 0.0, 1.7622066241315823E9, 0.0, 2025-11-03 16:50:24.131
49.0, 247.6580450157635, -75.69557510316372, 221.99111161986366, -19.10901882359758, -0.06400000303983688, 0.03200000151991844, 1.0400000493973494, 0.0, 0.0, 0.0, 0.0, 0.0, 1.7622066241456249E9, 0.0, 2025-11-03 16:50:24.145
49.0, 238.0614617294632, -83.47082711104304, 210.782631452661, -38.3321045958437, -0.06400000303983688, 0.03200000151991844, 1.0400000493973494, 0.0, 0.0, 0.0, 0.0, 0.0, 1.7622066241456249E9, 0.0, 2025-11-03 16:50:24.145
50.0, 294.69476675847545, -34.19764519482851, 262.34463214175776, 7.795821457635611, -0.06400000303983688, 0.03200000151991844, 1.0400000493973494, 0.0, 0.0, 0.0, 0.0, 0.0, 1.7622066241608832E9, 0.0, 2025-11-03 16:50:24.160
50.0, 287.0391915491782, -38.1656790478155, 263.8480719239451, 17.56070024194196, -0.06400000303983688, 0.03200000151991844, 1.0400000493973494, 0.0, 0.0, 0.0, 0.0, 0.0, 1.7622066241608832E9, 0.0, 2025-11-03 16:50:24.160
51.0, 234.5721350708045, -82.65178902074695, 216.97964567923918, -28.944955707062036, -0.06400000303983688, 0.03200000151991844, 1.0400000493973494, 0.0, 0.0, 0.0, 0.0, 0.0, 1.7622066241615875E9, 0.0, 2025-11-03 16:50:24.161
51.0, 279.0320657440461, -43.95130427926779, 254.89101153006777, 11.124332418199629, -0.06400000303983688, 0.03200000151991844, 1.0400000493973494, 0.0, 0.0, 0.0, 0.0, 0.0, 1.7622066241615875E9, 0.0, 2025-11-03 16:50:24.161
52.0, 330.399591635447, 3.653882256709039, 305.10664823511615, 60.0833627381362, -0.06400000303983688, 0.03200000151991844, 1.0400000493973494, 0.0, 0.0, 0.0, 0.0, 0.0, 1.762206624175467E9, 0.0, 2025-11-03 16:50:24.175
52.0, 242.43714467762038, -73.79196602571756, 222.7166522112675, -17.212889546062797, -0.06400000303983688, 0.03200000151991844, 1.0400000493973494, 0.0, 0.0, 0.0, 0.0, 0.0, 1.762206624175467E9, 0.0, 2025-11-03 16:50:24.175
53.0, 237.3134817383252, -84.20010760240257, 220.98507853178307, -13.846979585941881, -0.06400000303983688, 0.03200000151991844, 1.0400000493973494, 0.0, 0.0, 0.0, 0.0, 0.0, 1.7622066241909046E9, 0.0, 2025-11-03 16:50:24.190
53.0, 316.2440703031607, -14.189180431887507, 297.6866867230274, 57.32331657083705, -0.06400000303983688, 0.03200000151991844, 1.0400000493973494, 0.0, 0.0, 0.0, 0.0, 0.0, 1.7622066241909046E9, 0.0, 2025-11-03 16:50:24.190
54.0, 250.60882608080283, -68.38781058974564, 243.12528626946732, 10.327733727637678, -0.06400000303983688, 0.03200000151991844, 1.0400000493973494, 0.0, 0.0, 0.0, 0.0, 0.0, 1.762206624191594E9, 0.0, 2025-11-03 16:50:24.191
54.0, 214.3018773109652, -102.05438999086618, 210.45726015651599, -26.255967638920993, -0.06400000303983688, 0.03200000151991844, 1.0400000493973494, 0.0, 0.0, 0.0, 0.0, 0.0, 1.762206624191594E9, 0.0, 2025-11-03 16:50:24.191
55.0, 277.0760980672203, -47.36209303885698, 271.04737933864817, 29.752774097491056, -0.06400000303983688, 0.03200000151991844, 1.0400000493973494, 0.0, 0.0, 0.0, 0.0, 0.0, 1.7622066242052677E9, 0.0, 2025-11-03 16:50:24.205
55.0, 277.86895685782656, -43.35666018631309, 270.8454247410409, 30.38855708995834, -0.06400000303983688, 0.03200000151991844, 1.0400000493973494, 0.0, 0.0, 0.0, 0.0, 0.0, 1.7622066242052677E9, 0.0, 2025-11-03 16:50:24.205
56.0, 222.0920889186673, -92.6747209019959, 213.47909932071343, -24.139184264000505, -0.06400000303983688, 0.03200000151991844, 1.0400000493973494, 0.0, 0.0, 0.0, 0.0, 0.0, 1.7622066242210526E9, 0.0, 2025-11-03 16:50:24.221
56.0, 241.6181065873243, -72.57649854011834, 230.40962642012164, -14.67349747614935, -0.06400000303983688, 0.03200000151991844, 1.0400000493973494, 0.0, 0.0, 0.0, 0.0, 0.0, 1.7622066242210526E9, 0.0, 2025-11-03 16:50:24.221
57.0, 305.3572215321474, -20.59562905598432, 287.8881488391198, 37.445748306345195, -0.06400000303983688, 0.03200000151991844, 1.0400000493973494, 0.0, 0.0, 0.0, 0.0, 0.0, 1.7622066242215972E9, 0.0, 2025-11-03 16:50:24.221
57.0, 231.39322010846809, -86.93397447001189, 214.1223621130921, -29.92480949545279, -0.06400000303983688, 0.03200000151991844, 1.0400000493973494, 0.0, 0.0, 0.0, 0.0, 0.0, 1.7622066242215972E9, 0.0, 2025-11-03 16:50:24.221
58.0, 243.82464756118134, -83.03325881622732, 215.99231209093705, -28.597145011182874, -0.06400000303983688, 0.03200000151991844, 1.0400000493973494, 0.0, 0.0, 0.0, 0.0, 0.0, 1.7622066242352064E9, 0.0, 2025-11-03 16:50:24.235
58.0, 326.6559517798014, -5.254559437744319, 301.381707879249, 47.031111892778426, -0.06400000303983688, 0.03200000151991844, 1.0400000493973494, 0.0, 0.0, 0.0, 0.0, 0.0, 1.7622066242352064E9, 0.0, 2025-11-03 16:50:24.235
59.0, 254.59555943356827, -67.70340889785439, 232.61616739397869, -15.844086162280291, -0.06400000303983688, 0.03200000151991844, 1.0400000493973494, 0.0, 0.0, 0.0, 0.0, 0.0, 1.7622066242508633E9, 0.0, 2025-11-03 16:50:24.250
59.0, 239.7257172097452, -83.34367051254958, 212.17013433622196, -33.769426649902016, -0.06400000303983688, 0.03200000151991844, 1.0400000493973494, 0.0, 0.0, 0.0, 0.0, 0.0, 1.7622066242508633E9, 0.0, 2025-11-03 16:50:24.250
60.0, 291.5682103955187, -37.40647935681045, 264.4875948163681, 19.632604817394167, -0.06400000303983688, 0.03200000151991844, 1.0400000493973494, 0.0, 0.0, 0.0, 0.0, 0.0, 1.762206624251583E9, 0.0, 2025-11-03 16:50:24.251
60.0, 290.4462404088117, -29.40309345163405, 273.60921080829576, 22.37021158495918, -0.06400000303983688, 0.03200000151991844, 1.0400000493973494, 0.0, 0.0, 0.0, 0.0, 0.0, 1.762206624251583E9, 0.0, 2025-11-03 16:50:24.251
61.0, 234.01115007745102, -84.13278940320015, 218.8645552569069, -30.691488986369222, -0.06400000303983688, 0.03200000151991844, 1.0400000493973494, 0.0, 0.0, 0.0, 0.0, 0.0, 1.7622066242652516E9, 0.0, 2025-11-03 16:50:24.265
61.0, 277.09479756699875, -42.92283179145306, 257.1760904029943, 8.072574054356664, -0.06400000303983688, 0.03200000151991844, 1.0400000493973494, 0.0, 0.0, 0.0, 0.0, 0.0, 1.7622066242652516E9, 0.0, 2025-11-03 16:50:24.265
62.0, 336.8733584587462, 8.085663704201579, 313.1698725395836, 64.03269709134474, -0.06400000303983688, 0.03200000151991844, 1.0400000493973494, 0.0, 0.0, 0.0, 0.0, 0.0, 1.762206624280964E9, 0.0, 2025-11-03 16:50:24.280
62.0, 241.18427819246426, -74.4801076175645, 227.14095385884866, -19.729842216242105, -0.06400000303983688, 0.03200000151991844, 1.0400000493973494, 0.0, 0.0, 0.0, 0.0, 0.0, 1.762206624280964E9, 0.0, 2025-11-03 16:50:24.280
63.0, 249.07546709896997, -67.04892640560865, 234.19066527532414, -2.6310196188278496, -0.06400000303983688, 0.03200000151991844, 1.0400000493973494, 0.0, 0.0, 0.0, 0.0, 0.0, 1.7622066242815964E9, 0.0, 2025-11-03 16:50:24.281
63.0, 318.33841427834705, -10.221146578900516, 299.0966290063225, 59.3802615464665, -0.06400000303983688, 0.03200000151991844, 1.0400000493973494, 0.0, 0.0, 0.0, 0.0, 0.0, 1.7622066242815964E9, 0.0, 2025-11-03 16:50:24.281
64.0, 254.9583297292702, -64.12806454021484, 240.89256599592045, 2.769395917188376, -0.06400000303983688, 0.03200000151991844, 1.0400000493973494, 0.0, 0.0, 0.0, 0.0, 0.0, 1.7622066242951865E9, 0.0, 2025-11-03 16:50:24.295
64.0, 219.2310654525645, -100.54347040876746, 209.76537866471335, -27.707048821728677, -0.06400000303983688, 0.03200000151991844, 1.0400000493973494, 0.0, 0.0, 0.0, 0.0, 0.0, 1.7622066242951865E9, 0.0, 2025-11-03 16:50:24.295
65.0, 296.54601723654196, -35.86564057506621, 269.83939165296033, 31.697522074449807, -0.06400000303983688, 0.03200000151991844, 1.0400000493973494, 0.0, 0.0, 0.0, 0.0, 0.0, 1.7622066243108819E9, 0.0, 2025-11-03 16:50:24.310
65.0, 273.87848360510543, -45.88483255635947, 261.4844551519491, 17.53826084220782, -0.06400000303983688, 0.03200000151991844, 1.0400000493973494, 0.0, 0.0, 0.0, 0.0, 0.0, 1.7622066243108819E9, 0.0, 2025-11-03 16:50:24.310
66.0, 225.91052677342668, -93.43018069304526, 203.45990733942017, -39.13618308631703, -0.06400000303983688, 0.03200000151991844, 1.0400000493973494, 0.0, 0.0, 0.0, 0.0, 0.0, 1.7622066243116095E9, 0.0, 2025-11-03 16:50:24.311
66.0, 272.3339049234055, -55.23084254562855, 239.43774491315708, -6.916944968048483, -0.06400000303983688, 0.03200000151991844, 1.0400000493973494, 0.0, 0.0, 0.0, 0.0, 0.0, 1.7622066243116095E9, 0.0, 2025-11-03 16:50:24.311
67.0, 320.04380865814164, -18.56860328000039, 286.24633275857195, 37.24379370873794, -0.06400000303983688, 0.03200000151991844, 1.0400000493973494, 0.0, 0.0, 0.0, 0.0, 0.0, 1.7622066243252313E9, 0.0, 2025-11-03 16:50:24.325
67.0, 238.43919162498787, -82.5208925222978, 216.03719089040533, -27.60607152292505, -0.06400000303983688, 0.03200000151991844, 1.0400000493973494, 0.0, 0.0, 0.0, 0.0, 0.0, 1.7622066243252313E9, 0.0, 2025-11-03 16:50:24.325
68.0, 239.99872990651056, -85.35199678875506, 217.645347871352, -24.019507465418428, -0.06400000303983688, 0.03200000151991844, 1.0400000493973494, 0.0, 0.0, 0.0, 0.0, 0.0, 1.76220662434092E9, 0.0, 2025-11-03 16:50:24.340
68.0, 322.86369322473183, -12.334190053865314, 294.2721580634825, 47.69307418493554, -0.06400000303983688, 0.03200000151991844, 1.0400000493973494, 0.0, 0.0, 0.0, 0.0, 0.0, 1.76220662434092E9, 0.0, 2025-11-03 16:50:24.340
69.0, 246.83152712555602, -74.2968525197357, 230.99305081320927, -13.603886088822037, -0.06400000303983688, 0.03200000151991844, 1.0400000493973494, 0.0, 0.0, 0.0, 0.0, 0.0, 1.7622066243416312E9, 0.0, 2025-11-03 16:50:24.341
69.0, 224.54920318955556, -98.50148503296077, 202.68574804859236, -34.94749513594434, -0.06400000303983688, 0.03200000151991844, 1.0400000493973494, 0.0, 0.0, 0.0, 0.0, 0.0, 1.7622066243416312E9, 0.0, 2025-11-03 16:50:24.341
70.0, 286.3435701574199, -46.116706353612244, 257.75577489612624, 15.701969963964075, -0.06400000303983688, 0.03200000151991844, 1.0400000493973494, 0.0, 0.0, 0.0, 0.0, 0.0, 1.7622066243551927E9, 0.0, 2025-11-03 16:50:24.355
70.0, 287.16634814767167, -37.03248936124146, 269.24474756000564, 26.75711423298344, -0.06400000303983688, 0.03200000151991844, 1.0400000493973494, 0.0, 0.0, 0.0, 0.0, 0.0, 1.7622066243551927E9, 0.0, 2025-11-03 16:50:24.355
71.0, 227.23071145778522, -90.94688712246716, 215.29669069917873, -20.941569801885635, -0.06400000303983688, 0.03200000151991844, 1.0400000493973494, 0.0, 0.0, 0.0, 0.0, 0.0, 1.7622066243709261E9, 0.0, 2025-11-03 16:50:24.370
71.0, 260.1455709678121, -65.72126192133874, 240.86638669623062, 7.3844324625097215, -0.06400000303983688, 0.03200000151991844, 1.0400000493973494, 0.0, 0.0, 0.0, 0.0, 0.0, 1.7622066243709261E9, 0.0, 2025-11-03 16:50:24.370
72.0, 308.65955319302157, -16.788410901091993, 295.0425774543546, 55.176613996271044, -0.06400000303983688, 0.03200000151991844, 1.0400000493973494, 0.0, 0.0, 0.0, 0.0, 0.0, 1.762206624371625E9, 0.0, 2025-11-03 16:50:24.371
72.0, 239.00391651829705, -82.47601372282952, 225.17750638211146, -12.825986898038536, -0.06400000303983688, 0.03200000151991844, 1.0400000493973494, 0.0, 0.0, 0.0, 0.0, 0.0, 1.762206624371625E9, 0.0, 2025-11-03 16:50:24.371
73.0, 237.43315853690729, -86.48892637528479, 224.91571338521317, -14.744555575307459, -0.06400000303983688, 0.03200000151991844, 1.0400000493973494, 0.0, 0.0, 0.0, 0.0, 0.0, 1.762206624385245E9, 0.0, 2025-11-03 16:50:24.385
73.0, 316.10943390475586, -11.474013064056635, 296.8302496331744, 56.27988448319957, -0.06400000303983688, 0.03200000151991844, 1.0400000493973494, 0.0, 0.0, 0.0, 0.0, 0.0, 1.762206624385245E9, 0.0, 2025-11-03 16:50:24.385
74.0, 258.470095787663, -57.53462091833353, 246.33412043144926, 8.693397447001189, -0.06400000303983688, 0.03200000151991844, 1.0400000493973494, 0.0, 0.0, 0.0, 0.0, 0.0, 1.762206624400935E9, 0.0, 2025-11-03 16:50:24.400
74.0, 227.07737555960193, -92.59244310297072, 212.7872178289108, -30.478314688894898, -0.06400000303983688, 0.03200000151991844, 1.0400000493973494, 0.0, 0.0, 0.0, 0.0, 0.0, 1.762206624400935E9, 0.0, 2025-11-03 16:50:24.400
75.0, 284.5259787789546, -41.33711421024054, 263.1038318327628, 23.47722197184339, -0.06400000303983688, 0.03200000151991844, 1.0400000493973494, 0.0, 0.0, 0.0, 0.0, 0.0, 1.7622066244016545E9, 0.0, 2025-11-03 16:50:24.401
75.0, 283.3778294925578, -41.82330120448023, 262.7298418371938, 18.622831829357892, -0.06400000303983688, 0.03200000151991844, 1.0400000493973494, 0.0, 0.0, 0.0, 0.0, 0.0, 1.7622066244016545E9, 0.0, 2025-11-03 16:50:24.401
76.0, 237.34714083792642, -80.64720264449716, 220.3792147389613, -18.061846836004406, -0.06400000303983688, 0.03200000151991844, 1.0400000493973494, 0.0, 0.0, 0.0, 0.0, 0.0, 1.762206624415293E9, 0.0, 2025-11-03 16:50:24.415
76.0, 247.37755251908675, -74.74938041437417, 229.2427776339464, -7.769642157945782, -0.06400000303983688, 0.03200000151991844, 1.0400000493973494, 0.0, 0.0, 0.0, 0.0, 0.0, 1.762206624415293E9, 0.0, 2025-11-03 16:50:24.415
77.0, 310.66039966931567, -19.185686772689223, 289.4551669205539, 44.719853720162064, -0.06400000303983688, 0.03200000151991844, 1.0400000493973494, 0.0, 0.0, 0.0, 0.0, 0.0, 1.7622066244309795E9, 0.0, 2025-11-03 16:50:24.430
77.0, 225.0540896835737, -93.07489019725472, 208.05250448500738, -31.667602874804288, -0.06400000303983688, 0.03200000151991844, 1.0400000493973494, 0.0, 0.0, 0.0, 0.0, 0.0, 1.7622066244309795E9, 0.0, 2025-11-03 16:50:24.430
78.0, 236.3859865493141, -89.47710643988103, 208.4489338803105, -30.534413188230246, -0.06400000303983688, 0.03200000151991844, 1.0400000493973494, 0.0, 0.0, 0.0, 0.0, 0.0, 1.7622066244316473E9, 0.0, 2025-11-03 16:50:24.431
78.0, 304.9869714365341, -23.37811462301761, 281.09275061963126, 32.75217386195436, -0.06400000303983688, 0.03200000151991844, 1.0400000493973494, 0.0, 0.0, 0.0, 0.0, 0.0, 1.7622066244316473E9, 0.0, 2025-11-03 16:50:24.431
79.0, 266.09201189735904, -56.988595524802804, 241.41241208976135, 1.0752212372608483, -0.06400000303983688, 0.03200000151991844, 1.0400000493973494, 0.0, 0.0, 0.0, 0.0, 0.0, 1.7622066244452763E9, 0.0, 2025-11-03 16:50:24.445
79.0, 235.45849136030301, -85.83070398308337, 215.0049785026349, -29.16560980444774, -0.06400000303983688, 0.03200000151991844, 1.0400000493973494, 0.0, 0.0, 0.0, 0.0, 0.0, 1.7622066244452763E9, 0.0, 2025-11-03 16:50:24.445
80.0, 280.142816030886, -48.73463632259518, 257.1499111033045, 18.510634830687195, -0.06400000303983688, 0.03200000151991844, 1.0400000493973494, 0.0, 0.0, 0.0, 0.0, 0.0, 1.7622066244609287E9, 0.0, 2025-11-03 16:50:24.460
80.0, 294.79948395723477, -27.563062673434615, 284.29036508174613, 39.68220847984776, -0.06400000303983688, 0.03200000151991844, 1.0400000493973494, 0.0, 0.0, 0.0, 0.0, 0.0, 1.7622066244609287E9, 0.0, 2025-11-03 16:50:24.460
81.0, 224.66140018822625, -96.4557597571984, 204.8960289224051, -41.23800686141476, -0.06400000303983688, 0.03200000151991844, 1.0400000493973494, 0.0, 0.0, 0.0, 0.0, 0.0, 1.7622066244616308E9, 0.0, 2025-11-03 16:50:24.461
81.0, 253.67928394442424, -71.02444005850703, 231.18752561090514, -15.593512865249068, -0.06400000303983688, 0.03200000151991844, 1.0400000493973494, 0.0, 0.0, 0.0, 0.0, 0.0, 1.7622066244616308E9, 0.0, 2025-11-03 16:50:24.461
82.0, 332.7220695079304, -0.44878799468278885, 307.48148470697924, 63.92797989258543, -0.06400000303983688, 0.03200000151991844, 1.0400000493973494, 0.0, 0.0, 0.0, 0.0, 0.0, 1.7622066244752352E9, 0.0, 2025-11-03 16:50:24.475
82.0, 231.7223313045688, -89.75385903660208, 213.03779112594202, -30.272620191331953, -0.06400000303983688, 0.03200000151991844, 1.0400000493973494, 0.0, 0.0, 0.0, 0.0, 0.0, 1.7622066244752352E9, 0.0, 2025-11-03 16:50:24.475
83.0, 234.48985727177933, -78.55285866931081, 220.33059603953734, -29.427402801346034, -0.06400000303983688, 0.03200000151991844, 1.0400000493973494, 0.0, 0.0, 0.0, 0.0, 0.0, 1.7622066244909787E9, 0.0, 2025-11-03 16:50:24.490
83.0, 320.15974555676803, -10.587656774558127, 297.76896452205256, 46.51126579893753, -0.06400000303983688, 0.03200000151991844, 1.0400000493973494, 0.0, 0.0, 0.0, 0.0, 0.0, 1.7622066244909787E9, 0.0, 2025-11-03 16:50:24.490
84.0, 258.6944897850044, -64.1766832396388, 240.2455633035861, -7.279715263750404, -0.06400000303983688, 0.03200000151991844, 1.0400000493973494, 0.0, 0.0, 0.0, 0.0, 0.0, 1.7622066244916532E9, 0.0, 2025-11-03 16:50:24.491
84.0, 228.97350483713672, -90.94314722251147, 212.11403583688661, -38.07031159894541, -0.06400000303983688, 0.03200000151991844, 1.0400000493973494, 0.0, 0.0, 0.0, 0.0, 0.0, 1.7622066244916532E9, 0.0, 2025-11-03 16:50:24.491
85.0, 290.6444551064633, -34.63147358968854, 266.46226199297234, 18.828526326920837, -0.06400000303983688, 0.03200000151991844, 1.0400000493973494, 0.0, 0.0, 0.0, 0.0, 0.0, 1.7622066245053062E9, 0.0, 2025-11-03 16:50:24.505
85.0, 283.65084218932316, -37.668272353708744, 268.90441666403785, 21.611011893954128, -0.06400000303983688, 0.03200000151991844, 1.0400000493973494, 0.0, 0.0, 0.0, 0.0, 0.0, 1.7622066245053062E9, 0.0, 2025-11-03 16:50:24.505
86.0, 214.1186222131364, -103.51669087354094, 198.1829085019417, -50.266125354450196, -0.06400000303983688, 0.03200000151991844, 1.0400000493973494, 0.0, 0.0, 0.0, 0.0, 0.0, 1.7622066245209773E9, 0.0, 2025-11-03 16:50:24.520
86.0, 261.64901074999943, -58.967002601362765, 240.14832590473816, -3.779168905224651, -0.06400000303983688, 0.03200000151991844, 1.0400000493973494, 0.0, 0.0, 0.0, 0.0, 0.0, 1.7622066245209773E9, 0.0, 2025-11-03 16:50:24.520
87.0, 318.89565937174484, -8.182901103049517, 296.1907267407514, 53.86764901177958, -0.06400000303983688, 0.03200000151991844, 1.0400000493973494, 0.0, 0.0, 0.0, 0.0, 0.0, 1.7622066245216312E9, 0.0, 2025-11-03 16:50:24.521
87.0, 235.9484182544984, -80.25077324919403, 216.24662528792396, -24.591712158638984, -0.06400000303983688, 0.03200000151991844, 1.0400000493973494, 0.0, 0.0, 0.0, 0.0, 0.0, 1.7622066245216312E9, 0.0, 2025-11-03 16:50:24.521
88.0, 230.14783342322335, -87.4500806638971, 212.50298543227836, -27.650950322393328, -0.06400000303983688, 0.03200000151991844, 1.0400000493973494, 0.0, 0.0, 0.0, 0.0, 0.0, 1.7622066245353205E9, 0.0, 2025-11-03 16:50:24.535
88.0, 305.4881180305965, -22.297283535823226, 285.91722156247124, 46.10735660372302, -0.06400000303983688, 0.03200000151991844, 1.0400000493973494, 0.0, 0.0, 0.0, 0.0, 0.0, 1.7622066245353205E9, 0.0, 2025-11-03 16:50:24.535
89.0, 249.41953789489344, -69.81645237281919, 233.5399226830341, -3.573474407661706, -0.06400000303983688, 0.03200000151991844, 1.0400000493973494, 0.0, 0.0, 0.0, 0.0, 0.0, 1.7622066245509026E9, 0.0, 2025-11-03 16:50:24.550
89.0, 218.7560981581919, -97.4169140458107, 206.5939435022883, -27.49761442421004, -0.06400000303983688, 0.03200000151991844, 1.0400000493973494, 0.0, 0.0, 0.0, 0.0, 0.0, 1.7622066245509026E9, 0.0, 2025-11-03 16:50:24.550
90.0, 288.5725505310111, -39.3512273337692, 266.9297494874336, 27.348018425982445, -0.06400000303983688, 0.03200000151991844, 1.0400000493973494, 0.0, 0.0, 0.0, 0.0, 0.0, 1.762206624551612E9, 0.0, 2025-11-03 16:50:24.551
90.0, 287.3421234455891, -38.89869943913072, 266.6567367906682, 28.72804150963202, -0.06400000303983688, 0.03200000151991844, 1.0400000493973494, 0.0, 0.0, 0.0, 0.0, 0.0, 1.762206624551612E9, 0.0, 2025-11-03 16:50:24.551
91.0, 235.7576833567582, -84.24124650191516, 213.09388962527737, -21.809226591605693, -0.06400000303983688, 0.03200000151991844, 1.0400000493973494, 0.0, 0.0, 0.0, 0.0, 0.0, 1.7622066245653749E9, 0.0, 2025-11-03 16:50:24.565
91.0, 267.49447438074276, -52.070627083070576, 241.9883566829376, 2.5188226201571524, -0.06400000303983688, 0.03200000151991844, 1.0400000493973494, 0.0, 0.0, 0.0, 0.0, 0.0, 1.7622066245653749E9, 0.0, 2025-11-03 16:50:24.565
92.0, 312.1002611522563, -13.463639840483665, 293.6064558713697, 49.151635167654604, -0.06400000303983688, 0.03200000151991844, 1.0400000493973494, 0.0, 0.0, 0.0, 0.0, 0.0, 1.7622066245809667E9, 0.0, 2025-11-03 16:50:24.580
92.0, 228.96228513726965, -92.81309720035642, 205.75620591221377, -38.02917269943282, -0.06400000303983688, 0.03200000151991844, 1.0400000493973494, 0.0, 0.0, 0.0, 0.0, 0.0, 1.7622066245809667E9, 0.0, 2025-11-03 16:50:24.580
93.0, 239.2806691150181, -89.20783364307135, 211.02198504982516, -28.189495916012675, -0.06400000303983688, 0.03200000151991844, 1.0400000493973494, 0.0, 0.0, 0.0, 0.0, 0.0, 1.7622066245816717E9, 0.0, 2025-11-03 16:50:24.581
93.0, 314.74811032088473, -10.819530571810901, 293.5353977722116, 56.17142738448456, -0.06400000303983688, 0.03200000151991844, 1.0400000493973494, 0.0, 0.0, 0.0, 0.0, 0.0, 1.7622066245816717E9, 0.0, 2025-11-03 16:50:24.581
94.0, 254.876051930245, -64.88726423121989, 234.11960717616603, -6.355959974694997, -0.06400000303983688, 0.03200000151991844, 1.0400000493973494, 0.0, 0.0, 0.0, 0.0, 0.0, 1.7622066245952528E9, 0.0, 2025-11-03 16:50:24.595
94.0, 211.639068542514, -114.6092341421172, 184.2929200665094, -58.740738654043525, -0.06400000303983688, 0.03200000151991844, 1.0400000493973494, 0.0, 0.0, 0.0, 0.0, 0.0, 1.7622066245952528E9, 0.0, 2025-11-03 16:50:24.595
95.0, 277.80163865862414, -53.17763746995479, 254.8012539311312, 15.331719868350774, -0.06400000303983688, 0.03200000151991844, 1.0400000493973494, 0.0, 0.0, 0.0, 0.0, 0.0, 1.762206624610916E9, 0.0, 2025-11-03 16:50:24.610
95.0, 294.6498879590072, -24.51878410950303, 285.2963981698267, 44.34586372459307, -0.06400000303983688, 0.03200000151991844, 1.0400000493973494, 0.0, 0.0, 0.0, 0.0, 0.0, 1.762206624610916E9, 0.0, 2025-11-03 16:50:24.610
96.0, 207.6037164903246, -102.10300869029015, 200.13887617876753, -45.55011151032522, -0.06400000303983688, 0.03200000151991844, 1.0400000493973494, 0.0, 0.0, 0.0, 0.0, 0.0, 1.7622066246116104E9, 0.0, 2025-11-03 16:50:24.611
96.0, 236.1354132522829, -82.27405912522227, 219.7546514463611, -23.694136169273406, -0.06400000303983688, 0.03200000151991844, 1.0400000493973494, 0.0, 0.0, 0.0, 0.0, 0.0, 1.7622066246116104E9, 0.0, 2025-11-03 16:50:24.611
97.0, 325.4330044942908, -4.794551743194461, 301.4153669788502, 56.67257397854701, -0.06400000303983688, 0.03200000151991844, 1.0400000493973494, 0.0, 0.0, 0.0, 0.0, 0.0, 1.7622066246252944E9, 0.0, 2025-11-03 16:50:24.625
97.0, 236.40842594904825, -84.38710260018706, 222.35762181552127, -20.840592503082007, -0.06400000303983688, 0.03200000151991844, 1.0400000493973494, 0.0, 0.0, 0.0, 0.0, 0.0, 1.7622066246252944E9, 0.0, 2025-11-03 16:50:24.625
98.0, 243.11032666964456, -80.07873785123229, 223.33373570395634, -13.592666388954967, -0.06400000303983688, 0.03200000151991844, 1.0400000493973494, 0.0, 0.0, 0.0, 0.0, 0.0, 1.7622066246409352E9, 0.0, 2025-11-03 16:50:24.640
98.0, 312.92303914250806, -24.066256214864552, 279.7052477360703, 40.97247396456078, -0.06400000303983688, 0.03200000151991844, 1.0400000493973494, 0.0, 0.0, 0.0, 0.0, 0.0, 1.7622066246409352E9, 0.0, 2025-11-03 16:50:24.640
99.0, 270.6958287428133, -53.08040007110685, 242.7288568741642, 3.263062711339444, -0.06400000303983688, 0.03200000151991844, 1.0400000493973494, 0.0, 0.0, 0.0, 0.0, 0.0, 1.7622066246416388E9, 0.0, 2025-11-03 16:50:24.641
99.0, 232.6797456932254, -94.92614067532122, 204.04707163246349, -32.595098063815385, -0.06400000303983688, 0.03200000151991844, 1.0400000493973494, 0.0, 0.0, 0.0, 0.0, 0.0, 1.7622066246416388E9, 0.0, 2025-11-03 16:50:24.641
100.0, 278.5608383496292, -52.074366983026266, 248.761315502692, 7.780861857812852, -0.06400000303983688, 0.03200000151991844, 1.0400000493973494, 0.0, 0.0, 0.0, 0.0, 0.0, 1.7622066246559312E9, 0.0, 2025-11-03 16:50:24.655
100.0, 289.4888260201551, -36.370527069084346, 264.4389761169441, 21.734428592491895, -0.06400000303983688, 0.03200000151991844, 1.0400000493973494, 0.0, 0.0, 0.0, 0.0, 0.0, 1.7622066246559312E9, 0.0, 2025-11-03 16:50:24.655
0.0, 220.88784113293514, -96.01258161244914, 204.93716782191768, -36.02832622313872, -0.06400000303983688, 0.03200000151991844, 1.0400000493973494, 0.0, 0.0, 0.0, 0.0, 0.0, 1.762206624656618E9, 0.0, 2025-11-03 16:50:24.656
1.0, 247.37381261913106, -73.29268938163295, 229.40733323199674, -13.431850690860301, -0.06400000303983688, 0.03200000151991844, 1.0400000493973494, 0.0, 0.0, 0.0, 0.0, 0.0, 1.7622066246702256E9, 0.0, 2025-11-03 16:50:24.670
1.0, 315.4960903120227, -16.977275848854333, 290.21062671160325, 45.24343971395865, -0.06400000303983688, 0.03200000151991844, 1.0400000493973494, 0.0, 0.0, 0.0, 0.0, 0.0, 1.7622066246702256E9, 0.0, 2025-11-03 16:50:24.670
2.0, 223.52073070174083, -94.64751812862232, 207.1923274951987, -36.226540920790285, -0.06400000303983688, 0.03200000151991844, 1.0400000493973494, 0.0, 0.0, 0.0, 0.0, 0.0, 1.762206624685996E9, 0.0, 2025-11-03 16:50:24.685
2.0, 229.28765643341467, -85.50720263691619, 218.98423205548897, -26.01287414180115, -0.06400000303983688, 0.03200000151991844, 1.0400000493973494, 0.0, 0.0, 0.0, 0.0, 0.0, 1.762206624685996E9, 0.0, 2025-11-03 16:50:24.685
3.0, 305.5703958296217, -19.785940715577453, 287.76099224062636, 44.47676022304222, -0.06400000303983688, 0.03200000151991844, 1.0400000493973494, 0.0, 0.0, 0.0, 0.0, 0.0, 1.762206624686624E9, 0.0, 2025-11-03 16:50:24.686
3.0, 263.0327737336047, -51.152481643948704, 259.7267021727748, 16.468649454880506, -0.06400000303983688, 0.03200000151991844, 1.0400000493973494, 0.0, 0.0, 0.0, 0.0, 0.0, 1.762206624686624E9, 0.0, 2025-11-03 16:50:24.686
4.0, 237.14892614027485, -75.90313955070451, 226.32939556846395, -10.129519029986113, -0.06400000303983688, 0.03200000151991844, 1.0400000493973494, 0.0, 0.0, 0.0, 0.0, 0.0, 1.7622066247002285E9, 0.0, 2025-11-03 16:50:24.700
4.0, 293.02303147828206, -29.375044201966375, 278.6019772491418, 43.80731813097373, -0.06400000303983688, 0.03200000151991844, 1.0400000493973494, 0.0, 0.0, 0.0, 0.0, 0.0, 1.7622066247002285E9, 0.0, 2025-11-03 16:50:24.700
5.0, 278.5982373491861, -41.088410863187164, 269.5626390562393, 37.49810690572485, -0.06400000303983688, 0.03200000151991844, 1.0400000493973494, 0.0, 0.0, 0.0, 0.0, 0.0, 1.7622066247159564E9, 0.0, 2025-11-03 16:50:24.715
5.0, 205.95442060986534, -109.41264315368608, 194.34951104735956, -37.849657501559705, -0.06400000303983688, 0.03200000151991844, 1.0400000493973494, 0.0, 0.0, 0.0, 0.0, 0.0, 1.7622066247159564E9, 0.0, 2025-11-03 16:50:24.715
6.0, 232.52640979504213, -87.93813760811463, 219.4591993498616, -19.389511320274323, -0.06400000303983688, 0.03200000151991844, 1.0400000493973494, 0.0, 0.0, 0.0, 0.0, 0.0, 1.7622066247166138E9, 0.0, 2025-11-03 16:50:24.716
6.0, 318.71240427391604, -14.497722178231925, 299.36216190317646, 58.27699105953798, -0.06400000303983688, 0.03200000151991844, 1.0400000493973494, 0.0, 0.0, 0.0, 0.0, 0.0, 1.7622066247166138E9, 0.0, 2025-11-03 16:50:24.716
7.0, 216.31768338708207, -102.71074243308976, 199.4058557874523, -35.53465942898765, -0.06400000303983688, 0.03200000151991844, 1.0400000493973494, 0.0, 0.0, 0.0, 0.0, 0.0, 1.7622066247303028E9, 0.0, 2025-11-03 16:50:24.730
7.0, 222.7203921112232, -96.41649080766365, 207.1923274951987, -28.922516307327896, -0.06400000303983688, 0.03200000151991844, 1.0400000493973494, 0.0, 0.0, 0.0, 0.0, 0.0, 1.7622066247303028E9, 0.0, 2025-11-03 16:50:24.730
8.0, 322.2353900321759, -11.318807215895504, 293.96174636716023, 50.81589064793661, -0.06400000303983688, 0.03200000151991844, 1.0400000493973494, 0.0, 0.0, 0.0, 0.0, 0.0, 1.762206624745947E9, 0.0, 2025-11-03 16:50:24.745
8.0, 252.47877605864778, -68.34106184029952, 232.13746019965038, -10.365132727194577, -0.06400000303983688, 0.03200000151991844, 1.0400000493973494, 0.0, 0.0, 0.0, 0.0, 0.0, 1.762206624745947E9, 0.0, 2025-11-03 16:50:24.745
9.0, 227.4251862554811, -97.03731420030817, 202.1098034554161, -38.638776392210275, -0.06400000303983688, 0.03200000151991844, 1.0400000493973494, 0.0, 0.0, 0.0, 0.0, 0.0, 1.7622066247466328E9, 0.0, 2025-11-03 16:50:24.746
9.0, 287.3458633455448, -37.24379370873794, 265.1121581089683, 23.91105036670342, -0.06400000303983688, 0.03200000151991844, 1.0400000493973494, 0.0, 0.0, 0.0, 0.0, 0.0, 1.7622066247466328E9, 0.0, 2025-11-03 16:50:24.746
10.0, 292.14041508873925, -31.510527076665312, 274.91069599287584, 32.94290875969455, -0.06400000303983688, 0.03200000151991844, 1.0400000493973494, 0.0, 0.0, 0.0, 0.0, 0.0, 1.7622066247602265E9, 0.0, 2025-11-03 16:50:24.760
10.0, 220.03888384299353, -95.30948042077944, 205.66644831327721, -35.026033035013825, -0.06400000303983688, 0.03200000151991844, 1.0400000493973494, 0.0, 0.0, 0.0, 0.0, 0.0, 1.7622066247602265E9, 0.0, 2025-11-03 16:50:24.760
11.0, 252.90886455355212, -61.194113024976104, 241.19549789233133, 0.9779838384129107, -0.06400000303983688, 0.03200000151991844, 1.0400000493973494, 0.0, 0.0, 0.0, 0.0, 0.0, 1.762206624775905E9, 0.0, 2025-11-03 16:50:24.775
11.0, 324.86079980107024, 0.25618314696475863, 308.89142699027434, 62.738691706676036, -0.06400000303983688, 0.03200000151991844, 1.0400000493973494, 0.0, 0.0, 0.0, 0.0, 0.0, 1.762206624775905E9, 0.0, 2025-11-03 16:50:24.775
12.0, 228.06470914790407, -83.84294715663418, 214.9376603034325, -24.438376260455698, -0.06400000303983688, 0.03200000151991844, 1.0400000493973494, 0.0, 0.0, 0.0, 0.0, 0.0, 1.7622066247774255E9, 0.0, 2025-11-03 16:50:24.777
12.0, 232.0514425006695, -86.44591752579436, 212.39826823351905, -25.60522504663095, -0.06400000303983688, 0.03200000151991844, 1.0400000493973494, 0.0, 0.0, 0.0, 0.0, 0.0, 1.7622066247774255E9, 0.0, 2025-11-03 16:50:24.777
13.0, 302.9449860607274, -22.987295077648014, 283.5648244903423, 42.707787544000894, -0.06400000303983688, 0.03200000151991844, 1.0400000493973494, 0.0, 0.0, 0.0, 0.0, 0.0, 1.762206624790229E9, 0.0, 2025-11-03 16:50:24.790
13.0, 245.07751404633746, -71.1646863068454, 230.46946481941268, -8.831773745361716, -0.06400000303983688, 0.03200000151991844, 1.0400000493973494, 0.0, 0.0, 0.0, 0.0, 0.0, 1.762206624790229E9, 0.0, 2025-11-03 16:50:24.790
14.0, 213.53893772000447, -104.35255851363763, 201.98638675687835, -39.1100037866272, -0.06400000303983688, 0.03200000151991844, 1.0400000493973494, 0.0, 0.0, 0.0, 0.0, 0.0, 1.7622066248059146E9, 0.0, 2025-11-03 16:50:24.805
14.0, 270.20590184861794, -54.92978059919551, 253.92985724145547, 17.05955364787951, -0.06400000303983688, 0.03200000151991844, 1.0400000493973494, 0.0, 0.0, 0.0, 0.0, 0.0, 1.7622066248059146E9, 0.0, 2025-11-03 16:50:24.805
15.0, 280.65892222477123, -48.20170057890937, 263.71717542549595, 30.983201182913035, -0.06400000303983688, 0.03200000151991844, 1.0400000493973494, 0.0, 0.0, 0.0, 0.0, 0.0, 1.7622066248066156E9, 0.0, 2025-11-03 16:50:24.806
15.0, 240.6906113983132, -83.18098486447707, 222.21924551716074, -14.011535183992237, -0.06400000303983688, 0.03200000151991844, 1.0400000493973494, 0.0, 0.0, 0.0, 0.0, 0.0, 1.7622066248066156E9, 0.0, 2025-11-03 16:50:24.806
16.0, 254.83117313077673, -70.92159280972555, 229.44847213150933, -7.257275864016265, -0.06400000303983688, 0.03200000151991844, 1.0400000493973494, 0.0, 0.0, 0.0, 0.0, 0.0, 1.7622066248203151E9, 0.0, 2025-11-03 16:50:24.820
16.0, 316.92473209509626, -16.214336257893592, 287.28602494625375, 49.23765286663547, -0.06400000303983688, 0.03200000151991844, 1.0400000493973494, 0.0, 0.0, 0.0, 0.0, 0.0, 1.7622066248203151E9, 0.0, 2025-11-03 16:50:24.820
17.0, 210.7078334535472, -106.76853388501331, 188.8518581124954, -43.73626003181562, -0.06400000303983688, 0.03200000151991844, 1.0400000493973494, 0.0, 0.0, 0.0, 0.0, 0.0, 1.7622066248359075E9, 0.0, 2025-11-03 16:50:24.835
17.0, 231.69615200487897, -96.7680414034985, 206.9641935979016, -24.176583263557404, -0.06400000303983688, 0.03200000151991844, 1.0400000493973494, 0.0, 0.0, 0.0, 0.0, 0.0, 1.7622066248359075E9, 0.0, 2025-11-03 16:50:24.835
18.0, 325.00291599938646, -10.866279321257025, 300.00168479559943, 62.678853307385, -0.06400000303983688, 0.03200000151991844, 1.0400000493973494, 0.0, 0.0, 0.0, 0.0, 0.0, 1.7622066248366084E9, 0.0, 2025-11-03 16:50:24.836
18.0, 257.01901460485533, -66.68428615992889, 239.4676641128026, 6.759869169909507, -0.06400000303983688, 0.03200000151991844, 1.0400000493973494, 0.0, 0.0, 0.0, 0.0, 0.0, 1.7622066248366084E9, 0.0, 2025-11-03 16:50:24.836
19.0, 211.65776804229245, -102.2918736380525, 200.23611357761547, -32.37444396642968, -0.06400000303983688, 0.03200000151991844, 1.0400000493973494, 0.0, 0.0, 0.0, 0.0, 0.0, 1.762206624850287E9, 0.0, 2025-11-03 16:50:24.850
19.0, 278.2953054527752, -43.76243933150545, 260.7663943604566, 26.891750631388277, -0.06400000303983688, 0.03200000151991844, 1.0400000493973494, 0.0, 0.0, 0.0, 0.0, 0.0, 1.762206624850287E9, 0.0, 2025-11-03 16:50:24.850
20.0, 279.73142703576013, -36.267679820302874, 270.6621696432121, 32.950388559605926, -0.06400000303983688, 0.03200000151991844, 1.0400000493973494, 0.0, 0.0, 0.0, 0.0, 0.0, 1.7622066248659258E9, 0.0, 2025-11-03 16:50:24.865
20.0, 237.60519393486902, -77.8703269273974, 224.91197348525748, -13.274774892721325, -0.06400000303983688, 0.03200000151991844, 1.0400000493973494, 0.0, 0.0, 0.0, 0.0, 0.0, 1.7622066248659258E9, 0.0, 2025-11-03 16:50:24.865
21.0, 266.671696390491, -48.21666017873213, 256.1737972148694, 18.981862225104123, -0.06400000303983688, 0.03200000151991844, 1.0400000493973494, 0.0, 0.0, 0.0, 0.0, 0.0, 1.7622066248666027E9, 0.0, 2025-11-03 16:50:24.866
21.0, 306.62878751708195, -15.86652556201443, 298.7862173100002, 61.605502020101994, -0.06400000303983688, 0.03200000151991844, 1.0400000493973494, 0.0, 0.0, 0.0, 0.0, 0.0, 1.7622066248666027E9, 0.0, 2025-11-03 16:50:24.866
22.0, 206.25735250627622, -102.43024993641302, 196.30547872418538, -34.14341664547101, -0.06400000303983688, 0.03200000151991844, 1.0400000493973494, 0.0, 0.0, 0.0, 0.0, 0.0, 1.7622066248802636E9, 0.0, 2025-11-03 16:50:24.880
22.0, 221.51240442553535, -101.83560584345832, 200.6736818724312, -34.229434344451874, -0.06400000303983688, 0.03200000151991844, 1.0400000493973494, 0.0, 0.0, 0.0, 0.0, 0.0, 1.7622066248802636E9, 0.0, 2025-11-03 16:50:24.880
23.0, 300.0503034950234, -30.276360091287643, 278.6618156484328, 45.781985307578, -0.06400000303983688, 0.03200000151991844, 1.0400000493973494, 0.0, 0.0, 0.0, 0.0, 0.0, 1.762206624896022E9, 0.0, 2025-11-03 16:50:24.896
23.0, 231.37078070873395, -82.53398217214271, 225.2710038810037, -4.699184294324368, -0.06400000303983688, 0.03200000151991844, 1.0400000493973494, 0.0, 0.0, 0.0, 0.0, 0.0, 1.762206624896022E9, 0.0, 2025-11-03 16:50:24.896
24.0, 204.56691772630438, -111.97821452328935, 192.12801047367975, -39.92904187692329, -0.06400000303983688, 0.03200000151991844, 1.0400000493973494, 0.0, 0.0, 0.0, 0.0, 0.0, 1.7622066248966303E9, 0.0, 2025-11-03 16:50:24.896
24.0, 277.936275057029, -45.40799531200901, 258.8852246827446, 24.629111158195883, -0.06400000303983688, 0.03200000151991844, 1.0400000493973494, 0.0, 0.0, 0.0, 0.0, 0.0, 1.7622066248966303E9, 0.0, 2025-11-03 16:50:24.896
25.0, 287.0429314491339, -28.907556707505137, 279.118083443027, 44.626356221269816, -0.06400000303983688, 0.03200000151991844, 1.0400000493973494, 0.0, 0.0, 0.0, 0.0, 0.0, 1.762206624910327E9, 0.0, 2025-11-03 16:50:24.910
25.0, 226.0563828716986, -87.38463241467252, 210.47595965629444, -23.675436669494957, -0.06400000303983688, 0.03200000151991844, 1.0400000493973494, 0.0, 0.0, 0.0, 0.0, 0.0, 1.762206624910327E9, 0.0, 2025-11-03 16:50:24.910
26.0, 275.16500918986276, -46.82541739521548, 251.74949556728825, 11.730196211021394, -0.06400000303983688, 0.03200000151991844, 1.0400000493973494, 0.0, 0.0, 0.0, 0.0, 0.0, 1.7622066249259317E9, 0.0, 2025-11-03 16:50:24.925
26.0, 322.26904913177714, -10.742862622719258, 294.5302111604251, 58.348049158696085, -0.06400000303983688, 0.03200000151991844, 1.0400000493973494, 0.0, 0.0, 0.0, 0.0, 0.0, 1.7622066249259317E9, 0.0, 2025-11-03 16:50:24.925
27.0, 228.3078026450239, -91.15819146996364, 217.3424159749411, -16.67434395244345, -0.06400000303983688, 0.03200000151991844, 1.0400000493973494, 0.0, 0.0, 0.0, 0.0, 0.0, 1.7622066249266186E9, 0.0, 2025-11-03 16:50:24.926
27.0, 230.36100772069767, -86.70397062273696, 214.8965214039199, -21.633451293688267, -0.06400000303983688, 0.03200000151991844, 1.0400000493973494, 0.0, 0.0, 0.0, 0.0, 0.0, 1.7622066249266186E9, 0.0, 2025-11-03 16:50:24.926
28.0, 327.8115808661096, 2.6048403191380203, 304.493304642383, 58.54626385634765, -0.06400000303983688, 0.03200000151991844, 1.0400000493973494, 0.0, 0.0, 0.0, 0.0, 0.0, 1.7622066249566748E9, 0.0, 2025-11-03 16:50:24.956
28.0, 254.04205424012616, -55.580523191485554, 244.23603655630723, 0.7984686405397952, -0.06400000303983688, 0.03200000151991844, 1.0400000493973494, 0.0, 0.0, 0.0, 0.0, 0.0, 1.7622066249566748E9, 0.0, 2025-11-03 16:50:24.956
29.0, 216.49719858495519, -99.08303947607055, 203.58332403795794, -30.85604458441958, -0.06400000303983688, 0.03200000151991844, 1.0400000493973494, 0.0, 0.0, 0.0, 0.0, 0.0, 1.7622066249573271E9, 0.0, 2025-11-03 16:50:24.957
29.0, 288.03026503743604, -36.69402841525152, 269.4429622576572, 29.91358979558572, -0.06400000303983688, 0.03200000151991844, 1.0400000493973494, 0.0, 0.0, 0.0, 0.0, 0.0, 1.7622066249573271E9, 0.0, 2025-11-03 16:50:24.957
30.0, 286.2014539591037, -37.67388220364228, 273.80368560599163, 32.78583296155557, -0.06400000303983688, 0.03200000151991844, 1.0400000493973494, 0.0, 0.0, 0.0, 0.0, 0.0, 1.7622066249581437E9, 0.0, 2025-11-03 16:50:24.958
30.0, 215.44254679745063, -102.50504793552682, 203.0447784443386, -35.73287412663922, -0.06400000303983688, 0.03200000151991844, 1.0400000493973494, 0.0, 0.0, 0.0, 0.0, 0.0, 1.7622066249581437E9, 0.0, 2025-11-03 16:50:24.958
31.0, 247.82634051376954, -74.52685636701062, 227.28680995712057, -11.139292018022388, -0.06400000303983688, 0.04800000227987766, 1.0400000493973494, 0.0, 0.0, 0.0, 0.0, 0.0, 1.762206624970234E9, 0.0, 2025-11-03 16:50:24.970
31.0, 314.18338542757556, -18.72006922820583, 290.5733970073052, 47.59209688613191, -0.06400000303983688, 0.04800000227987766, 1.0400000493973494, 0.0, 0.0, 0.0, 0.0, 0.0, 1.762206624970234E9, 0.0, 2025-11-03 16:50:24.970
32.0, 209.32033056998625, -108.53750656405464, 189.05755261005834, -46.256952601950616, -0.06400000303983688, 0.04800000227987766, 1.0400000493973494, 0.0, 0.0, 0.0, 0.0, 0.0, 1.7622066249861505E9, 0.0, 2025-11-03 16:50:24.986
32.0, 234.20936477510259, -91.30404756823555, 209.43252756865695, -26.618737934622914, -0.06400000303983688, 0.04800000227987766, 1.0400000493973494, 0.0, 0.0, 0.0, 0.0, 0.0, 1.7622066249861505E9, 0.0, 2025-11-03 16:50:24.986
33.0, 304.2053323457949, -28.38397071370855, 279.72394723584875, 41.64939585654065, -0.06400000303983688, 0.04800000227987766, 1.0400000493973494, 0.0, 0.0, 0.0, 0.0, 0.0, 1.7622066249866817E9, 0.0, 2025-11-03 16:50:24.986
33.0, 261.7051092493348, -59.982385439332575, 238.62244672281668, -4.014782602433115, -0.06400000303983688, 0.04800000227987766, 1.0400000493973494, 0.0, 0.0, 0.0, 0.0, 0.0, 1.7622066249866817E9, 0.0, 2025-11-03 16:50:24.986
34.0, 240.78036899724975, -80.86224689194933, 217.58550947206095, -23.19298957521096, -0.06400000303983688, 0.04800000227987766, 1.0400000493973494, 0.0, 0.0, 0.0, 0.0, 0.0, 1.7622066250004425E9, 0.0, 2025-11-03 16:50:25.000
34.0, 289.4850861201994, -38.679915291722864, 261.581692550797, 22.508587883319706, -0.06400000303983688, 0.04800000227987766, 1.0400000493973494, 0.0, 0.0, 0.0, 0.0, 0.0, 1.7622066250004425E9, 0.0, 2025-11-03 16:50:25.000
35.0, 303.33019575616345, -17.822493238840252, 281.5602381140925, 43.900815629865974, -0.06400000303983688, 0.04800000227987766, 1.0400000493973494, 0.0, 0.0, 0.0, 0.0, 0.0, 1.7622066250159464E9, 0.0, 2025-11-03 16:50:25.015
35.0, 229.13432053523138, -82.41056547360495, 217.09184267790988, -20.107572111766785, -0.06400000303983688, 0.04800000227987766, 1.0400000493973494, 0.0, 0.0, 0.0, 0.0, 0.0, 1.7622066250159464E9, 0.0, 2025-11-03 16:50:25.015
36.0, 256.9479565056972, -61.998191515449435, 243.92188496002927, 0.805948440451175, -0.06400000303983688, 0.04800000227987766, 1.0400000493973494, 0.0, 0.0, 0.0, 0.0, 0.0, 1.7622066250166435E9, 0.0, 2025-11-03 16:50:25.016
36.0, 326.2483026846312, 7.152558665256947, 315.1333200163208, 77.74691022885963, -0.06400000303983688, 0.04800000227987766, 1.0400000493973494, 0.0, 0.0, 0.0, 0.0, 0.0, 1.7622066250166435E9, 0.0, 2025-11-03 16:50:25.016
37.0, 228.92488613771275, -85.9111118321307, 219.20488615287468, -16.68182375235483, -0.06400000303983688, 0.04800000227987766, 1.0400000493973494, 0.0, 0.0, 0.0, 0.0, 0.0, 1.762206625030242E9, 0.0, 2025-11-03 16:50:25.030
37.0, 228.70049214037135, -86.96202371967956, 216.77021128172055, -22.583385882433504, -0.06400000303983688, 0.04800000227987766, 1.0400000493973494, 0.0, 0.0, 0.0, 0.0, 0.0, 1.762206625030242E9, 0.0, 2025-11-03 16:50:25.030
38.0, 305.43575943121687, -19.367071920540184, 288.39303533313796, 50.10156975639984, -0.06400000303983688, 0.04800000227987766, 1.0400000493973494, 0.0, 0.0, 0.0, 0.0, 0.0, 1.7622066250459535E9, 0.0, 2025-11-03 16:50:25.045
38.0, 253.4324505473487, -61.36240852298215, 243.48057676525787, 4.347633698489517, -0.06400000303983688, 0.04800000227987766, 1.0400000493973494, 0.0, 0.0, 0.0, 0.0, 0.0, 1.7622066250459535E9, 0.0, 2025-11-03 16:50:25.045
39.0, 214.50009200861678, -100.88941115466878, 199.19642138993368, -32.39314346620813, -0.06400000303983688, 0.04800000227987766, 1.0400000493973494, 0.0, 0.0, 0.0, 0.0, 0.0, 1.7622066250466516E9, 0.0, 2025-11-03 16:50:25.046
39.0, 270.60233124392107, -55.32994989445433, 251.48396267043427, 15.683270464185625, -0.06400000303983688, 0.04800000227987766, 1.0400000493973494, 0.0, 0.0, 0.0, 0.0, 0.0, 1.7622066250466516E9, 0.0, 2025-11-03 16:50:25.046
40.0, 270.0450861505233, -52.95885332254693, 252.23568256152794, 12.115405906457454, -0.06400000303983688, 0.04800000227987766, 1.0400000493973494, 0.0, 0.0, 0.0, 0.0, 0.0, 1.762206625060267E9, 0.0, 2025-11-03 16:50:25.060
40.0, 208.4526737802662, -109.5884184516035, 192.221507972572, -45.63986910926178, -0.06400000303983688, 0.04800000227987766, 1.0400000493973494, 0.0, 0.0, 0.0, 0.0, 0.0, 1.762206625060267E9, 0.0, 2025-11-03 16:50:25.060
41.0, 259.31531317764893, -62.86584830516949, 246.07232743455097, 10.29407462803647, -0.06400000303983688, 0.04800000227987766, 1.0400000493973494, 0.0, 0.0, 0.0, 0.0, 0.0, 1.762206625076093E9, 0.0, 2025-11-03 16:50:25.076
41.0, 324.19135770900175, -1.1612389362417161, 304.52322384202853, 65.4949979740195, -0.06400000303983688, 0.04800000227987766, 1.0400000493973494, 0.0, 0.0, 0.0, 0.0, 0.0, 1.762206625076093E9, 0.0, 2025-11-03 16:50:25.076
42.0, 253.5147283463739, -65.5323969735764, 230.7948361155577, -7.971596755553037, -0.06400000303983688, 0.04800000227987766, 1.0400000493973494, 0.0, 0.0, 0.0, 0.0, 0.0, 1.7622066250766828E9, 0.0, 2025-11-03 16:50:25.076
42.0, 244.53522855276242, -73.48342427937314, 225.02417048392817, -16.038560959976166, -0.06400000303983688, 0.04800000227987766, 1.0400000493973494, 0.0, 0.0, 0.0, 0.0, 0.0, 1.7622066250766828E9, 0.0, 2025-11-03 16:50:25.076
43.0, 323.71639041462913, -3.214444011915475, 304.47834504256025, 61.8635551170446, -0.06400000303983688, 0.04800000227987766, 1.0400000493973494, 0.0, 0.0, 0.0, 0.0, 0.0, 1.76220662509028E9, 0.0, 2025-11-03 16:50:25.090
43.0, 255.31736012501642, -50.44564055232331, 259.45368947600946, 15.91888416139409, -0.06400000303983688, 0.04800000227987766, 1.0400000493973494, 0.0, 0.0, 0.0, 0.0, 0.0, 1.76220662509028E9, 0.0, 2025-11-03 16:50:25.090
44.0, 226.80810276279226, -80.30126189859584, 224.48936479026452, -18.035667536314577, -0.06400000303983688, 0.04800000227987766, 1.0400000493973494, 0.0, 0.0, 0.0, 0.0, 0.0, 1.7622066251061168E9, 0.0, 2025-11-03 16:50:25.106
44.0, 291.94594029104337, -23.301446673925966, 284.76159247616306, 44.17008842667565, -0.06400000303983688, 0.04800000227987766, 1.0400000493973494, 0.0, 0.0, 0.0, 0.0, 0.0, 1.7622066251061168E9, 0.0, 2025-11-03 16:50:25.106
45.0, 297.0172446309589, -19.269834521692246, 288.1536817359738, 51.414274640847, -0.06400000303983688, 0.04800000227987766, 1.0400000493973494, 0.0, 0.0, 0.0, 0.0, 0.0, 1.7622066251066513E9, 0.0, 2025-11-03 16:50:25.106
45.0, 218.51300466107205, -92.36617915565148, 216.788910781499, -19.1389380232431, -0.06400000303983688, 0.04800000227987766, 1.0400000493973494, 0.0, 0.0, 0.0, 0.0, 0.0, 1.7622066251066513E9, 0.0, 2025-11-03 16:50:25.106
46.0, 247.08958022249863, -70.80565591109917, 238.4317118250765, 1.5015698322094977, -0.06400000303983688, 0.04800000227987766, 1.0400000493973494, 0.0, 0.0, 0.0, 0.0, 0.0, 1.7622066251203592E9, 0.0, 2025-11-03 16:50:25.120
46.0, 306.62130771717057, -17.08573294756934, 291.4186143972911, 51.21232004323974, -0.06400000303983688, 0.04800000227987766, 1.0400000493973494, 0.0, 0.0, 0.0, 0.0, 0.0, 1.7622066251203592E9, 0.0, 2025-11-03 16:50:25.120
47.0, 202.45761415129527, -108.1448170687072, 196.2194610252045, -37.35973060736433, -0.06400000303983688, 0.04800000227987766, 1.0400000493973494, 0.0, 0.0, 0.0, 0.0, 0.0, 1.7622066251359944E9, 0.0, 2025-11-03 16:50:25.135
47.0, 214.66464760666713, -98.77262777974829, 206.47426670370623, -26.054013041313738, -0.06400000303983688, 0.04800000227987766, 1.0400000493973494, 0.0, 0.0, 0.0, 0.0, 0.0, 1.7622066251359944E9, 0.0, 2025-11-03 16:50:25.135
48.0, 308.96622498938814, -13.846979585941881, 296.5273177367635, 56.799730577040464, -0.06400000303983688, 0.04800000227987766, 1.0400000493973494, 0.0, 0.0, 0.0, 0.0, 0.0, 1.76220662513668E9, 0.0, 2025-11-03 16:50:25.136
48.0, 259.9922350696288, -56.358422382269055, 250.04784108744934, 11.431004214566201, -0.06400000303983688, 0.04800000227987766, 1.0400000493973494, 0.0, 0.0, 0.0, 0.0, 0.0, 1.76220662513668E9, 0.0, 2025-11-03 16:50:25.136
49.0, 223.65910700010136, -98.22660238621756, 208.95382037432864, -30.459615189116448, -0.06400000303983688, 0.04800000227987766, 1.0400000493973494, 0.0, 0.0, 0.0, 0.0, 0.0, 1.762206625150292E9, 0.0, 2025-11-03 16:50:25.150
49.0, 285.44973406801, -44.78343201940879, 261.9631623462774, 21.58857249421999, -0.06400000303983688, 0.04800000227987766, 1.0400000493973494, 0.0, 0.0, 0.0, 0.0, 0.0, 1.762206625150292E9, 0.0, 2025-11-03 16:50:25.150
50.0, 282.98140009725466, -35.54213922889903, 270.8192454413511, 29.805132696870714, -0.06400000303983688, 0.04800000227987766, 1.0400000493973494, 0.0, 0.0, 0.0, 0.0, 0.0, 1.7622066251660817E9, 0.0, 2025-11-03 16:50:25.166
50.0, 227.58974185353145, -85.02849544258788, 215.4126275978051, -23.89235086692497, -0.06400000303983688, 0.04800000227987766, 1.0400000493973494, 0.0, 0.0, 0.0, 0.0, 0.0, 1.7622066251660817E9, 0.0, 2025-11-03 16:50:25.166
51.0, 266.60437819128856, -58.17227386077866, 244.32579415524378, 2.503863020334393, -0.06400000303983688, 0.04800000227987766, 1.0400000493973494, 0.0, 0.0, 0.0, 0.0, 0.0, 1.7622066251666868E9, 0.0, 2025-11-03 16:50:25.166
51.0, 328.5820002569817, 1.5763678313232958, 312.70238504512236, 62.55169670889154, -0.06400000303983688, 0.04800000227987766, 1.0400000493973494, 0.0, 0.0, 0.0, 0.0, 0.0, 1.7622066251666868E9, 0.0, 2025-11-03 16:50:25.166
52.0, 234.34400117350742, -74.23514417046681, 228.752850739751, -17.51956134242937, -0.06400000303983688, 0.04800000227987766, 1.0400000493973494, 0.0, 0.0, 0.0, 0.0, 0.0, 1.762206625180308E9, 0.0, 2025-11-03 16:50:25.180
52.0, 252.14592496259138, -60.1207617376931, 239.11611351696774, -12.721269699279219, -0.06400000303983688, 0.04800000227987766, 1.0400000493973494, 0.0, 0.0, 0.0, 0.0, 0.0, 1.762206625180308E9, 0.0, 2025-11-03 16:50:25.180
53.0, 330.9269175291993, 7.803301257546991, 315.23055741516873, 68.55423613777384, -0.06400000303983688, 0.04800000227987766, 1.0400000493973494, 0.0, 0.0, 0.0, 0.0, 0.0, 1.7622066251959589E9, 0.0, 2025-11-03 16:50:25.195
53.0, 252.68073065625504, -64.54132348531857, 242.49324317695573, -0.966764138545841, -0.06400000303983688, 0.04800000227987766, 1.0400000493973494, 0.0, 0.0, 0.0, 0.0, 0.0, 1.7622066251959589E9, 0.0, 2025-11-03 16:50:25.195
54.0, 222.421200114768, -99.71882246853784, 201.68719476042315, -36.3686571191065, -0.06400000303983688, 0.04800000227987766, 1.0400000493973494, 0.0, 0.0, 0.0, 0.0, 0.0, 1.762206625196652E9, 0.0, 2025-11-03 16:50:25.196
54.0, 288.81190412817523, -37.31859170785174, 269.1849091607146, 29.59195839939639, -0.06400000303983688, 0.04800000227987766, 1.0400000493973494, 0.0, 0.0, 0.0, 0.0, 0.0, 1.762206625196652E9, 0.0, 2025-11-03 16:50:25.196
55.0, 296.7180526345037, -22.153297387529165, 288.1611615358852, 47.24428619025275, -0.06400000303983688, 0.04800000227987766, 1.0400000493973494, 0.0, 0.0, 0.0, 0.0, 0.0, 1.762206625210336E9, 0.0, 2025-11-03 16:50:25.210
55.0, 223.06446290714666, -88.6187994000502, 223.3112963042222, -16.74166215164587, -0.06400000303983688, 0.04800000227987766, 1.0400000493973494, 0.0, 0.0, 0.0, 0.0, 0.0, 1.762206625210336E9, 0.0, 2025-11-03 16:50:25.210
56.0, 263.4067637291737, -52.1173758325167, 258.9899418815039, 21.035067300777882, -0.06400000303983688, 0.04800000227987766, 1.0400000493973494, 0.0, 0.0, 0.0, 0.0, 0.0, 1.7622066252259572E9, 0.0, 2025-11-03 16:50:25.225
56.0, 312.5714885466732, -8.491442849393934, 298.318729815539, 61.68030001921579, -0.06400000303983688, 0.04800000227987766, 1.0400000493973494, 0.0, 0.0, 0.0, 0.0, 0.0, 1.7622066252259572E9, 0.0, 2025-11-03 16:50:25.225
57.0, 212.03175803786144, -103.67189672170207, 204.47716012736782, -31.865817572455853, -0.06400000303983688, 0.04800000227987766, 1.0400000493973494, 0.0, 0.0, 0.0, 0.0, 0.0, 1.7622066252266414E9, 0.0, 2025-11-03 16:50:25.226
57.0, 222.02103081950918, -98.92970357788727, 207.936567586381, -29.760253897402436, -0.06400000303983688, 0.04800000227987766, 1.0400000493973494, 0.0, 0.0, 0.0, 0.0, 0.0, 1.7622066252266414E9, 0.0, 2025-11-03 16:50:25.226
58.0, 308.7642703917809, -18.061846836004406, 294.1188221652992, 51.21605994319543, -0.06400000303983688, 0.04800000227987766, 1.0400000493973494, 0.0, 0.0, 0.0, 0.0, 0.0, 1.7622066252405164E9, 0.0, 2025-11-03 16:50:25.240
58.0, 262.6288645383902, -51.19362054346129, 260.65045746183023, 21.46515579568222, -0.06400000303983688, 0.04800000227987766, 1.0400000493973494, 0.0, 0.0, 0.0, 0.0, 0.0, 1.7622066252405164E9, 0.0, 2025-11-03 16:50:25.240
59.0, 212.03923783777282, -96.13225841103122, 210.79759105248377, -27.96884181862697, -0.06400000303983688, 0.04800000227987766, 1.0400000493973494, 0.0, 0.0, 0.0, 0.0, 0.0, 1.7622066252559268E9, 0.0, 2025-11-03 16:50:25.255
59.0, 291.6804073941894, -27.51631392398849, 284.2641857820563, 41.065971463453025, -0.06400000303983688, 0.04800000227987766, 1.0400000493973494, 0.0, 0.0, 0.0, 0.0, 0.0, 1.7622066252559268E9, 0.0, 2025-11-03 16:50:25.255
60.0, 299.66135389963165, -22.205655986908823, 283.08985719596967, 36.93338201241568, -0.06400000303983688, 0.04800000227987766, 1.0400000493973494, 0.0, 0.0, 0.0, 0.0, 0.0, 1.762206625256636E9, 0.0, 2025-11-03 16:50:25.256
60.0, 231.96542480168864, -90.53362817736343, 208.37039598124102, -34.214474744629115, -0.06400000303983688, 0.04800000227987766, 1.0400000493973494, 0.0, 0.0, 0.0, 0.0, 0.0, 1.762206625256636E9, 0.0, 2025-11-03 16:50:25.256
61.0, 234.63571337005123, -82.31332807475701, 213.7147130179219, -27.1049249288626, -0.06400000303983688, 0.04800000227987766, 1.0400000493973494, 0.0, 0.0, 0.0, 0.0, 0.0, 1.7622066252704775E9, 0.0, 2025-11-03 16:50:25.270
61.0, 317.7175908857025, -10.911158120725304, 298.7974370098673, 51.507772139739245, -0.06400000303983688, 0.04800000227987766, 1.0400000493973494, 0.0, 0.0, 0.0, 0.0, 0.0, 1.7622066252704775E9, 0.0, 2025-11-03 16:50:25.270
62.0, 214.28691771114245, -98.68661008076742, 204.50707932701334, -36.996960311662406, -0.06400000303983688, 0.04800000227987766, 1.0400000493973494, 0.0, 0.0, 0.0, 0.0, 0.0, 1.7622066252861943E9, 0.0, 2025-11-03 16:50:25.286
62.0, 208.12730248412117, -114.31939189555123, 193.36217745905742, -49.01325886929408, -0.06400000303983688, 0.04800000227987766, 1.0400000493973494, 0.0, 0.0, 0.0, 0.0, 0.0, 1.7622066252861943E9, 0.0, 2025-11-03 16:50:25.286
63.0, 323.6864712149836, -9.47129663778469, 300.1587605937384, 59.03993065049872, -0.06400000303983688, 0.04800000227987766, 1.0400000493973494, 0.0, 0.0, 0.0, 0.0, 0.0, 1.7622066252866836E9, 0.0, 2025-11-03 16:50:25.286
63.0, 246.1770446333103, -73.50960357906297, 230.791096215602, -6.771088869776577, -0.06400000303983688, 0.04800000227987766, 1.0400000493973494, 0.0, 0.0, 0.0, 0.0, 0.0, 1.7622066252866836E9, 0.0, 2025-11-03 16:50:25.286
64.0, 223.3449554038234, -94.86069242609665, 208.86406277539209, -22.3253327854909, -0.06400000303983688, 0.04800000227987766, 1.0400000493973494, 0.0, 0.0, 0.0, 0.0, 0.0, 1.7622066253003297E9, 0.0, 2025-11-03 16:50:25.300
64.0, 280.83095762273297, -45.60994990961626, 266.3351053944789, 31.18515578052029, -0.06400000303983688, 0.04800000227987766, 1.0400000493973494, 0.0, 0.0, 0.0, 0.0, 0.0, 1.7622066253003297E9, 0.0, 2025-11-03 16:50:25.300
65.0, 290.33030351018533, -36.200361621100456, 268.8520580646582, 29.883670595940202, -0.06400000303983688, 0.04800000227987766, 1.0400000493973494, 0.0, 0.0, 0.0, 0.0, 0.0, 1.762206625316003E9, 0.0, 2025-11-03 16:50:25.316
