%OpenBCI Raw EXG Data
%Number of channels = 4
%Sample Rate = 200 Hz
%Board = OpenBCI_GUI$BoardGanglionBLE
Sample Index, EXG Channel 0, EXG Channel 1, EXG Channel 2, EXG Channel 3, Accel Channel 0, Accel Channel 1, Accel Channel 2, Other, Other, Other, Other, Other, Timestamp, Marker Channel, Timestamp (Formatted)
4.0, 134.08289321139455, 117.313181810081, 128.56654077675194, 127.08554039429873, 0.0, 0.0, 0.0, 0.0, 0.0, 0.0, 0.0, 0.0, 1.7622064020263205E9, 0.0, 2025-11-03 16:46:42.026
4.0, 212.55160413170233, 61.58867247030139, 261.6265713502653, 11.141161968000233, 0.0, 0.0, 0.0, 0.0, 0.0, 0.0, 0.0, 0.0, 1.7622064020263205E9, 0.0, 2025-11-03 16:46:42.026
0.0, 316.93595179496333, -11.997599057853222, 282.5700111021288, 40.86027696589008, 0.0, 0.0, 0.0, 0.0, 0.0, 0.0, 0.0, 0.0, 1.7622064020495148E9, 0.0, 2025-11-03 16:46:42.049
1.0, 262.3558518416248, -69.29660627897829, 222.02851061942056, -27.703308921772987, 0.0, -0.06400000303983688, 0.0, 0.0, 0.0, 0.0, 0.0, 0.0, 1.7622064020628412E9, 0.0, 2025-11-03 16:46:42.062
1.0, 333.04370090411976, -12.435167352668941, 289.1971138236113, 48.20918037882075, 0.0, -0.06400000303983688, 0.0, 0.0, 0.0, 0.0, 0.0, 0.0, 1.7622064020628412E9, 0.0, 2025-11-03 16:46:42.062
2.0, 340.71423571323976, 7.390042312443256, 314.37786022527143, 80.40971899731085, -0.04800000227987766, -0.06400000303983688, 0.0, 0.0, 0.0, 0.0, 0.0, 0.0, 1.762206402079543E9, 0.0, 2025-11-03 16:46:42.079
2.0, 320.0924273575656, -16.44808000512421, 282.9963596970774, 49.540584763046354, -0.04800000227987766, -0.06400000303983688, 0.0, 0.0, 0.0, 0.0, 0.0, 0.0, 1.762206402079543E9, 0.0, 2025-11-03 16:46:42.079
3.0, 261.0319272573106, -72.06039234623313, 228.37138094427064, -19.08657942386344, -0.04800000227987766, -0.06400000303983688, 0.0, 0.0, 0.0, 0.0, 0.0, 0.0, 1.7622064020802763E9, 0.0, 2025-11-03 16:46:42.080
3.0, 367.1927273995243, 22.727372030727565, 332.23962241364643, 89.48645618977025, -0.04800000227987766, -0.06400000303983688, 0.0, 0.0, 0.0, 0.0, 0.0, 0.0, 1.7622064020802763E9, 0.0, 2025-11-03 16:46:42.080
4.0, 302.6158748646267, -23.034043827094138, 280.7374601238407, 40.5573450694792, -0.04800000227987766, -0.06400000303983688, 0.0, 0.0, 0.0, 0.0, 0.0, 0.0, 1.7622064020926569E9, 0.0, 2025-11-03 16:46:42.092
4.0, 272.1020311261527, -49.77432851027697, 251.5774601693265, 1.2622162350453436, -0.04800000227987766, -0.06400000303983688, 0.0, 0.0, 0.0, 0.0, 0.0, 0.0, 1.7622064020926569E9, 0.0, 2025-11-03 16:46:42.092
5.0, 360.72270047618076, 17.211019596084952, 326.01268898742273, 82.24600987555459, -0.04800000227987766, -0.06400000303983688, 0.0, 0.0, 0.0, 0.0, 0.0, 0.0, 1.7622064021083338E9, 0.0, 2025-11-03 16:46:42.108
5.0, 329.8386066420935, 6.0548980282619596, 310.9857709654607, 64.01773749152198, -0.04800000227987766, -0.06400000303983688, 0.0, 0.0, 0.0, 0.0, 0.0, 0.0, 1.7622064021083338E9, 0.0, 2025-11-03 16:46:42.108
6.0, 286.788618252147, -27.693959171883762, 278.35140395211056, 34.67074253922328, -0.04800000227987766, -0.06400000303983688, 0.0, 0.0, 0.0, 0.0, 0.0, 0.0, 1.7622064021090276E9, 0.0, 2025-11-03 16:46:42.109
6.0, 323.4994762171991, 1.4323816830292344, 311.572935258504, 66.81892255833372, -0.04800000227987766, -0.06400000303983688, 0.0, 0.0, 0.0, 0.0, 0.0, 0.0, 1.7622064021090276E9, 0.0, 2025-11-03 16:46:42.109
7.0, 347.9546820274554, 29.163739854469895, 342.15783709613606, 98.3986377841793, -0.04800000227987766, -0.06400000303983688, 0.0, 0.0, 0.0, 0.0, 0.0, 0.0, 1.7622064021227663E9, 0.0, 2025-11-03 16:46:42.122
7.0, 291.5008921963163, -20.94717965181917, 283.6321426895447, 47.061031092423946, -0.04800000227987766, -0.06400000303983688, 0.0, 0.0, 0.0, 0.0, 0.0, 0.0, 1.7622064021227663E9, 0.0, 2025-11-03 16:46:42.122
8.0, 297.6492877234705, -23.127541325986385, 288.43043433269486, 53.03365132166073, -0.04800000227987766, -0.06400000303983688, 0.0, 0.0, 0.0, 0.0, 0.0, 0.0, 1.7622064021383178E9, 0.0, 2025-11-03 16:46:42.138
8.0, 368.5278716837056, 43.696991082280874, 357.99257350852713, 113.27221990795806, -0.04800000227987766, -0.06400000303983688, 0.0, 0.0, 0.0, 0.0, 0.0, 0.0, 1.7622064021383178E9, 0.0, 2025-11-03 16:46:42.138
9.0, 283.92011498613283, -27.73509807139635, 281.4517810153775, 42.31883794860914, -0.04800000227987766, -0.06400000303983688, 0.0, 0.0, 0.0, 0.0, 0.0, 0.0, 1.762206402139037E9, 0.0, 2025-11-03 16:46:42.139
9.0, 278.4523812509142, -31.79662942327559, 276.95268136868253, 39.71586757944897, -0.04800000227987766, -0.06400000303983688, 0.0, 0.0, 0.0, 0.0, 0.0, 0.0, 1.762206402139037E9, 0.0, 2025-11-03 16:46:42.139
10.0, 344.16616337234154, 18.85283567663282, 338.3655785410665, 98.8810848784633, -0.04800000227987766, -0.06400000303983688, 1.0400000493973494, 0.0, 0.0, 0.0, 0.0, 0.0, 1.76220640215268E9, 0.0, 2025-11-03 16:46:42.152
10.0, 291.21665979968384, -17.409234293736517, 299.51549780135974, 67.31258935248479, -0.04800000227987766, -0.06400000303983688, 1.0400000493973494, 0.0, 0.0, 0.0, 0.0, 0.0, 1.76220640215268E9, 0.0, 2025-11-03 16:46:42.152
11.0, 258.1484643914737, -56.40891103167087, 255.68387032067403, 10.787741422187537, -0.04800000227987766, -0.03200000151991844, 1.0400000493973494, 0.0, 0.0, 0.0, 0.0, 0.0, 1.7622064021683345E9, 0.0, 2025-11-03 16:46:42.168
11.0, 302.3877409673296, -22.794690229929984, 296.7965905335732, 56.25744508346543, -0.04800000227987766, -0.03200000151991844, 1.0400000493973494, 0.0, 0.0, 0.0, 0.0, 0.0, 1.7622064021683345E9, 0.0, 2025-11-03 16:46:42.168
12.0, 337.105232255999, 14.533251227810979, 336.20017646672204, 99.27377437381074, -0.03200000151991844, -0.03200000151991844, 1.0400000493973494, 0.0, 0.0, 0.0, 0.0, 0.0, 1.7622064021690493E9, 0.0, 2025-11-03 16:46:42.169
12.0, 266.7726736892946, -50.885078797116876, 263.5563597274013, 30.066925693769008, -0.03200000151991844, -0.03200000151991844, 1.0400000493973494, 0.0, 0.0, 0.0, 0.0, 0.0, 1.7622064021690493E9, 0.0, 2025-11-03 16:46:42.169
13.0, 291.36251589795575, -29.44797225110233, 281.964147309307, 47.55469788657501, -0.03200000151991844, -0.03200000151991844, 1.0400000493973494, 0.0, 0.0, 0.0, 0.0, 0.0, 1.762206402182712E9, 0.0, 2025-11-03 16:46:42.182
13.0, 341.4809152041562, 9.054297792725265, 322.67669822694734, 84.96117724338546, -0.03200000151991844, -0.03200000151991844, 1.0400000493973494, 0.0, 0.0, 0.0, 0.0, 0.0, 1.762206402182712E9, 0.0, 2025-11-03 16:46:42.182
14.0, 257.3331662011333, -53.98171596042812, 251.8055940666236, 24.449595960322767, -0.03200000151991844, -0.03200000151991844, 1.0400000493973494, 0.0, 0.0, 0.0, 0.0, 0.0, 1.7622064021983588E9, 0.0, 2025-11-03 16:46:42.198
14.0, 248.60797960450873, -69.3639244781807, 230.69385881675407, -2.9638707148842514, -0.03200000151991844, -0.03200000151991844, 1.0400000493973494, 0.0, 0.0, 0.0, 0.0, 0.0, 1.7622064021983588E9, 0.0, 2025-11-03 16:46:42.198
15.0, 324.15021880948916, -2.890942665748298, 305.66015342855826, 70.37930731615052, -0.03200000151991844, -0.03200000151991844, 1.0400000493973494, 0.0, 0.0, 0.0, 0.0, 0.0, 1.7622064021990376E9, 0.0, 2025-11-03 16:46:42.199
15.0, 294.59004955971614, -17.988918786868453, 295.95885294349864, 56.10410918528214, -0.03200000151991844, -0.03200000151991844, 1.0400000493973494, 0.0, 0.0, 0.0, 0.0, 0.0, 1.7622064021990376E9, 0.0, 2025-11-03 16:46:42.199
16.0, 256.53656751057133, -59.59156589396298, 244.0640011583455, 6.329780675005168, -0.03200000151991844, -0.03200000151991844, 1.0400000493973494, 0.0, 0.0, 0.0, 0.0, 0.0, 1.7622064022126708E9, 0.0, 2025-11-03 16:46:42.212
16.0, 304.1230545467697, -19.36520197056234, 286.8222773517482, 61.945832916069776, -0.03200000151991844, -0.03200000151991844, 1.0400000493973494, 0.0, 0.0, 0.0, 0.0, 0.0, 1.7622064022126708E9, 0.0, 2025-11-03 16:46:42.212
17.0, 318.18133848020807, -4.656175444833934, 299.81094989785925, 53.927487411070615, -0.03200000151991844, -0.03200000151991844, 1.0400000493973494, 0.0, 0.0, 0.0, 0.0, 0.0, 1.76220640222843E9, 0.0, 2025-11-03 16:46:42.228
17.0, 250.7322427793406, -63.48106184788048, 240.03238900611177, 2.8329742164351046, -0.03200000151991844, -0.03200000151991844, 1.0400000493973494, 0.0, 0.0, 0.0, 0.0, 0.0, 1.76220640222843E9, 0.0, 2025-11-03 16:46:42.228
18.0, 268.16391647281125, -56.06110033579171, 247.34763331944123, 2.167272024322301, -0.03200000151991844, -0.03200000151991844, 1.0400000493973494, 0.0, 0.0, 0.0, 0.0, 0.0, 1.7622064022290604E9, 0.0, 2025-11-03 16:46:42.229
18.0, 333.23443580185995, -0.4188687950372696, 312.1376601518132, 72.39137349231169, -0.03200000151991844, -0.03200000151991844, 1.0400000493973494, 0.0, 0.0, 0.0, 0.0, 0.0, 1.7622064022290604E9, 0.0, 2025-11-03 16:46:42.229
19.0, 263.4778218283318, -56.71558282803744, 242.63535937527195, -2.6758984182961285, -0.03200000151991844, -0.03200000151991844, 1.0400000493973494, 0.0, 0.0, 0.0, 0.0, 0.0, 1.762206402242652E9, 0.0, 2025-11-03 16:46:42.242
19.0, 249.6514116921462, -74.12481712177396, 232.25713699823245, -10.574567124713212, -0.03200000151991844, -0.03200000151991844, 1.0400000493973494, 0.0, 0.0, 0.0, 0.0, 0.0, 1.762206402242652E9, 0.0, 2025-11-03 16:46:42.242
20.0, 335.5082949749194, -3.5117660583928227, 303.32645585620776, 58.5649633561261, -0.03200000151991844, -0.03200000151991844, 0.5280000250786543, 0.0, 0.0, 0.0, 0.0, 0.0, 1.7622064022584126E9, 0.0, 2025-11-03 16:46:42.258
20.0, 285.20664057089016, -33.67779910098761, 272.05341242672876, 31.18889568047598, -0.03200000151991844, -0.03200000151991844, 0.5280000250786543, 0.0, 0.0, 0.0, 0.0, 0.0, 1.7622064022584126E9, 0.0, 2025-11-03 16:46:42.258
21.0, 248.2863482083194, -71.12541735731065, 232.61616739397869, -9.82658713357523, -0.03200000151991844, -0.04800000227987766, 0.5280000250786543, 0.0, 0.0, 0.0, 0.0, 0.0, 1.7622064022590396E9, 0.0, 2025-11-03 16:46:42.259
21.0, 307.9040934019722, -26.003524391911924, 287.28976484620944, 50.95800684625283, -0.03200000151991844, -0.04800000227987766, 0.5280000250786543, 0.0, 0.0, 0.0, 0.0, 0.0, 1.7622064022590396E9, 0.0, 2025-11-03 16:46:42.259
22.0, 319.8642934602685, -6.197014226578176, 302.85522846179083, 67.66040004836395, -0.03200000151991844, -0.04800000227987766, 0.5280000250786543, 0.0, 0.0, 0.0, 0.0, 0.0, 1.762206402272651E9, 0.0, 2025-11-03 16:46:42.272
22.0, 244.22107695648447, -68.76928038522601, 237.11152714071795, 0.26366294687613845, -0.03200000151991844, -0.04800000227987766, 0.5280000250786543, 0.0, 0.0, 0.0, 0.0, 0.0, 1.762206402272651E9, 0.0, 2025-11-03 16:46:42.272
23.0, 261.5405536512844, -58.963262701407075, 241.92851828364655, 7.534028460737318, -0.03200000151991844, -0.04800000227987766, 0.5280000250786543, 0.0, 0.0, 0.0, 0.0, 0.0, 1.762206402288885E9, 0.0, 2025-11-03 16:46:42.288
23.0, 341.821246100124, 15.606602515093982, 322.18677133275196, 83.15854546474293, -0.03200000151991844, -0.04800000227987766, 0.5280000250786543, 0.0, 0.0, 0.0, 0.0, 0.0, 1.762206402288885E9, 0.0, 2025-11-03 16:46:42.288
24.0, 249.3260403960012, -63.49228154774755, 236.95445134257898, -2.369226621929556, -0.03200000151991844, -0.04800000227987766, 0.5280000250786543, 0.0, 0.0, 0.0, 0.0, 0.0, 1.7622064022891004E9, 0.0, 2025-11-03 16:46:42.289
24.0, 255.04808732820675, -69.32278557866812, 227.21949175791815, -7.814520957414061, -0.03200000151991844, -0.04800000227987766, 0.5280000250786543, 0.0, 0.0, 0.0, 0.0, 0.0, 1.7622064022891004E9, 0.0, 2025-11-03 16:46:42.289
25.0, 320.41031885379925, -9.69382068514824, 298.25889141624793, 59.45879944553599, -0.03200000151991844, -0.04800000227987766, 0.5280000250786543, 0.0, 0.0, 0.0, 0.0, 0.0, 1.7622064023026533E9, 0.0, 2025-11-03 16:46:42.302
25.0, 282.3792762043886, -29.960338545031846, 269.61125775566325, 37.15403610980138, -0.03200000151991844, -0.04800000227987766, 0.5280000250786543, 0.0, 0.0, 0.0, 0.0, 0.0, 1.7622064023026533E9, 0.0, 2025-11-03 16:46:42.302
26.0, 254.41230433573946, -67.0713658053428, 229.1978988344781, -12.852166197728366, -0.03200000151991844, -0.04800000227987766, 0.5280000250786543, 0.0, 0.0, 0.0, 0.0, 0.0, 1.762206402318398E9, 0.0, 2025-11-03 16:46:42.318
26.0, 292.5181449842639, -39.426025332883, 264.0612462214194, 22.8077798797749, -0.03200000151991844, -0.04800000227987766, 0.5280000250786543, 0.0, 0.0, 0.0, 0.0, 0.0, 1.762206402318398E9, 0.0, 2025-11-03 16:46:42.318
27.0, 312.07782175252214, -14.832443224266171, 288.8567829276435, 42.88730274187401, -0.03200000151991844, -0.04800000227987766, 0.5280000250786543, 0.0, 0.0, 0.0, 0.0, 0.0, 1.7622064023196104E9, 0.0, 2025-11-03 16:46:42.319
27.0, 253.30903384881094, -67.13494410458952, 227.32046905672178, -12.70631009945646, -0.03200000151991844, -0.04800000227987766, 0.5280000250786543, 0.0, 0.0, 0.0, 0.0, 0.0, 1.7622064023196104E9, 0.0, 2025-11-03 16:46:42.319
28.0, 269.01287376275286, -60.08897258806974, 235.64174645813182, 6.554174672346562, -0.03200000151991844, -0.04800000227987766, 0.5280000250786543, 0.0, 0.0, 0.0, 0.0, 0.0, 1.762206402332631E9, 0.0, 2025-11-03 16:46:42.332
28.0, 349.79845270561054, 17.981438986957073, 316.47594410041347, 74.92328576231375, -0.03200000151991844, -0.04800000227987766, 0.5280000250786543, 0.0, 0.0, 0.0, 0.0, 0.0, 1.762206402332631E9, 0.0, 2025-11-03 16:46:42.332
29.0, 254.6927968324162, -63.51846084743738, 233.30430898582563, -4.744063093792647, -0.03200000151991844, -0.04800000227987766, 0.5280000250786543, 0.0, 0.0, 0.0, 0.0, 0.0, 1.7622064023483331E9, 0.0, 2025-11-03 16:46:42.348
29.0, 233.4950438835658, -86.09623687993735, 215.0498573021032, -17.777614439371973, -0.03200000151991844, -0.04800000227987766, 0.5280000250786543, 0.0, 0.0, 0.0, 0.0, 0.0, 1.7622064023483331E9, 0.0, 2025-11-03 16:46:42.348
30.0, 323.4695570175536, -13.160707944072783, 296.40390103822574, 61.983231915626675, -0.03200000151991844, -0.04800000227987766, 0.7840000372380018, 0.0, 0.0, 0.0, 0.0, 0.0, 1.762206402349035E9, 0.0, 2025-11-03 16:46:42.349
30.0, 275.28094608848915, -49.12358591798693, 254.63669833308086, 16.808980350848287, -0.03200000151991844, -0.04800000227987766, 0.7840000372380018, 0.0, 0.0, 0.0, 0.0, 0.0, 1.762206402349035E9, 0.0, 2025-11-03 16:46:42.349
31.0, 245.58988034026697, -79.9665408525616, 224.11537479469553, -13.775921486783773, -0.03200000151991844, -0.04800000227987766, 0.7840000372380018, 0.0, 0.0, 0.0, 0.0, 0.0, 1.7622064023626432E9, 0.0, 2025-11-03 16:46:42.362
31.0, 293.95800646720454, -39.209111135452986, 264.86906461184844, 32.191188868600875, -0.03200000151991844, -0.04800000227987766, 0.7840000372380018, 0.0, 0.0, 0.0, 0.0, 0.0, 1.7622064023626432E9, 0.0, 2025-11-03 16:46:42.362
32.0, 327.11221957439557, 4.091450551524758, 306.26227732142434, 70.89541351003572, -0.04800000227987766, -0.04800000227987766, 0.7840000372380018, 0.0, 0.0, 0.0, 0.0, 0.0, 1.7622064023783424E9, 0.0, 2025-11-03 16:46:42.378
32.0, 268.3733508703299, -45.20417076442391, 246.37525933096185, 8.62607924779877, -0.04800000227987766, -0.04800000227987766, 0.7840000372380018, 0.0, 0.0, 0.0, 0.0, 0.0, 1.7622064023783424E9, 0.0, 2025-11-03 16:46:42.378
33.0, 289.6384220183827, -36.66597916558385, 258.97872218163684, 22.437529784161597, -0.04800000227987766, -0.04800000227987766, 0.7840000372380018, 0.0, 0.0, 0.0, 0.0, 0.0, 1.7622064023790429E9, 0.0, 2025-11-03 16:46:42.379
33.0, 359.61569008929655, 34.88952668663114, 335.42601717589423, 100.72859545657411, -0.04800000227987766, -0.04800000227987766, 0.7840000372380018, 0.0, 0.0, 0.0, 0.0, 0.0, 1.7622064023790429E9, 0.0, 2025-11-03 16:46:42.379
34.0, 276.4739741743542, -34.50805689115077, 262.3184528420679, 34.53984604077414, -0.04800000227987766, -0.04800000227987766, 0.7840000372380018, 0.0, 0.0, 0.0, 0.0, 0.0, 1.7622064023926852E9, 0.0, 2025-11-03 16:46:42.392
34.0, 255.87460521841422, -63.428703248500824, 227.3877872559242, -26.188649439718574, -0.04800000227987766, -0.04800000227987766, 0.7840000372380018, 0.0, 0.0, 0.0, 0.0, 0.0, 1.7622064023926852E9, 0.0, 2025-11-03 16:46:42.392
35.0, 328.3239471600391, -3.4519276591017842, 297.353835626971, 44.289765225257725, -0.04800000227987766, -0.04800000227987766, 0.7840000372380018, 0.0, 0.0, 0.0, 0.0, 0.0, 1.76220640240865E9, 0.0, 2025-11-03 16:46:42.408
35.0, 302.63083446444944, -15.569203515537083, 282.7794454996474, 34.80911883758381, -0.04800000227987766, -0.04800000227987766, 0.7840000372380018, 0.0, 0.0, 0.0, 0.0, 0.0, 1.76220640240865E9, 0.0, 2025-11-03 16:46:42.408
36.0, 260.63549786200747, -51.670457787811756, 243.73488996224478, 6.610273171681911, -0.04800000227987766, -0.04800000227987766, 0.7840000372380018, 0.0, 0.0, 0.0, 0.0, 0.0, 1.7622064024090245E9, 0.0, 2025-11-03 16:46:42.409
36.0, 307.8629545024596, -11.047664469107985, 297.7053862228058, 64.90409378102049, -0.04800000227987766, -0.04800000227987766, 0.7840000372380018, 0.0, 0.0, 0.0, 0.0, 0.0, 1.7622064024090245E9, 0.0, 2025-11-03 16:46:42.409
37.0, 324.9131584004499, 1.6792150801047683, 307.84425500268117, 59.03245085058734, -0.04800000227987766, -0.04800000227987766, 0.7840000372380018, 0.0, 0.0, 0.0, 0.0, 0.0, 1.7622064024226553E9, 0.0, 2025-11-03 16:46:42.422
37.0, 259.3714116769843, -50.110919506289065, 252.41145785944536, 8.21843015262857, -0.04800000227987766, -0.04800000227987766, 0.7840000372380018, 0.0, 0.0, 0.0, 0.0, 0.0, 1.7622064024226553E9, 0.0, 2025-11-03 16:46:42.422
38.0, 273.8485644054599, -43.83162748068571, 263.9901881222613, 24.561792958993465, -0.04800000227987766, -0.04800000227987766, 0.7840000372380018, 0.0, 0.0, 0.0, 0.0, 0.0, 1.7622064024383783E9, 0.0, 2025-11-03 16:46:42.438
38.0, 337.34832575311884, 10.303424377925694, 329.9470637408085, 99.57296637026593, -0.04800000227987766, -0.04800000227987766, 0.7840000372380018, 0.0, 0.0, 0.0, 0.0, 0.0, 1.7622064024383783E9, 0.0, 2025-11-03 16:46:42.438
39.0, 261.34607885358855, -53.45812996663153, 249.73742939112708, 5.84359368076548, -0.04800000227987766, -0.04800000227987766, 0.7840000372380018, 0.0, 0.0, 0.0, 0.0, 0.0, 1.7622064024390252E9, 0.0, 2025-11-03 16:46:42.439
39.0, 247.74406271474436, -74.68206221517175, 238.0614617294632, 4.5271488963626325, -0.04800000227987766, -0.04800000227987766, 0.7840000372380018, 0.0, 0.0, 0.0, 0.0, 0.0, 1.7622064024390252E9, 0.0, 2025-11-03 16:46:42.439
40.0, 305.77983022714034, -30.15107344277203, 281.53779871435836, 49.117976068053395, -0.04800000227987766, -0.04800000227987766, 0.9120000433176756, 0.0, 0.0, 0.0, 0.0, 0.0, 1.7622064024526284E9, 0.0, 2025-11-03 16:46:42.452
40.0, 264.98126161051914, -52.03696798346937, 253.07342015160248, 19.86447861464694, -0.04800000227987766, -0.04800000227987766, 0.9120000433176756, 0.0, 0.0, 0.0, 0.0, 0.0, 1.7622064024526284E9, 0.0, 2025-11-03 16:46:42.452
41.0, 244.66238515125588, -74.24449392035604, 221.4563059262, -18.570473229978234, -0.04800000227987766, -0.04800000227987766, 0.9120000433176756, 0.0, 0.0, 0.0, 0.0, 0.0, 1.7622064024680448E9, 0.0, 2025-11-03 16:46:42.468
41.0, 308.66329309297726, -27.245171177200973, 267.961961875204, 35.92734892433509, -0.04800000227987766, -0.04800000227987766, 0.9120000433176756, 0.0, 0.0, 0.0, 0.0, 0.0, 1.7622064024680448E9, 0.0, 2025-11-03 16:46:42.468
42.0, 323.8697263128124, -7.898668706417084, 291.7589452932589, 54.308957206550986, -0.04800000227987766, -0.04800000227987766, 0.9120000433176756, 0.0, 0.0, 0.0, 0.0, 0.0, 1.762206402483327E9, 0.0, 2025-11-03 16:46:42.483
42.0, 260.22784876683727, -57.403724419884384, 232.73210429260507, 5.323747586924583, -0.04800000227987766, -0.04800000227987766, 0.9120000433176756, 0.0, 0.0, 0.0, 0.0, 0.0, 1.762206402483327E9, 0.0, 2025-11-03 16:46:42.483
43.0, 265.2916733068414, -59.85335889086127, 229.5681489300914, -15.48879566648975, -0.04800000227987766, -0.04800000227987766, 0.9120000433176756, 0.0, 0.0, 0.0, 0.0, 0.0, 1.7622064024840171E9, 0.0, 2025-11-03 16:46:42.484
43.0, 339.4464096282609, 12.375328953377903, 306.29219652106985, 65.40898027503863, -0.04800000227987766, -0.04800000227987766, 0.9120000433176756, 0.0, 0.0, 0.0, 0.0, 0.0, 1.7622064024840171E9, 0.0, 2025-11-03 16:46:42.484
44.0, 281.5564982141368, -37.01378986146301, 253.88871834194288, 18.75746822776273, -0.04800000227987766, -0.04800000227987766, 0.9120000433176756, 0.0, 0.0, 0.0, 0.0, 0.0, 1.7622064024983597E9, 0.0, 2025-11-03 16:46:42.498
44.0, 246.03492843499407, -67.23966130334884, 227.21949175791815, -9.84902653330937, -0.04800000227987766, -0.04800000227987766, 0.9120000433176756, 0.0, 0.0, 0.0, 0.0, 0.0, 1.7622064024983597E9, 0.0, 2025-11-03 16:46:42.498
45.0, 314.89022651920095, -15.442046917043626, 289.8328968160786, 46.15597530314699, -0.04800000227987766, -0.04800000227987766, 0.9120000433176756, 0.0, 0.0, 0.0, 0.0, 0.0, 1.762206402499066E9, 0.0, 2025-11-03 16:46:42.499
45.0, 276.27201957674697, -39.74017692916095, 257.60991879785433, 13.05786069529131, -0.04800000227987766, -0.04800000227987766, 0.9120000433176756, 0.0, 0.0, 0.0, 0.0, 0.0, 1.762206402499066E9, 0.0, 2025-11-03 16:46:42.499
46.0, 230.23011122224852, -84.88450929429382, 212.76477842917666, -30.45213538920507, -0.04800000227987766, -0.04800000227987766, 0.9120000433176756, 0.0, 0.0, 0.0, 0.0, 0.0, 1.7622064025126848E9, 0.0, 2025-11-03 16:46:42.512
46.0, 281.95292760943994, -45.656698659062386, 254.48336243489757, 12.152804906014353, -0.04800000227987766, -0.04800000227987766, 0.9120000433176756, 0.0, 0.0, 0.0, 0.0, 0.0, 1.7622064025126848E9, 0.0, 2025-11-03 16:46:42.512
47.0, 311.95814495394006, -16.88938819989562, 288.7408460290171, 47.02363209286705, -0.04800000227987766, -0.04800000227987766, 0.9120000433176756, 0.0, 0.0, 0.0, 0.0, 0.0, 1.762206402528847E9, 0.0, 2025-11-03 16:46:42.528
47.0, 245.45150404190645, -74.42026921827346, 220.88784113293514, -16.35271255625412, -0.04800000227987766, -0.04800000227987766, 0.9120000433176756, 0.0, 0.0, 0.0, 0.0, 0.0, 1.762206402528847E9, 0.0, 2025-11-03 16:46:42.528
48.0, 272.31894532358274, -58.00958821270615, 248.31626740796492, 9.05616774270311, -0.04800000227987766, -0.04800000227987766, 0.9120000433176756, 0.0, 0.0, 0.0, 0.0, 0.0, 1.7622064025435033E9, 0.0, 2025-11-03 16:46:42.543
48.0, 337.75971474824473, -8.785024995915592, 302.1596070700325, 61.85233541717753, -0.04800000227987766, -0.04800000227987766, 0.9120000433176756, 0.0, 0.0, 0.0, 0.0, 0.0, 1.7622064025435033E9, 0.0, 2025-11-03 16:46:42.543
49.0, 253.22301614983007, -71.6265639513731, 230.41710622003302, -8.412904950324446, -0.04800000227987766, -0.04800000227987766, 0.9120000433176756, 0.0, 0.0, 0.0, 0.0, 0.0, 1.762206402544037E9, 0.0, 2025-11-03 16:46:42.544
49.0, 244.71474375063553, -84.99296639300883, 213.03779112594202, -25.709942245390266, -0.04800000227987766, -0.04800000227987766, 0.9120000433176756, 0.0, 0.0, 0.0, 0.0, 0.0, 1.762206402544037E9, 0.0, 2025-11-03 16:46:42.544
50.0, 316.9022926953621, -21.624101543799043, 282.9253015979193, 38.246086896862835, -0.04800000227987766, -0.04800000227987766, 0.9760000463575125, 0.0, 0.0, 0.0, 0.0, 0.0, 1.7622064025588045E9, 0.0, 2025-11-03 16:46:42.558
50.0, 287.2299264469184, -36.11247397214174, 259.23677527857944, 16.464909554924816, -0.04800000227987766, -0.04800000227987766, 0.9760000463575125, 0.0, 0.0, 0.0, 0.0, 0.0, 1.7622064025588045E9, 0.0, 2025-11-03 16:46:42.558
51.0, 247.8375602136366, -77.49446698185056, 215.0087184025906, -24.127964564133435, -0.04800000227987766, -0.06400000303983688, 0.9760000463575125, 0.0, 0.0, 0.0, 0.0, 0.0, 1.7622064025591116E9, 0.0, 2025-11-03 16:46:42.559
51.0, 292.7574985814281, -42.97519039083272, 252.73682915559039, 13.09525969484821, -0.04800000227987766, -0.06400000303983688, 0.9760000463575125, 0.0, 0.0, 0.0, 0.0, 0.0, 1.7622064025591116E9, 0.0, 2025-11-03 16:46:42.559
52.0, 318.170118780341, -11.369295865297318, 283.9014154863544, 44.92180831776932, -0.04800000227987766, -0.06400000303983688, 0.9760000463575125, 0.0, 0.0, 0.0, 0.0, 0.0, 1.7622064025726545E9, 0.0, 2025-11-03 16:46:42.572
52.0, 247.63186571607366, -76.2565600965172, 215.53604429634288, -26.33450553799048, -0.04800000227987766, -0.06400000303983688, 0.9760000463575125, 0.0, 0.0, 0.0, 0.0, 0.0, 1.7622064025726545E9, 0.0, 2025-11-03 16:46:42.572
53.0, 279.6977679361589, -55.89654473774135, 238.41301232529804, -6.22880337620154, -0.04800000227987766, -0.06400000303983688, 0.9760000463575125, 0.0, 0.0, 0.0, 0.0, 0.0, 1.76220640258838E9, 0.0, 2025-11-03 16:46:42.588
53.0, 336.78734075976536, -7.311504413373768, 294.4217540617101, 49.32741046557203, -0.04800000227987766, -0.06400000303983688, 0.9760000463575125, 0.0, 0.0, 0.0, 0.0, 0.0, 1.76220640258838E9, 0.0, 2025-11-03 16:46:42.588
54.0, 252.994882252533, -66.68615610990673, 232.74706389242783, -10.525948425289243, -0.04800000227987766, -0.06400000303983688, 0.9760000463575125, 0.0, 0.0, 0.0, 0.0, 0.0, 1.7622064025890627E9, 0.0, 2025-11-03 16:46:42.589
54.0, 244.37441285466775, -83.01455931644887, 210.49839905602857, -29.494721000548452, -0.04800000227987766, -0.06400000303983688, 0.9760000463575125, 0.0, 0.0, 0.0, 0.0, 0.0, 1.7622064025890627E9, 0.0, 2025-11-03 16:46:42.589
55.0, 319.60250046337023, -14.854882624000311, 282.36431660456583, 34.663262739311904, -0.04800000227987766, -0.06400000303983688, 0.9760000463575125, 0.0, 0.0, 0.0, 0.0, 0.0, 1.762206402602698E9, 0.0, 2025-11-03 16:46:42.602
55.0, 287.7011538413353, -43.47633698489517, 249.50929549383, 11.980769508052617, -0.04800000227987766, -0.06400000303983688, 0.9760000463575125, 0.0, 0.0, 0.0, 0.0, 0.0, 1.762206402602698E9, 0.0, 2025-11-03 16:46:42.602
56.0, 263.993928022217, -71.08053855784237, 221.0075179315172, -27.677129622083157, -0.04800000227987766, -0.06400000303983688, 0.9760000463575125, 0.0, 0.0, 0.0, 0.0, 0.0, 1.7622064026183531E9, 0.0, 2025-11-03 16:46:42.618
56.0, 275.91672908095643, -66.02045391779393, 237.5790146351792, -5.282608687411994, -0.04800000227987766, -0.06400000303983688, 0.9760000463575125, 0.0, 0.0, 0.0, 0.0, 0.0, 1.7622064026183531E9, 0.0, 2025-11-03 16:46:42.618
57.0, 319.29582866700366, -19.417560569941998, 285.80502456380054, 46.05125810438767, -0.04800000227987766, -0.06400000303983688, 0.9760000463575125, 0.0, 0.0, 0.0, 0.0, 0.0, 1.7622064026190915E9, 0.0, 2025-11-03 16:46:42.619
57.0, 232.7956825918518, -96.70259315427393, 205.39717551646754, -23.843732167501003, -0.04800000227987766, -0.06400000303983688, 0.9760000463575125, 0.0, 0.0, 0.0, 0.0, 0.0, 1.7622064026190915E9, 0.0, 2025-11-03 16:46:42.619
58.0, 254.63669833308086, -82.80512491893023, 219.1263482538052, -24.81236625602469, -0.04800000227987766, -0.06400000303983688, 0.9760000463575125, 0.0, 0.0, 0.0, 0.0, 0.0, 1.7622064026326303E9, 0.0, 2025-11-03 16:46:42.632
58.0, 330.7586220311932, -7.820130807347596, 296.6432546353899, 57.536490868311375, -0.04800000227987766, -0.06400000303983688, 0.9760000463575125, 0.0, 0.0, 0.0, 0.0, 0.0, 1.7622064026326303E9, 0.0, 2025-11-03 16:46:42.632
59.0, 270.0076871509664, -58.38357820827514, 241.33013429073617, 7.115159665700048, -0.04800000227987766, -0.06400000303983688, 0.9760000463575125, 0.0, 0.0, 0.0, 0.0, 0.0, 1.7622064026484654E9, 0.0, 2025-11-03 16:46:42.648
59.0, 253.2080565500073, -74.3305116193369, 222.76153101073578, -9.617152736056596, -0.04800000227987766, -0.06400000303983688, 0.9760000463575125, 0.0, 0.0, 0.0, 0.0, 0.0, 1.7622064026484654E9, 0.0, 2025-11-03 16:46:42.648
60.0, 322.8786528245546, -21.493205045349896, 273.04822581494227, 30.934582483489066, -0.04800000227987766, -0.06400000303983688, 1.008000047877431, 0.0, 0.0, 0.0, 0.0, 0.0, 1.7622064026491027E9, 0.0, 2025-11-03 16:46:42.649
60.0, 298.18409341713414, -32.447372015565634, 258.16342399129644, 24.890904155094177, -0.04800000227987766, -0.06400000303983688, 1.008000047877431, 0.0, 0.0, 0.0, 0.0, 0.0, 1.7622064026491027E9, 0.0, 2025-11-03 16:46:42.649
61.0, 253.12951865093783, -78.93432846479118, 204.25650602998212, -31.682562474627048, -0.04800000227987766, -0.06400000303983688, 1.008000047877431, 0.0, 0.0, 0.0, 0.0, 0.0, 1.7622064026626377E9, 0.0, 2025-11-03 16:46:42.662
61.0, 295.4464866495691, -49.740669410675764, 239.03009581798688, -0.3048018463887274, -0.04800000227987766, -0.06400000303983688, 1.008000047877431, 0.0, 0.0, 0.0, 0.0, 0.0, 1.7622064026626377E9, 0.0, 2025-11-03 16:46:42.662
62.0, 311.18772556306794, -28.59153516124934, 266.4473023931496, 26.484101536218077, -0.04800000227987766, -0.06400000303983688, 1.008000047877431, 0.0, 0.0, 0.0, 0.0, 0.0, 1.7622064026783984E9, 0.0, 2025-11-03 16:46:42.678
62.0, 248.89595190109685, -83.08561741560698, 208.66210817778483, -29.072112305555493, -0.04800000227987766, -0.06400000303983688, 1.008000047877431, 0.0, 0.0, 0.0, 0.0, 0.0, 1.7622064026783984E9, 0.0, 2025-11-03 16:46:42.678
63.0, 271.1932354369201, -63.22674865089357, 227.462585255038, -12.814767198171467, -0.04800000227987766, -0.06400000303983688, 1.008000047877431, 0.0, 0.0, 0.0, 0.0, 0.0, 1.7622064026790824E9, 0.0, 2025-11-03 16:46:42.679
63.0, 331.9217309174128, -8.45217389985919, 286.739999552723, 43.470727134961635, -0.04800000227987766, -0.06400000303983688, 1.008000047877431, 0.0, 0.0, 0.0, 0.0, 0.0, 1.7622064026790824E9, 0.0, 2025-11-03 16:46:42.679
64.0, 253.85879914229736, -70.88232386019081, 219.88928784476593, -20.945309701841325, -0.04800000227987766, -0.06400000303983688, 1.008000047877431, 0.0, 0.0, 0.0, 0.0, 0.0, 1.762206402692671E9, 0.0, 2025-11-03 16:46:42.692
64.0, 241.2029776922427, -86.14859547931701, 208.6022697784938, -32.38940356625244, -0.04800000227987766, -0.06400000303983688, 1.008000047877431, 0.0, 0.0, 0.0, 0.0, 0.0, 1.762206402692671E9, 0.0, 2025-11-03 16:46:42.692
65.0, 318.56654817564413, -21.76995764207095, 280.76363942353055, 41.67557515623048, -0.04800000227987766, -0.06400000303983688, 1.008000047877431, 0.0, 0.0, 0.0, 0.0, 0.0, 1.762206402708366E9, 0.0, 2025-11-03 16:46:42.708
65.0, 294.4928121608682, -38.816421640105546, 257.879191594664, 21.457675995770842, -0.04800000227987766, -0.06400000303983688, 1.008000047877431, 0.0, 0.0, 0.0, 0.0, 0.0, 1.762206402708366E9, 0.0, 2025-11-03 16:46:42.708
66.0, 244.33701385511085, -93.83782978821546, 202.35663685249165, -41.20808766176924, -0.04800000227987766, -0.06400000303983688, 1.008000047877431, 0.0, 0.0, 0.0, 0.0, 0.0, 1.7622064027090545E9, 0.0, 2025-11-03 16:46:42.709
66.0, 281.94170790957287, -60.3245862852782, 242.94203117163852, 5.570580984000117, -0.04800000227987766, -0.06400000303983688, 1.008000047877431, 0.0, 0.0, 0.0, 0.0, 0.0, 1.7622064027090545E9, 0.0, 2025-11-03 16:46:42.709
67.0, 317.3959594895132, -20.12440166156739, 287.5291184433736, 55.498245392460376, -0.04800000227987766, -0.06400000303983688, 1.008000047877431, 0.0, 0.0, 0.0, 0.0, 0.0, 1.762206402722689E9, 0.0, 2025-11-03 16:46:42.722
67.0, 239.03383571794257, -93.42270089313388, 206.58272380242124, -35.94604842411354, -0.04800000227987766, -0.06400000303983688, 1.008000047877431, 0.0, 0.0, 0.0, 0.0, 0.0, 1.762206402722689E9, 0.0, 2025-11-03 16:46:42.722
68.0, 274.0355594032444, -62.27681406214833, 232.986417489592, -5.877252780366689, -0.04800000227987766, -0.06400000303983688, 1.008000047877431, 0.0, 0.0, 0.0, 0.0, 0.0, 1.7622064027384398E9, 0.0, 2025-11-03 16:46:42.738
68.0, 341.04708680929616, -5.778145431540906, 289.4140280210413, 44.09903032751754, -0.04800000227987766, -0.06400000303983688, 1.008000047877431, 0.0, 0.0, 0.0, 0.0, 0.0, 1.7622064027384398E9, 0.0, 2025-11-03 16:46:42.738
69.0, 255.3996379240416, -73.06642543431371, 210.7452324531041, -23.60811847029254, -0.04800000227987766, -0.06400000303983688, 1.008000047877431, 0.0, 0.0, 0.0, 0.0, 0.0, 1.762206402739077E9, 0.0, 2025-11-03 16:46:42.739
69.0, 258.0587067925371, -83.08187751565129, 205.4532740158029, -26.106371640693396, -0.04800000227987766, -0.06400000303983688, 1.008000047877431, 0.0, 0.0, 0.0, 0.0, 0.0, 1.762206402739077E9, 0.0, 2025-11-03 16:46:42.739
70.0, 327.07482057483867, -23.32949592359364, 271.5522658326663, 38.93048858875409, -0.04800000227987766, -0.06400000303983688, 1.0240000486373901, 0.0, 0.0, 0.0, 0.0, 0.0, 1.7622064027527845E9, 0.0, 2025-11-03 16:46:42.752
70.0, 301.864154973533, -31.643293525092304, 265.48988800449297, 37.72250090306625, -0.04800000227987766, -0.06400000303983688, 1.0240000486373901, 0.0, 0.0, 0.0, 0.0, 0.0, 1.7622064027527845E9, 0.0, 2025-11-03 16:46:42.752
71.0, 284.98598647350445, -51.42362439073622, 243.3534201667644, 14.456583278719336, -0.04800000227987766, -0.06400000303983688, 1.0240000486373901, 0.0, 0.0, 0.0, 0.0, 0.0, 1.762206402768479E9, 0.0, 2025-11-03 16:46:42.768
71.0, 287.20374714722857, -49.677091111429036, 249.21758329728618, 11.984509408008307, -0.04800000227987766, -0.06400000303983688, 1.0240000486373901, 0.0, 0.0, 0.0, 0.0, 0.0, 1.762206402768479E9, 0.0, 2025-11-03 16:46:42.768
72.0, 320.55243505211547, -9.566664086654782, 287.222446647007, 49.21147356694564, -0.04800000227987766, -0.06400000303983688, 1.0240000486373901, 0.0, 0.0, 0.0, 0.0, 0.0, 1.7622064027690713E9, 0.0, 2025-11-03 16:46:42.769
72.0, 257.3182066013105, -69.22180827986449, 224.02561719575897, -13.615105788689107, -0.04800000227987766, -0.06400000303983688, 1.0240000486373901, 0.0, 0.0, 0.0, 0.0, 0.0, 1.7622064027690713E9, 0.0, 2025-11-03 16:46:42.769
73.0, 273.1192839141004, -61.84672556724399, 228.47609814302996, -14.161131182219833, -0.04800000227987766, -0.06400000303983688, 1.0240000486373901, 0.0, 0.0, 0.0, 0.0, 0.0, 1.7622064027827535E9, 0.0, 2025-11-03 16:46:42.782
73.0, 341.20042270747945, -6.084817227907479, 291.0521042016335, 53.76667171297595, -0.04800000227987766, -0.06400000303983688, 1.0240000486373901, 0.0, 0.0, 0.0, 0.0, 0.0, 1.7622064027827535E9, 0.0, 2025-11-03 16:46:42.782
74.0, 267.34487838251516, -60.65369748137891, 232.9041396905668, 1.6586456303484738, -0.04800000227987766, -0.06400000303983688, 1.0240000486373901, 0.0, 0.0, 0.0, 0.0, 0.0, 1.762206402798575E9, 0.0, 2025-11-03 16:46:42.798
74.0, 245.45150404190645, -86.10745657980442, 206.65752180153504, -37.77111960249022, -0.04800000227987766, -0.06400000303983688, 1.0240000486373901, 0.0, 0.0, 0.0, 0.0, 0.0, 1.762206402798575E9, 0.0, 2025-11-03 16:46:42.798
75.0, 302.63083446444944, -37.37282025720924, 258.04748709267005, 11.10189301846549, -0.04800000227987766, -0.06400000303983688, 1.0240000486373901, 0.0, 0.0, 0.0, 0.0, 0.0, 1.762206402799058E9, 0.0, 2025-11-03 16:46:42.799
75.0, 283.2244935943745, -48.891712120734155, 247.62812581611797, 16.061000359710306, -0.04800000227987766, -0.06400000303983688, 1.0240000486373901, 0.0, 0.0, 0.0, 0.0, 0.0, 1.762206402799058E9, 0.0, 2025-11-03 16:46:42.799
76.0, 248.94083070056513, -88.68798754923046, 205.34481691708788, -36.76508651440963, -0.04800000227987766, -0.06400000303983688, 1.0240000486373901, 0.0, 0.0, 0.0, 0.0, 0.0, 1.762206402812683E9, 0.0, 2025-11-03 16:46:42.812
76.0, 310.8399148671888, -37.51493645552546, 263.5563597274013, 23.682916469406337, -0.04800000227987766, -0.06400000303983688, 1.0240000486373901, 0.0, 0.0, 0.0, 0.0, 0.0, 1.762206402812683E9, 0.0, 2025-11-03 16:46:42.812
77.0, 324.5129891051911, -15.584163115359843, 296.6395147354342, 65.80540967034176, -0.04800000227987766, -0.06400000303983688, 1.0240000486373901, 0.0, 0.0, 0.0, 0.0, 0.0, 1.762206402828351E9, 0.0, 2025-11-03 16:46:42.828
77.0, 237.48551713628694, -90.08671013265848, 209.9374140626751, -31.54044627631083, -0.04800000227987766, -0.06400000303983688, 1.0240000486373901, 0.0, 0.0, 0.0, 0.0, 0.0, 1.762206402828351E9, 0.0, 2025-11-03 16:46:42.828
78.0, 247.53462831722572, -85.12012299150229, 212.31599043449387, -17.740215439815074, -0.04800000227987766, -0.06400000303983688, 1.0240000486373901, 0.0, 0.0, 0.0, 0.0, 0.0, 1.7622064028290772E9, 0.0, 2025-11-03 16:46:42.829
78.0, 325.19365089712664, -13.325263542123139, 282.8991222982295, 40.598483968991786, -0.04800000227987766, -0.06400000303983688, 1.0240000486373901, 0.0, 0.0, 0.0, 0.0, 0.0, 1.7622064028290772E9, 0.0, 2025-11-03 16:46:42.829
79.0, 273.702708307188, -56.04614073596895, 238.27089612698182, 8.439084250014275, -0.04800000227987766, -0.06400000303983688, 1.0240000486373901, 0.0, 0.0, 0.0, 0.0, 0.0, 1.7622064028426888E9, 0.0, 2025-11-03 16:46:42.842
79.0, 254.2103497381322, -79.72718725539744, 209.46992656821385, -27.19842242775485, -0.04800000227987766, -0.06400000303983688, 1.0240000486373901, 0.0, 0.0, 0.0, 0.0, 0.0, 1.7622064028426888E9, 0.0, 2025-11-03 16:46:42.842
80.0, 318.33467437839136, -26.650527084246278, 268.9193762638606, 30.713928386103362, -0.04800000227987766, -0.06400000303983688, 1.0400000493973494, 0.0, 0.0, 0.0, 0.0, 0.0, 1.7622064028583727E9, 0.0, 2025-11-03 16:46:42.858
80.0, 310.8286951673217, -25.69311269558966, 262.82707923604175, 26.177429739851505, -0.04800000227987766, -0.06400000303983688, 1.0400000493973494, 0.0, 0.0, 0.0, 0.0, 0.0, 1.7622064028583727E9, 0.0, 2025-11-03 16:46:42.858
81.0, 261.8135663480498, -74.6297036157921, 212.92185422731563, -19.54284721845761, -0.04800000227987766, -0.06400000303983688, 1.0400000493973494, 0.0, 0.0, 0.0, 0.0, 0.0, 1.762206402859075E9, 0.0, 2025-11-03 16:46:42.859
81.0, 299.608995300252, -39.1679722359404, 256.3308730130084, 21.93638319009915, -0.04800000227987766, -0.06400000303983688, 1.0400000493973494, 0.0, 0.0, 0.0, 0.0, 0.0, 1.762206402859075E9, 0.0, 2025-11-03 16:46:42.859
82.0, 307.8292954028584, -26.818822582252324, 270.1049245498143, 36.574351616669446, -0.04800000227987766, -0.06400000303983688, 1.0400000493973494, 0.0, 0.0, 0.0, 0.0, 0.0, 1.762206402872734E9, 0.0, 2025-11-03 16:46:42.872
82.0, 266.50340089248493, -61.53257397096604, 226.980138160754, -13.738522487226874, -0.04800000227987766, -0.06400000303983688, 1.0400000493973494, 0.0, 0.0, 0.0, 0.0, 0.0, 1.762206402872734E9, 0.0, 2025-11-03 16:46:42.872
83.0, 269.57759865606204, -64.83864553179592, 233.87651367904618, 4.026002302300185, -0.04800000227987766, -0.06400000303983688, 1.0400000493973494, 0.0, 0.0, 0.0, 0.0, 0.0, 1.7622064028883584E9, 0.0, 2025-11-03 16:46:42.888
83.0, 337.6549975494854, -6.006279328837991, 295.24453205196187, 44.02423232840374, -0.04800000227987766, -0.06400000303983688, 1.0400000493973494, 0.0, 0.0, 0.0, 0.0, 0.0, 1.7622064028883584E9, 0.0, 2025-11-03 16:46:42.888
84.0, 262.1763366437517, -58.910904102027416, 232.986417489592, -8.876652544829994, -0.04800000227987766, -0.06400000303983688, 1.0400000493973494, 0.0, 0.0, 0.0, 0.0, 0.0, 1.762206402889063E9, 0.0, 2025-11-03 16:46:42.889
84.0, 244.37067295471206, -76.7053480912, 211.83728324016556, -25.92685644282028, -0.04800000227987766, -0.06400000303983688, 1.0400000493973494, 0.0, 0.0, 0.0, 0.0, 0.0, 1.762206402889063E9, 0.0, 2025-11-03 16:46:42.889
85.0, 327.7667020666413, -10.501639075577259, 289.2569522229023, 48.92724117031321, -0.04800000227987766, -0.06400000303983688, 1.0400000493973494, 0.0, 0.0, 0.0, 0.0, 0.0, 1.7622064029027138E9, 0.0, 2025-11-03 16:46:42.902
85.0, 293.4905189727433, -37.3129818579182, 262.57276603905484, 30.171642892528325, -0.04800000227987766, -0.06400000303983688, 1.0400000493973494, 0.0, 0.0, 0.0, 0.0, 0.0, 1.7622064029027138E9, 0.0, 2025-11-03 16:46:42.902
86.0, 253.17065755045041, -78.65383596811444, 217.44713317370042, -16.513528254348785, -0.04800000227987766, -0.06400000303983688, 1.0400000493973494, 0.0, 0.0, 0.0, 0.0, 0.0, 1.7622064029183962E9, 0.0, 2025-11-03 16:46:42.918
86.0, 324.4232315062545, -11.316937265917659, 287.95920693827793, 52.749418925028294, -0.04800000227987766, -0.06400000303983688, 1.0400000493973494, 0.0, 0.0, 0.0, 0.0, 0.0, 1.7622064029183962E9, 0.0, 2025-11-03 16:46:42.918
87.0, 342.52808719174936, 9.533004987053573, 315.009903317783, 77.55243543116376, -0.04800000227987766, -0.06400000303983688, 1.0400000493973494, 0.0, 0.0, 0.0, 0.0, 0.0, 1.7622064029191024E9, 0.0, 2025-11-03 16:46:42.919
87.0, 265.49736780440435, -58.74260860402137, 237.23120393930003, -2.541262019891292, -0.04800000227987766, -0.06400000303983688, 1.0400000493973494, 0.0, 0.0, 0.0, 0.0, 0.0, 1.7622064029191024E9, 0.0, 2025-11-03 16:46:42.919
88.0, 276.72828737134114, -50.39889180287719, 245.90029203658924, -2.290688722860068, -0.04800000227987766, -0.06400000303983688, 1.0400000493973494, 0.0, 0.0, 0.0, 0.0, 0.0, 1.76220640294917E9, 0.0, 2025-11-03 16:46:42.949
88.0, 358.2655862052925, 18.763078077696264, 325.53024189313874, 86.00086943106726, -0.04800000227987766, -0.06400000303983688, 1.0400000493973494, 0.0, 0.0, 0.0, 0.0, 0.0, 1.76220640294917E9, 0.0, 2025-11-03 16:46:42.949
89.0, 274.2636933005415, -54.81945355050266, 240.08474760549143, 2.047595225740224, -0.04800000227987766, -0.06400000303983688, 1.0400000493973494, 0.0, 0.0, 0.0, 0.0, 0.0, 1.7622064029498038E9, 0.0, 2025-11-03 16:46:42.949
89.0, 270.27695994777605, -59.97303568944335, 235.7950823563151, -6.25124277593568, -0.04800000227987766, -0.06400000303983688, 1.0400000493973494, 0.0, 0.0, 0.0, 0.0, 0.0, 1.7622064029498038E9, 0.0, 2025-11-03 16:46:42.949
90.0, 335.67659047292545, -2.0232858760282397, 297.3500957270153, 49.02447856916115, -0.04800000227987766, -0.06400000303983688, 1.0400000493973494, 0.0, 0.0, 0.0, 0.0, 0.0, 1.7622064029505248E9, 0.0, 2025-11-03 16:46:42.950
90.0, 309.37387408455834, -20.038383962586522, 274.98923389194533, 42.09444395126775, -0.04800000227987766, -0.06400000303983688, 1.0400000493973494, 0.0, 0.0, 0.0, 0.0, 0.0, 1.7622064029505248E9, 0.0, 2025-11-03 16:46:42.950
91.0, 275.0341126914136, -51.352566291578114, 241.0945205935277, 4.437391297426075, -0.04800000227987766, -0.06400000303983688, 1.0400000493973494, 0.0, 0.0, 0.0, 0.0, 0.0, 1.7622064029627335E9, 0.0, 2025-11-03 16:46:42.962
91.0, 292.06935698958114, -39.55318193137646, 255.66891072085127, 8.207210452761501, -0.04800000227987766, -0.06400000303983688, 1.0400000493973494, 0.0, 0.0, 0.0, 0.0, 0.0, 1.7622064029627335E9, 0.0, 2025-11-03 16:46:42.962
92.0, 340.9535893104039, 7.3040246134623885, 315.2492569149472, 66.47111186245456, -0.04800000227987766, -0.06400000303983688, 1.0400000493973494, 0.0, 0.0, 0.0, 0.0, 0.0, 1.762206402978336E9, 0.0, 2025-11-03 16:46:42.978
92.0, 273.6727891075425, -47.717383534647524, 250.82948017818853, 8.379245850723237, -0.04800000227987766, -0.06400000303983688, 1.0400000493973494, 0.0, 0.0, 0.0, 0.0, 0.0, 1.762206402978336E9, 0.0, 2025-11-03 16:46:42.978
93.0, 284.8139510755427, -45.03961516637355, 252.04494766378775, 8.300707951653749, -0.04800000227987766, -0.06400000303983688, 1.0400000493973494, 0.0, 0.0, 0.0, 0.0, 0.0, 1.762206402979098E9, 0.0, 2025-11-03 16:46:42.979
93.0, 338.4702957398258, -1.4996998822316527, 303.07214265922084, 54.12570210872218, -0.04800000227987766, -0.06400000303983688, 1.0400000493973494, 0.0, 0.0, 0.0, 0.0, 0.0, 1.762206402979098E9, 0.0, 2025-11-03 16:46:42.979
94.0, 269.9889876511879, -58.03576751239598, 241.25907619157806, -2.9189919154159725, -0.04800000227987766, -0.06400000303983688, 1.0400000493973494, 0.0, 0.0, 0.0, 0.0, 0.0, 1.762206402992662E9, 0.0, 2025-11-03 16:46:42.992
94.0, 266.6193377911113, -64.1392842400819, 235.43979186052456, -9.05616774270311, -0.04800000227987766, -0.06400000303983688, 1.0400000493973494, 0.0, 0.0, 0.0, 0.0, 0.0, 1.762206402992662E9, 0.0, 2025-11-03 16:46:42.992
95.0, 331.5888798213564, -13.833889936096966, 289.6085028187372, 32.74469406204298, -0.04800000227987766, -0.06400000303983688, 1.0400000493973494, 0.0, 0.0, 0.0, 0.0, 0.0, 1.762206403008322E9, 0.0, 2025-11-03 16:46:43.008
95.0, 302.03993027145043, -22.304763335734606, 277.513666362036, 29.741554397623986, -0.04800000227987766, -0.06400000303983688, 1.0400000493973494, 0.0, 0.0, 0.0, 0.0, 0.0, 1.762206403008322E9, 0.0, 2025-11-03 16:46:43.008
96.0, 256.9965752051212, -65.94191601872444, 229.07448213594034, -15.313020368572325, -0.04800000227987766, -0.06400000303983688, 1.0400000493973494, 0.0, 0.0, 0.0, 0.0, 0.0, 1.76220640300904E9, 0.0, 2025-11-03 16:46:43.009
96.0, 295.8990145442076, -41.88687950372696, 252.7704882551916, -0.6189534426666796, -0.04800000227987766, -0.06400000303983688, 1.0400000493973494, 0.0, 0.0, 0.0, 0.0, 0.0, 1.76220640300904E9, 0.0, 2025-11-03 16:46:43.009
97.0, 326.5437547811307, -6.8627164186909795, 288.2696186346002, 35.16066943341866, -0.04800000227987766, -0.06400000303983688, 1.0400000493973494, 0.0, 0.0, 0.0, 0.0, 0.0, 1.7622064030226915E9, 0.0, 2025-11-03 16:46:43.022
97.0, 248.15171180991456, -81.04737193975598, 212.10655603697523, -29.341385102365166, -0.04800000227987766, -0.06400000303983688, 1.0400000493973494, 0.0, 0.0, 0.0, 0.0, 0.0, 1.7622064030226915E9, 0.0, 2025-11-03 16:46:43.022
98.0, 265.2954132067971, -69.22554817982018, 220.96637903200462, -19.52040781872347, -0.04800000227987766, -0.06400000303983688, 1.0400000493973494, 0.0, 0.0, 0.0, 0.0, 0.0, 1.7622064030383844E9, 0.0, 2025-11-03 16:46:43.038
98.0, 334.30404718918726, -8.45217389985919, 282.7009076005779, 36.263939920347184, -0.04800000227987766, -0.06400000303983688, 1.0400000493973494, 0.0, 0.0, 0.0, 0.0, 0.0, 1.7622064030383844E9, 0.0, 2025-11-03 16:46:43.038
99.0, 274.05425890302286, -57.22046932205558, 232.90039979061112, -3.708110806066543, -0.04800000227987766, -0.06400000303983688, 1.0400000493973494, 0.0, 0.0, 0.0, 0.0, 0.0, 1.762206403039032E9, 0.0, 2025-11-03 16:46:43.039
99.0, 249.40831819502637, -83.10805681534111, 205.632789213676, -44.20748742623255, -0.04800000227987766, -0.06400000303983688, 1.0400000493973494, 0.0, 0.0, 0.0, 0.0, 0.0, 1.762206403039032E9, 0.0, 2025-11-03 16:46:43.039
100.0, 327.5497878692113, -13.897468235343695, 287.91806803876534, 40.83035776624456, -0.04800000227987766, -0.06400000303983688, 1.0400000493973494, 0.0, 0.0, 0.0, 0.0, 0.0, 1.76220640305339E9, 0.0, 2025-11-03 16:46:43.053
100.0, 293.13522847695276, -34.24252399429679, 255.42581722373143, 7.556467860471457, -0.04800000227987766, -0.06400000303983688, 1.0400000493973494, 0.0, 0.0, 0.0, 0.0, 0.0, 1.76220640305339E9, 0.0, 2025-11-03 16:46:43.053
0.0, 251.7139665177092, -78.28732577245682, 212.46932633267716, -25.57530584698543, -0.04800000227987766, -0.06400000303983688, 1.0400000493973494, 0.0, 0.0, 0.0, 0.0, 0.0, 1.762206403054524E9, 0.0, 2025-11-03 16:46:43.054
1.0, 297.93912997003645, -42.34314729832113, 257.15739090321586, 20.545140406582505, -0.04800000227987766, -0.06400000303983688, 1.0400000493973494, 0.0, 0.0, 0.0, 0.0, 0.0, 1.7622064030676448E9, 0.0, 2025-11-03 16:46:43.067
1.0, 331.32147697452456, -7.2254867143929005, 285.6329891658388, 34.68570213904604, -0.04800000227987766, -0.06400000303983688, 1.0400000493973494, 0.0, 0.0, 0.0, 0.0, 0.0, 1.7622064030676448E9, 0.0, 2025-11-03 16:46:43.067
2.0, 253.58391649555415, -75.53101950511336, 215.86889539239928, -27.920223119203, -0.04800000227987766, -0.06400000303983688, 1.0400000493973494, 0.0, 0.0, 0.0, 0.0, 0.0, 1.7622064030836947E9, 0.0, 2025-11-03 16:46:43.083
2.0, 253.81579029280692, -78.2985454723239, 217.28631747560576, -19.681223516818136, -0.04800000227987766, -0.06400000303983688, 1.0400000493973494, 0.0, 0.0, 0.0, 0.0, 0.0, 1.7622064030836947E9, 0.0, 2025-11-03 16:46:43.083
3.0, 324.98982634954154, -12.88021544739604, 284.98224657354876, 30.635390487033874, -0.04800000227987766, -0.06400000303983688, 1.0400000493973494, 0.0, 0.0, 0.0, 0.0, 0.0, 1.7622064030841336E9, 0.0, 2025-11-03 16:46:43.084
3.0, 265.4319195551798, -62.50868785940111, 227.58974185353145, -25.1788764516823, -0.04800000227987766, -0.06400000303983688, 1.0400000493973494, 0.0, 0.0, 0.0, 0.0, 0.0, 1.7622064030841336E9, 0.0, 2025-11-03 16:46:43.084
4.0, 264.10425507090986, -67.30697950255126, 224.39960719132796, -24.81984605593607, -0.04800000227987766, -0.06400000303983688, 1.0400000493973494, 0.0, 0.0, 0.0, 0.0, 0.0, 1.7622064030978053E9, 0.0, 2025-11-03 16:46:43.097
4.0, 328.0752438129857, -17.510211592540145, 280.1615155306645, 27.677129622083157, -0.04800000227987766, -0.06400000303983688, 1.0400000493973494, 0.0, 0.0, 0.0, 0.0, 0.0, 1.7622064030978053E9, 0.0, 2025-11-03 16:46:43.097
5.0, 295.12672520335764, -35.77962287608534, 260.15305076772347, 12.26126200472936, -0.04800000227987766, -0.06400000303983688, 1.0400000493973494, 0.0, 0.0, 0.0, 0.0, 0.0, 1.7622064031133835E9, 0.0, 2025-11-03 16:46:43.113
5.0, 261.95007269643247, -67.8118659965694, 225.07278918335214, -28.81779910856858, -0.04800000227987766, -0.06400000303983688, 1.0400000493973494, 0.0, 0.0, 0.0, 0.0, 0.0, 1.7622064031133835E9, 0.0, 2025-11-03 16:46:43.113
6.0, 300.34762554150075, -32.028503220528364, 258.93758328212425, 13.431850690860301, -0.04800000227987766, -0.06400000303983688, 1.0400000493973494, 0.0, 0.0, 0.0, 0.0, 0.0, 1.762206403114086E9, 0.0, 2025-11-03 16:46:43.114
6.0, 333.8197301449254, -5.381716036237776, 294.7920041573234, 56.758591677527875, -0.04800000227987766, -0.06400000303983688, 1.0400000493973494, 0.0, 0.0, 0.0, 0.0, 0.0, 1.762206403114086E9, 0.0, 2025-11-03 16:46:43.114
7.0, 238.76269297115505, -85.73720648419112, 202.5922505497001, -40.89767596544698, -0.04800000227987766, -0.06400000303983688, 1.0400000493973494, 0.0, 0.0, 0.0, 0.0, 0.0, 1.7622064031277056E9, 0.0, 2025-11-03 16:46:43.127
7.0, 279.26206959132105, -58.45089640747756, 225.28970338078216, -22.71054248092696, -0.04800000227987766, -0.06400000303983688, 1.0400000493973494, 0.0, 0.0, 0.0, 0.0, 0.0, 1.7622064031277056E9, 0.0, 2025-11-03 16:46:43.127
8.0, 317.8952361335978, -23.019084227271378, 268.78847976541147, 18.794867227319628, -0.04800000227987766, -0.06400000303983688, 1.0400000493973494, 0.0, 0.0, 0.0, 0.0, 0.0, 1.7622064031434426E9, 0.0, 2025-11-03 16:46:43.143
8.0, 245.50573259126395, -75.59833770431578, 212.7460789293982, -28.3278722143732, -0.04800000227987766, -0.06400000303983688, 1.0400000493973494, 0.0, 0.0, 0.0, 0.0, 0.0, 1.7622064031434426E9, 0.0, 2025-11-03 16:46:43.143
9.0, 249.69068064168096, -78.60521726869047, 209.0847168727778, -25.92311654286459, -0.04800000227987766, -0.06400000303983688, 1.0400000493973494, 0.0, 0.0, 0.0, 0.0, 0.0, 1.7622064031441083E9, 0.0, 2025-11-03 16:46:43.144
9.0, 323.3816693685949, -17.794443989172578, 277.6744820601307, 42.08696415135637, -0.04800000227987766, -0.06400000303983688, 1.0400000493973494, 0.0, 0.0, 0.0, 0.0, 0.0, 1.7622064031441083E9, 0.0, 2025-11-03 16:46:43.144
10.0, 286.19210420921445, -49.12358591798693, 240.34654060238972, -0.5366756436415017, -0.04800000227987766, -0.06400000303983688, 1.0400000493973494, 0.0, 0.0, 0.0, 0.0, 0.0, 1.7622064031578913E9, 0.0, 2025-11-03 16:46:43.157
10.0, 239.51441286224872, -92.16235460806638, 197.38256991142407, -35.54961902881041, -0.04800000227987766, -0.06400000303983688, 1.0400000493973494, 0.0, 0.0, 0.0, 0.0, 0.0, 1.7622064031578913E9, 0.0, 2025-11-03 16:46:43.157
11.0, 282.4335047537461, -59.18017689883709, 229.28765643341467, -17.57191994180903, -0.04800000227987766, -0.06400000303983688, 1.0400000493973494, 0.0, 0.0, 0.0, 0.0, 0.0, 1.7622064031734629E9, 0.0, 2025-11-03 16:46:43.173
11.0, 330.73057278152555, -11.937760658562183, 280.87209652224556, 29.99960749456659, -0.04800000227987766, -0.06400000303983688, 1.0400000493973494, 0.0, 0.0, 0.0, 0.0, 0.0, 1.7622064031734629E9, 0.0, 2025-11-03 16:46:43.173
12.0, 263.9023004733026, -65.66516342200339, 221.9424929204397, -32.09395146975294, -0.04800000227987766, -0.06400000303983688, 1.0400000493973494, 0.0, 0.0, 0.0, 0.0, 0.0, 1.7622064031740956E9, 0.0, 2025-11-03 16:46:43.174
12.0, 267.18593263439834, -74.15847622137517, 213.09388962527737, -22.134597887750715, -0.04800000227987766, -0.06400000303983688, 1.0400000493973494, 0.0, 0.0, 0.0, 0.0, 0.0, 1.7622064031740956E9, 0.0, 2025-11-03 16:46:43.174
13.0, 344.84495521429926, -6.1783147267997265, 287.0878102486022, 51.42923424066976, -0.04800000227987766, -0.06400000303983688, 1.0400000493973494, 0.0, 0.0, 0.0, 0.0, 0.0, 1.762206403187685E9, 0.0, 2025-11-03 16:46:43.187
13.0, 265.69371255207807, -74.59978441614658, 213.65487461863086, -19.96171601349488, -0.04800000227987766, -0.06400000303983688, 1.0400000493973494, 0.0, 0.0, 0.0, 0.0, 0.0, 1.762206403187685E9, 0.0, 2025-11-03 16:46:43.187
14.0, 251.69900691788644, -93.31798369437456, 192.34118477115408, -56.26118498342112, -0.04800000227987766, -0.06400000303983688, 1.0400000493973494, 0.0, 0.0, 0.0, 0.0, 0.0, 1.7622064032037766E9, 0.0, 2025-11-03 16:46:43.203
14.0, 303.00669440999627, -47.75852243416011, 238.11008042888716, -6.63271257141605, -0.04800000227987766, -0.06400000303983688, 1.0400000493973494, 0.0, 0.0, 0.0, 0.0, 0.0, 1.7622064032037766E9, 0.0, 2025-11-03 16:46:43.203
15.0, 287.74790259078145, -48.31576752755791, 236.02695615356788, 1.1761985360644758, -0.04800000227987766, -0.06400000303983688, 1.0400000493973494, 0.0, 0.0, 0.0, 0.0, 0.0, 1.7622064032041707E9, 0.0, 2025-11-03 16:46:43.204
15.0, 246.048018084839, -86.92275477014482, 198.60177729697898, -39.816844878252596, -0.04800000227987766, -0.06400000303983688, 1.0400000493973494, 0.0, 0.0, 0.0, 0.0, 0.0, 1.7622064032041707E9, 0.0, 2025-11-03 16:46:43.204
16.0, 291.1362519506365, -55.683370440267026, 234.91620586672798, -14.808133874554187, -0.04800000227987766, -0.06400000303983688, 1.0400000493973494, 0.0, 0.0, 0.0, 0.0, 0.0, 1.7622064032176807E9, 0.0, 2025-11-03 16:46:43.217
16.0, 320.4458479033783, -18.13851478509605, 279.06198494369164, 44.15886872680858, -0.04800000227987766, -0.06400000303983688, 1.0400000493973494, 0.0, 0.0, 0.0, 0.0, 0.0, 1.7622064032176807E9, 0.0, 2025-11-03 16:46:43.217
17.0, 255.70817967038602, -78.04423227533698, 216.14564798912033, -16.625725253019482, -0.04800000227987766, -0.06400000303983688, 1.0400000493973494, 0.0, 0.0, 0.0, 0.0, 0.0, 1.7622064032334156E9, 0.0, 2025-11-03 16:46:43.233
17.0, 259.8370292214677, -80.58736424520612, 206.0778373084031, -41.97850705264136, -0.04800000227987766, -0.06400000303983688, 1.0400000493973494, 0.0, 0.0, 0.0, 0.0, 0.0, 1.7622064032334156E9, 0.0, 2025-11-03 16:46:43.233
18.0, 319.06582481972873, -31.923786021769047, 269.46540165739134, 38.216167697217315, -0.04800000227987766, -0.06400000303983688, 1.0400000493973494, 0.0, 0.0, 0.0, 0.0, 0.0, 1.7622064032340925E9, 0.0, 2025-11-03 16:46:43.234
18.0, 256.13452826533467, -84.48060009907931, 202.31923785293475, -40.92011536518112, -0.04800000227987766, -0.06400000303983688, 1.0400000493973494, 0.0, 0.0, 0.0, 0.0, 0.0, 1.7622064032340925E9, 0.0, 2025-11-03 16:46:43.234
19.0, 239.20400116592646, -107.02845693193376, 173.03208129992709, -74.31742196949199, -0.04800000227987766, -0.06400000303983688, 1.0400000493973494, 0.0, 0.0, 0.0, 0.0, 0.0, 1.7622064032477233E9, 0.0, 2025-11-03 16:46:43.247
19.0, 325.57325074262917, -31.942485521547496, 258.52993418695405, 26.7720738328062, -0.04800000227987766, -0.06400000303983688, 1.0400000493973494, 0.0, 0.0, 0.0, 0.0, 0.0, 1.7622064032477233E9, 0.0, 2025-11-03 16:46:43.247
20.0, 317.31181174051017, -23.69226621929556, 259.96979566989467, 30.078145393636078, -0.04800000227987766, -0.06400000303983688, 1.0400000493973494, 0.0, 0.0, 0.0, 0.0, 0.0, 1.7622064032633696E9, 0.0, 2025-11-03 16:46:43.263
20.0, 255.39028817415237, -85.17622149083763, 204.45846062758937, -34.67074253922328, -0.04800000227987766, -0.06400000303983688, 1.0400000493973494, 0.0, 0.0, 0.0, 0.0, 0.0, 1.7622064032633696E9, 0.0, 2025-11-03 16:46:43.263
21.0, 277.82220810838044, -69.53969977609813, 219.02911085495725, -42.240300049539655, -0.04800000227987766, -0.06400000303983688, 1.0400000493973494, 0.0, 0.0, 0.0, 0.0, 0.0, 1.762206403264092E9, 0.0, 2025-11-03 16:46:43.264
21.0, 324.09225036017597, -19.245525171980262, 267.64407037897035, 20.500261607114226, -0.04800000227987766, -0.06400000303983688, 1.0400000493973494, 0.0, 0.0, 0.0, 0.0, 0.0, 1.762206403264092E9, 0.0, 2025-11-03 16:46:43.264
22.0, 263.37123467959464, -71.5891649518162, 218.18763336492702, -14.890411673579365, -0.04800000227987766, -0.06400000303983688, 1.0400000493973494, 0.0, 0.0, 0.0, 0.0, 0.0, 1.7622064032777112E9, 0.0, 2025-11-03 16:46:43.277
22.0, 271.0866482881829, -64.52449393551797, 229.7214848282747, -0.7573297410272062, -0.04800000227987766, -0.06400000303983688, 1.0400000493973494, 0.0, 0.0, 0.0, 0.0, 0.0, 1.7622064032777112E9, 0.0, 2025-11-03 16:46:43.277
23.0, 339.6352745760232, -4.065271251834929, 293.3895416739397, 58.14235466113314, -0.04800000227987766, -0.06400000303983688, 1.0400000493973494, 0.0, 0.0, 0.0, 0.0, 0.0, 1.762206403293378E9, 0.0, 2025-11-03 16:46:43.293
23.0, 261.88649439718574, -65.73996142111719, 225.99280457245186, -17.373705244157463, -0.04800000227987766, -0.06400000303983688, 1.0400000493973494, 0.0, 0.0, 0.0, 0.0, 0.0, 1.762206403293378E9, 0.0, 2025-11-03 16:46:43.293
24.0, 243.38146941643208, -91.36949581746012, 207.86550948722288, -22.127118087839335, -0.04800000227987766, -0.06400000303983688, 1.0400000493973494, 0.0, 0.0, 0.0, 0.0, 0.0, 1.7622064032940784E9, 0.0, 2025-11-03 16:46:43.294
24.0, 308.3958902461454, -38.96227773837745, 254.71897613210604, -7.765902257990092, -0.04800000227987766, -0.06400000303983688, 1.0400000493973494, 0.0, 0.0, 0.0, 0.0, 0.0, 1.7622064032940784E9, 0.0, 2025-11-03 16:46:43.294
25.0, 291.3606459479779, -39.4634243324399, 262.6251246384345, 44.13268942711875, -0.04800000227987766, -0.06400000303983688, 1.0400000493973494, 0.0, 0.0, 0.0, 0.0, 0.0, 1.7622064033078053E9, 0.0, 2025-11-03 16:46:43.307
25.0, 240.90565564576536, -99.61597521975636, 183.35420517763123, -71.19460550649092, -0.04800000227987766, -0.06400000303983688, 1.0400000493973494, 0.0, 0.0, 0.0, 0.0, 0.0, 1.7622064033078053E9, 0.0, 2025-11-03 16:46:43.307
26.0, 304.13240429665893, -55.96012303698808, 227.25315085751936, -20.997668301220983, -0.04800000227987766, -0.06400000303983688, 1.0400000493973494, 0.0, 0.0, 0.0, 0.0, 0.0, 1.7622064033234572E9, 0.0, 2025-11-03 16:46:43.323
26.0, 331.10830267705023, -25.842708693817258, 272.39000342274085, 36.1480030217208, -0.04800000227987766, -0.06400000303983688, 1.0400000493973494, 0.0, 0.0, 0.0, 0.0, 0.0, 1.7622064033234572E9, 0.0, 2025-11-03 16:46:43.323
27.0, 251.9757595146075, -87.58097716234624, 203.1195764434524, -27.808026120532304, -0.04800000227987766, -0.06400000303983688, 1.0400000493973494, 0.0, 0.0, 0.0, 0.0, 0.0, 1.7622064033240926E9, 0.0, 2025-11-03 16:46:43.324
27.0, 247.92544786259532, -97.18504024855793, 192.97322786366567, -57.4168140697293, -0.04800000227987766, -0.06400000303983688, 1.0400000493973494, 0.0, 0.0, 0.0, 0.0, 0.0, 1.7622064033240926E9, 0.0, 2025-11-03 16:46:43.324
28.0, 325.54707144293934, -21.867195040918887, 281.91926850983873, 43.17901493841782, -0.04800000227987766, -0.06400000303983688, 1.0400000493973494, 0.0, 0.0, 0.0, 0.0, 0.0, 1.762206403337702E9, 0.0, 2025-11-03 16:46:43.337
28.0, 258.61782183591276, -73.58627152815461, 224.21635209349915, -7.672404759097844, -0.04800000227987766, -0.06400000303983688, 1.0400000493973494, 0.0, 0.0, 0.0, 0.0, 0.0, 1.762206403337702E9, 0.0, 2025-11-03 16:46:43.337
29.0, 257.7501650461927, -73.62367052771151, 218.21007276466116, -21.4726355955936, -0.04800000227987766, -0.06400000303983688, 1.0400000493973494, 0.0, 0.0, 0.0, 0.0, 0.0, 1.7622064033533623E9, 0.0, 2025-11-03 16:46:43.353
29.0, 321.80717148724943, -24.043816815130413, 268.9567752634175, 11.84239320969209, -0.04800000227987766, -0.06400000303983688, 1.0400000493973494, 0.0, 0.0, 0.0, 0.0, 0.0, 1.7622064033533623E9, 0.0, 2025-11-03 16:46:43.353
30.0, 297.19114997889847, -34.033089596778154, 260.1044320682995, 18.555513630155474, -0.04800000227987766, -0.06400000303983688, 1.0400000493973494, 0.0, 0.0, 0.0, 0.0, 0.0, 1.7622064033540864E9, 0.0, 2025-11-03 16:46:43.354
30.0, 258.03813734278083, -81.42136193532497, 207.4840396917425, -38.276006096508354, -0.04800000227987766, -0.06400000303983688, 1.0400000493973494, 0.0, 0.0, 0.0, 0.0, 0.0, 1.7622064033540864E9, 0.0, 2025-11-03 16:46:43.354
31.0, 290.2162365615368, -57.22420922201127, 232.7171446927823, -12.859645997639745, -0.04800000227987766, -0.06400000303983688, 1.0400000493973494, 0.0, 0.0, 0.0, 0.0, 0.0, 1.7622064033681712E9, 0.0, 2025-11-03 16:46:43.368
31.0, 333.43078054953367, -11.788164660334587, 278.8226313465275, 41.64565595658496, -0.04800000227987766, -0.06400000303983688, 1.0400000493973494, 0.0, 0.0, 0.0, 0.0, 0.0, 1.7622064033681712E9, 0.0, 2025-11-03 16:46:43.368
32.0, 261.44144630245864, -81.54103873390704, 202.1846014545299, -33.380477054510266, -0.04800000227987766, -0.06400000303983688, 1.0400000493973494, 0.0, 0.0, 0.0, 0.0, 0.0, 1.762206403383376E9, 0.0, 2025-11-03 16:46:43.383
32.0, 272.93041896633804, -70.97956125903875, 213.7895110170357, -25.283593650441617, -0.04800000227987766, -0.06400000303983688, 1.0400000493973494, 0.0, 0.0, 0.0, 0.0, 0.0, 1.762206403383376E9, 0.0, 2025-11-03 16:46:43.383
33.0, 329.518845195882, -21.2688110480085, 267.6665097787045, 22.564686382655054, -0.04800000227987766, -0.06400000303983688, 1.0400000493973494, 0.0, 0.0, 0.0, 0.0, 0.0, 1.7622064033840947E9, 0.0, 2025-11-03 16:46:43.384
33.0, 259.43312002625316, -76.76892639044672, 211.35109624592587, -37.56168520497158, -0.04800000227987766, -0.06400000303983688, 1.0400000493973494, 0.0, 0.0, 0.0, 0.0, 0.0, 1.7622064033840947E9, 0.0, 2025-11-03 16:46:43.384
34.0, 273.618560558185, -67.98390139453113, 220.25953794037923, -14.636098476592451, -0.04800000227987766, -0.06400000303983688, 1.0400000493973494, 0.0, 0.0, 0.0, 0.0, 0.0, 1.7622064033978047E9, 0.0, 2025-11-03 16:46:43.397
34.0, 306.75781406555325, -36.72581756487489, 263.53766022762284, 34.83529813727364, -0.04800000227987766, -0.06400000303983688, 1.0400000493973494, 0.0, 0.0, 0.0, 0.0, 0.0, 1.7622064033978047E9, 0.0, 2025-11-03 16:46:43.397
35.0, 280.41395877767354, -52.67649087589234, 248.918391300831, 21.046287000644952, -0.04800000227987766, -0.06400000303983688, 1.0400000493973494, 0.0, 0.0, 0.0, 0.0, 0.0, 1.7622064034133751E9, 0.0, 2025-11-03 16:46:43.413
35.0, 260.03898381907493, -72.45682174153626, 231.69615200487897, 29.812612496782094, -0.04800000227987766, -0.06400000303983688, 1.0400000493973494, 0.0, 0.0, 0.0, 0.0, 0.0, 1.7622064034133751E9, 0.0, 2025-11-03 16:46:43.413
36.0, 298.6983296610415, -44.74042316991836, 247.75902231456712, 15.350419368129224, -0.04800000227987766, -0.06400000303983688, 1.0400000493973494, 0.0, 0.0, 0.0, 0.0, 0.0, 1.7622064034140775E9, 0.0, 2025-11-03 16:46:43.414
36.0, 320.87967629823834, -25.32660249993205, 268.2162750721909, 14.550080777611583, -0.04800000227987766, -0.06400000303983688, 1.0400000493973494, 0.0, 0.0, 0.0, 0.0, 0.0, 1.7622064034140775E9, 0.0, 2025-11-03 16:46:43.414
37.0, 260.0801227185875, -76.1855019973591, 212.229972735513, -35.50100032938644, -0.04800000227987766, -0.06400000303983688, 1.0400000493973494, 0.0, 0.0, 0.0, 0.0, 0.0, 1.7622064034277468E9, 0.0, 2025-11-03 16:46:43.427
37.0, 270.45086529571563, -72.55031924042851, 217.05818357830867, -21.98500188952312, -0.04800000227987766, -0.06400000303983688, 1.0400000493973494, 0.0, 0.0, 0.0, 0.0, 0.0, 1.7622064034277468E9, 0.0, 2025-11-03 16:46:43.427
38.0, 335.66350082308054, -18.48632548097521, 282.68594800075516, 35.97596762375906, -0.04800000227987766, -0.06400000303983688, 1.0400000493973494, 0.0, 0.0, 0.0, 0.0, 0.0, 1.7622064034433577E9, 0.0, 2025-11-03 16:46:43.443
38.0, 283.9818233354017, -54.02285485994071, 236.13915315223858, -12.867125797551125, -0.04800000227987766, -0.06400000303983688, 1.0400000493973494, 0.0, 0.0, 0.0, 0.0, 0.0, 1.7622064034433577E9, 0.0, 2025-11-03 16:46:43.443
39.0, 271.7673100801185, -68.05121959373355, 222.20802581729367, -19.382031520362943, -0.04800000227987766, -0.06400000303983688, 1.0400000493973494, 0.0, 0.0, 0.0, 0.0, 0.0, 1.7622064034440725E9, 0.0, 2025-11-03 16:46:43.444
39.0, 310.1760826250538, -34.75115038827062, 261.71258904924616, 19.86073871469125, -0.04800000227987766, -0.06400000303983688, 1.0400000493973494, 0.0, 0.0, 0.0, 0.0, 0.0, 1.7622064034440725E9, 0.0, 2025-11-03 16:46:43.444
40.0, 301.1479641320184, -37.82534815184772, 249.62523239245638, -1.9428780269809067, -0.04800000227987766, -0.06400000303983688, 1.0400000493973494, 0.0, 0.0, 0.0, 0.0, 0.0, 1.762206403457749E9, 0.0, 2025-11-03 16:46:43.457
40.0, 268.4612385192886, -71.64900335110724, 226.0937818712555, -1.969057326670736, -0.04800000227987766, -0.06400000303983688, 1.0400000493973494, 0.0, 0.0, 0.0, 0.0, 0.0, 1.762206403457749E9, 0.0, 2025-11-03 16:46:43.457
41.0, 297.49034197535366, -43.92138507962227, 248.60423970455304, 8.435344350058585, -0.04800000227987766, -0.06400000303983688, 1.0400000493973494, 0.0, 0.0, 0.0, 0.0, 0.0, 1.7622064034733844E9, 0.0, 2025-11-03 16:46:43.473
41.0, 329.91527459118515, -12.012558657675982, 279.31255824072286, 31.23377447994426, -0.04800000227987766, -0.06400000303983688, 1.0400000493973494, 0.0, 0.0, 0.0, 0.0, 0.0, 1.7622064034733844E9, 0.0, 2025-11-03 16:46:43.473
42.0, 259.2012462290004, -70.2203615680337, 216.80387038132176, -32.10517116962001, -0.04800000227987766, -0.06400000303983688, 1.0400000493973494, 0.0, 0.0, 0.0, 0.0, 0.0, 1.762206403474142E9, 0.0, 2025-11-03 16:46:43.474
42.0, 275.45111153647304, -56.21443623397499, 237.18632513983175, 10.742862622719258, -0.04800000227987766, -0.06400000303983688, 1.0400000493973494, 0.0, 0.0, 0.0, 0.0, 0.0, 1.762206403474142E9, 0.0, 2025-11-03 16:46:43.474
43.0, 325.4199148444459, -18.751858377829194, 276.5188529738225, 28.612104611005634, -0.04800000227987766, -0.06400000303983688, 1.0400000493973494, 0.0, 0.0, 0.0, 0.0, 0.0, 1.7622064034877408E9, 0.0, 2025-11-03 16:46:43.487
43.0, 260.21475911699235, -72.18754894472659, 213.42674072133377, -33.94520194781944, -0.04800000227987766, -0.06400000303983688, 1.0400000493973494, 0.0, 0.0, 0.0, 0.0, 0.0, 1.7622064034877408E9, 0.0, 2025-11-03 16:46:43.487
44.0, 264.85597496200353, -70.5158136645332, 219.17122705327347, -9.291781439911574, -0.04800000227987766, -0.06400000303983688, 1.0400000493973494, 0.0, 0.0, 0.0, 0.0, 0.0, 1.7622064035033636E9, 0.0, 2025-11-03 16:46:43.503
44.0, 333.0941895535216, -15.427087317220867, 276.7469868711196, 18.394697932060808, -0.04800000227987766, -0.06400000303983688, 1.0400000493973494, 0.0, 0.0, 0.0, 0.0, 0.0, 1.7622064035033636E9, 0.0, 2025-11-03 16:46:43.503
45.0, 291.75333544332534, -47.17883794102818, 245.22337014460936, -8.375505950767547, -0.04800000227987766, -0.06400000303983688, 1.0400000493973494, 0.0, 0.0, 0.0, 0.0, 0.0, 1.762206403504068E9, 0.0, 2025-11-03 16:46:43.504
45.0, 267.96757172513753, -74.27815301995724, 217.1965598766692, -25.97921504219994, -0.04800000227987766, -0.06400000303983688, 1.0400000493973494, 0.0, 0.0, 0.0, 0.0, 0.0, 1.762206403504068E9, 0.0, 2025-11-03 16:46:43.504
46.0, 289.01572867576033, -60.145071087405086, 229.14928013505414, -15.582293165381998, -0.04800000227987766, -0.06400000303983688, 1.0400000493973494, 0.0, 0.0, 0.0, 0.0, 0.0, 1.7622064035179188E9, 0.0, 2025-11-03 16:46:43.517
46.0, 325.79764473997056, -22.09532893821597, 278.2205074536614, 51.2646786426194, -0.04800000227987766, -0.06400000303983688, 1.0400000493973494, 0.0, 0.0, 0.0, 0.0, 0.0, 1.7622064035179188E9, 0.0, 2025-11-03 16:46:43.517
47.0, 250.46857983246446, -80.8154981425032, 210.53579805558547, -26.929149630945176, -0.04800000227987766, -0.06400000303983688, 1.0400000493973494, 0.0, 0.0, 0.0, 0.0, 0.0, 1.762206403533506E9, 0.0, 2025-11-03 16:46:43.533
47.0, 268.40140011999756, -78.57903796900064, 205.92450141021982, -42.8162446427159, -0.04800000227987766, -0.06400000303983688, 1.0400000493973494, 0.0, 0.0, 0.0, 0.0, 0.0, 1.762206403533506E9, 0.0, 2025-11-03 16:46:43.533
48.0, 337.81020339764655, -19.33154287096113, 276.6647090720944, 42.217860649805516, -0.04800000227987766, -0.06400000303983688, 1.0400000493973494, 0.0, 0.0, 0.0, 0.0, 0.0, 1.7622064035341105E9, 0.0, 2025-11-03 16:46:43.534
48.0, 265.83956865035, -71.44704875349998, 216.02971109049395, -33.043886058498174, -0.04800000227987766, -0.06400000303983688, 1.0400000493973494, 0.0, 0.0, 0.0, 0.0, 0.0, 1.7622064035341105E9, 0.0, 2025-11-03 16:46:43.534
49.0, 267.7955363271758, -78.42570207081735, 209.40260836901143, -38.9267486887984, -0.04800000227987766, -0.06400000303983688, 1.0400000493973494, 0.0, 0.0, 0.0, 0.0, 0.0, 1.7622064035478141E9, 0.0, 2025-11-03 16:46:43.547
49.0, 329.8965750914067, -24.301869912073016, 272.0459326268174, 27.19468252779916, -0.04800000227987766, -0.06400000303983688, 1.0400000493973494, 0.0, 0.0, 0.0, 0.0, 0.0, 1.7622064035478141E9, 0.0, 2025-11-03 16:46:43.547
50.0, 299.64826424978673, -42.53014229610562, 247.27283532032743, 2.649719118606299, -0.04800000227987766, -0.06400000303983688, 1.0400000493973494, 0.0, 0.0, 0.0, 0.0, 0.0, 1.7622064035633676E9, 0.0, 2025-11-03 16:46:43.563
50.0, 247.66365486569703, -91.09648312069476, 192.57679846836254, -42.1505424506031, -0.04800000227987766, -0.06400000303983688, 1.0400000493973494, 0.0, 0.0, 0.0, 0.0, 0.0, 1.7622064035633676E9, 0.0, 2025-11-03 16:46:43.563
51.0, 295.5194146987051, -56.61086562927812, 227.78421665122733, -26.181169639807194, -0.04800000227987766, -0.06400000303983688, 1.0400000493973494, 0.0, 0.0, 0.0, 0.0, 0.0, 1.762206403564118E9, 0.0, 2025-11-03 16:46:43.564
51.0, 340.66000716388226, -10.45676027610898, 284.35768328094855, 46.709480496589094, -0.04800000227987766, -0.06400000303983688, 1.0400000493973494, 0.0, 0.0, 0.0, 0.0, 0.0, 1.762206403564118E9, 0.0, 2025-11-03 16:46:43.564
52.0, 268.8314886149019, -72.2922661434859, 214.78058450529352, -19.12023852346465, -0.04800000227987766, -0.06400000303983688, 1.0400000493973494, 0.0, 0.0, 0.0, 0.0, 0.0, 1.762206403577685E9, 0.0, 2025-11-03 16:46:43.577
52.0, 289.60663286875933, -56.26679483335465, 226.49769106647, -11.240269316826016, -0.04800000227987766, -0.06400000303983688, 1.0400000493973494, 0.0, 0.0, 0.0, 0.0, 0.0, 1.762206403577685E9, 0.0, 2025-11-03 16:46:43.577
53.0, 341.9465327486396, -6.937514417804778, 280.5579449259676, 34.999853735323995, -0.04800000227987766, -0.06400000303983688, 1.0400000493973494, 0.0, 0.0, 0.0, 0.0, 0.0, 1.7622064035935168E9, 0.0, 2025-11-03 16:46:43.593
53.0, 272.78456286806613, -61.9925816655159, 225.99280457245186, 5.406025385949761, -0.04800000227987766, -0.06400000303983688, 1.0400000493973494, 0.0, 0.0, 0.0, 0.0, 0.0, 1.7622064035935168E9, 0.0, 2025-11-03 16:46:43.593
54.0, 261.66210039984435, -77.78243927843869, 206.64630210166797, -42.82746434258297, -0.04800000227987766, -0.06400000303983688, 1.0400000493973494, 0.0, 0.0, 0.0, 0.0, 0.0, 1.76220640359409E9, 0.0, 2025-11-03 16:46:43.594
54.0, 331.44115377310663, -13.792751036584377, 271.7355209304951, 29.820092296693474, -0.04800000227987766, -0.06400000303983688, 1.0400000493973494, 0.0, 0.0, 0.0, 0.0, 0.0, 1.76220640359409E9, 0.0, 2025-11-03 16:46:43.594
55.0, 298.7357286605984, -35.11018078401685, 249.48311619414017, 4.493489796761423, -0.04800000227987766, -0.06400000303983688, 1.0400000493973494, 0.0, 0.0, 0.0, 0.0, 0.0, 1.762206403608075E9, 0.0, 2025-11-03 16:46:43.608
55.0, 254.06262368988246, -79.91792215313762, 208.72568647703156, -20.78075410379097, -0.04800000227987766, -0.06400000303983688, 1.0400000493973494, 0.0, 0.0, 0.0, 0.0, 0.0, 1.762206403608075E9, 0.0, 2025-11-03 16:46:43.608
56.0, 289.5393146695569, -57.1381915230304, 237.5752747352235, -9.08982684230432, -0.04800000227987766, -0.06400000303983688, 1.0400000493973494, 0.0, 0.0, 0.0, 0.0, 0.0, 1.7622064036234455E9, 0.0, 2025-11-03 16:46:43.623
56.0, 319.54827191401273, -23.28087722416967, 276.0027467799373, 29.692935698200017, -0.04800000227987766, -0.06400000303983688, 1.0400000493973494, 0.0, 0.0, 0.0, 0.0, 0.0, 1.7622064036234455E9, 0.0, 2025-11-03 16:46:43.623
57.0, 249.3017310462892, -83.72140040807426, 211.855982739944, -26.34572523785755, -0.04800000227987766, -0.06400000303983688, 1.0400000493973494, 0.0, 0.0, 0.0, 0.0, 0.0, 1.7622064036241007E9, 0.0, 2025-11-03 16:46:43.624
57.0, 268.2817233214155, -71.20395525638014, 224.99799118423834, -17.325086544733495, -0.04800000227987766, -0.06400000303983688, 1.0400000493973494, 0.0, 0.0, 0.0, 0.0, 0.0, 1.7622064036241007E9, 0.0, 2025-11-03 16:46:43.624
58.0, 341.531403853558, -5.550011534243822, 295.43900684965774, 63.0491034029983, -0.04800000227987766, -0.06400000303983688, 1.0400000493973494, 0.0, 0.0, 0.0, 0.0, 0.0, 1.7622064036376953E9, 0.0, 2025-11-03 16:46:43.637
58.0, 280.00630968250334, -52.79242777451873, 238.03528242977336, -6.23254327615723, -0.04800000227987766, -0.06400000303983688, 1.0400000493973494, 0.0, 0.0, 0.0, 0.0, 0.0, 1.7622064036376953E9, 0.0, 2025-11-03 16:46:43.637
59.0, 269.2391377100721, -63.002354653552175, 222.15566721791402, -32.0715120700188, -0.04800000227987766, -0.06400000303983688, 1.0400000493973494, 0.0, 0.0, 0.0, 0.0, 0.0, 1.7622064036534755E9, 0.0, 2025-11-03 16:46:43.653
59.0, 333.5018386486918, -12.150934956036508, 286.7175601529889, 40.15717577422038, -0.04800000227987766, -0.06400000303983688, 1.0400000493973494, 0.0, 0.0, 0.0, 0.0, 0.0, 1.7622064036534755E9, 0.0, 2025-11-03 16:46:43.653
60.0, 296.8919579824433, -30.756937235593796, 259.49482837552205, 15.978722560685128, -0.04800000227987766, -0.06400000303983688, 1.0400000493973494, 0.0, 0.0, 0.0, 0.0, 0.0, 1.7622064036541364E9, 0.0, 2025-11-03 16:46:43.654
60.0, 265.9405459491536, -64.81246623210609, 225.4617387787439, -21.12108499975875, -0.04800000227987766, -0.06400000303983688, 1.0400000493973494, 0.0, 0.0, 0.0, 0.0, 0.0, 1.7622064036541364E9, 0.0, 2025-11-03 16:46:43.654
61.0, 291.78325464297086, -47.39575213845819, 244.25473605608568, 1.1911581358872354, -0.04800000227987766, -0.06400000303983688, 1.0400000493973494, 0.0, 0.0, 0.0, 0.0, 0.0, 1.762206403667796E9, 0.0, 2025-11-03 16:46:43.667
61.0, 330.3416231861338, -9.443247388117015, 280.6327429250814, 41.59703725716099, -0.04800000227987766, -0.06400000303983688, 1.0400000493973494, 0.0, 0.0, 0.0, 0.0, 0.0, 1.762206403667796E9, 0.0, 2025-11-03 16:46:43.667
62.0, 275.0584220411256, -56.580946429632604, 226.96517856093124, -19.08283952390775, -0.04800000227987766, -0.06400000303983688, 1.0400000493973494, 0.0, 0.0, 0.0, 0.0, 0.0, 1.762206403683416E9, 0.0, 2025-11-03 16:46:43.683
62.0, 270.39850669633597, -66.79461320862174, 220.99629823165014, -19.98415541322902, -0.04800000227987766, -0.06400000303983688, 1.0400000493973494, 0.0, 0.0, 0.0, 0.0, 0.0, 1.762206403683416E9, 0.0, 2025-11-03 16:46:43.683
63.0, 347.18239268660545, 0.03739899955689907, 297.8288029213436, 46.331750601064414, -0.04800000227987766, -0.06400000303983688, 1.0400000493973494, 0.0, 0.0, 0.0, 0.0, 0.0, 1.762206403684102E9, 0.0, 2025-11-03 16:46:43.684
63.0, 285.7620157143101, -41.13515961263329, 250.85939937783405, 4.822600992862135, -0.04800000227987766, -0.06400000303983688, 1.0400000493973494, 0.0, 0.0, 0.0, 0.0, 0.0, 1.762206403684102E9, 0.0, 2025-11-03 16:46:43.684
64.0, 264.80361636262387, -65.27995372656733, 233.03129628906026, -11.202870317269117, -0.04800000227987766, -0.06400000303983688, 1.0400000493973494, 0.0, 0.0, 0.0, 0.0, 0.0, 1.7622064036976905E9, 0.0, 2025-11-03 16:46:43.697
64.0, 331.3476562742144, -9.873335883021355, 289.32801032206044, 40.32547127222642, -0.04800000227987766, -0.06400000303983688, 1.0400000493973494, 0.0, 0.0, 0.0, 0.0, 0.0, 1.7622064036976905E9, 0.0, 2025-11-03 16:46:43.697
65.0, 298.2607613662258, -24.97131200414151, 277.53610576177016, 35.785232726018876, -0.04800000227987766, -0.06400000303983688, 1.0400000493973494, 0.0, 0.0, 0.0, 0.0, 0.0, 1.7622064037135005E9, 0.0, 2025-11-03 16:46:43.713
65.0, 254.03644439019263, -68.98993448261172, 233.15097308764234, -8.162331653293222, -0.04800000227987766, -0.06400000303983688, 1.0400000493973494, 0.0, 0.0, 0.0, 0.0, 0.0, 1.7622064037135005E9, 0.0, 2025-11-03 16:46:43.713
66.0, 315.13518996629864, -22.9368064282462, 282.09504380775616, 42.90600224165246, -0.04800000227987766, -0.06400000303983688, 1.0400000493973494, 0.0, 0.0, 0.0, 0.0, 0.0, 1.7622064037142217E9, 0.0, 2025-11-03 16:46:43.714
66.0, 337.62694829981774, 10.314644077792764, 312.9080795426853, 66.73290485935286, -0.04800000227987766, -0.06400000303983688, 1.0400000493973494, 0.0, 0.0, 0.0, 0.0, 0.0, 1.7622064037142217E9, 0.0, 2025-11-03 16:46:43.714
67.0, 263.1206613825634, -51.348826391622424, 243.49927626503631, 7.646225459408015, -0.04800000227987766, -0.06400000303983688, 1.0400000493973494, 0.0, 0.0, 0.0, 0.0, 0.0, 1.7622064037277083E9, 0.0, 2025-11-03 16:46:43.727
67.0, 273.5475024590269, -48.33072712738067, 254.56190033396706, 28.896337007638067, -0.04800000227987766, -0.06400000303983688, 1.0400000493973494, 0.0, 0.0, 0.0, 0.0, 0.0, 1.7622064037277083E9, 0.0, 2025-11-03 16:46:43.727
68.0, 353.652419609949, 21.30994994752109, 319.26964936731383, 77.72821072908118, -0.04800000227987766, -0.06400000303983688, 1.0400000493973494, 0.0, 0.0, 0.0, 0.0, 0.0, 1.7622064037433703E9, 0.0, 2025-11-03 16:46:43.743
68.0, 279.5313423881307, -46.24760285206139, 247.5047091175802, 5.914651779923588, -0.04800000227987766, -0.06400000303983688, 1.0400000493973494, 0.0, 0.0, 0.0, 0.0, 0.0, 1.7622064037433703E9, 0.0, 2025-11-03 16:46:43.743
69.0, 266.55014964193106, -58.8809849023819, 238.2821158268489, 9.47877643769607, -0.04800000227987766, -0.06400000303983688, 1.0400000493973494, 0.0, 0.0, 0.0, 0.0, 0.0, 1.7622064037440836E9, 0.0, 2025-11-03 16:46:43.744
69.0, 304.035166897811, -23.187379725277424, 281.1825082185678, 45.475313511211425, -0.04800000227987766, -0.06400000303983688, 1.0400000493973494, 0.0, 0.0, 0.0, 0.0, 0.0, 1.7622064037440836E9, 0.0, 2025-11-03 16:46:43.744
70.0, 289.6926505677402, -33.06819540821016, 269.3719041584991, 35.71043472690508, -0.04800000227987766, -0.06400000303983688, 1.0400000493973494, 0.0, 0.0, 0.0, 0.0, 0.0, 1.7622064037576756E9, 0.0, 2025-11-03 16:46:43.757
70.0, 238.76269297115505, -83.09309721551836, 211.22393964743242, -21.06124660046771, -0.04800000227987766, -0.06400000303983688, 1.0400000493973494, 0.0, 0.0, 0.0, 0.0, 0.0, 1.7622064037576756E9, 0.0, 2025-11-03 16:46:43.757
71.0, 287.5534277930856, -44.32155437488109, 260.616798362229, 26.555159635376185, -0.04800000227987766, -0.06400000303983688, 1.0400000493973494, 0.0, 0.0, 0.0, 0.0, 0.0, 1.762206403773405E9, 0.0, 2025-11-03 16:46:43.773
71.0, 309.185009136796, -17.607448991388083, 289.683300817851, 63.46049239812419, -0.04800000227987766, -0.06400000303983688, 1.0400000493973494, 0.0, 0.0, 0.0, 0.0, 0.0, 1.762206403773405E9, 0.0, 2025-11-03 16:46:43.773
72.0, 255.6446013711393, -66.22240851540118, 224.79977648658678, -5.858553280588239, -0.04800000227987766, -0.06400000303983688, 1.0400000493973494, 0.0, 0.0, 0.0, 0.0, 0.0, 1.762206403774052E9, 0.0, 2025-11-03 16:46:43.774
72.0, 263.3525351798162, -67.69218919798732, 226.32565566850826, -27.59485182305798, -0.04800000227987766, -0.06400000303983688, 1.0400000493973494, 0.0, 0.0, 0.0, 0.0, 0.0, 1.762206403774052E9, 0.0, 2025-11-03 16:46:43.774
73.0, 332.8660556562245, -5.030165440402925, 296.85268903290853, 51.470373140182346, -0.04800000227987766, -0.06400000303983688, 1.0400000493973494, 0.0, 0.0, 0.0, 0.0, 0.0, 1.7622064037876756E9, 0.0, 2025-11-03 16:46:43.787
73.0, 257.637968047522, -71.39843005407602, 225.06156948348507, -12.934443996753544, -0.04800000227987766, -0.06400000303983688, 1.0400000493973494, 0.0, 0.0, 0.0, 0.0, 0.0, 1.7622064037876756E9, 0.0, 2025-11-03 16:46:43.787
74.0, 251.306317422539, -79.64490945637226, 217.80242366949096, -17.11191224725917, -0.04800000227987766, -0.06400000303983688, 1.0400000493973494, 0.0, 0.0, 0.0, 0.0, 0.0, 1.7622064038034196E9, 0.0, 2025-11-03 16:46:43.803
74.0, 317.76059973519295, -26.59068868495524, 276.28323927661404, 37.026879511307925, -0.04800000227987766, -0.06400000303983688, 1.0400000493973494, 0.0, 0.0, 0.0, 0.0, 0.0, 1.7622064038034196E9, 0.0, 2025-11-03 16:46:43.803
75.0, 283.0580680463463, -45.33880716282874, 252.0225082640536, 11.647918411996216, -0.04800000227987766, -0.06400000303983688, 1.0400000493973494, 0.0, 0.0, 0.0, 0.0, 0.0, 1.7622064038041184E9, 0.0, 2025-11-03 16:46:43.804
75.0, 242.56617122609168, -80.73696024343371, 208.1946206833236, -29.97342819487676, -0.04800000227987766, -0.06400000303983688, 1.0400000493973494, 0.0, 0.0, 0.0, 0.0, 0.0, 1.7622064038041184E9, 0.0, 2025-11-03 16:46:43.804
76.0, 298.75068826042116, -38.66308574192226, 252.75178875541314, 6.3783993744291365, -0.04800000227987766, -0.06400000303983688, 1.0400000493973494, 0.0, 0.0, 0.0, 0.0, 0.0, 1.7622064038176713E9, 0.0, 2025-11-03 16:46:43.817
76.0, 334.47421263717115, -4.162508650682867, 282.8542434987612, 43.60162363341078, -0.04800000227987766, -0.06400000303983688, 1.0400000493973494, 0.0, 0.0, 0.0, 0.0, 0.0, 1.7622064038176713E9, 0.0, 2025-11-03 16:46:43.817
77.0, 254.70588648226112, -72.02299334667623, 215.0124583025463, -18.970642525237054, -0.04800000227987766, -0.06400000303983688, 1.0400000493973494, 0.0, 0.0, 0.0, 0.0, 0.0, 1.762206403833495E9, 0.0, 2025-11-03 16:46:43.833
77.0, 265.88070754986256, -65.51556742377579, 230.4619850195013, 2.933951515238732, -0.04800000227987766, -0.06400000303983688, 1.0400000493973494, 0.0, 0.0, 0.0, 0.0, 0.0, 1.762206403833495E9, 0.0, 2025-11-03 16:46:43.833
78.0, 337.3053169036284, -2.3037783727049828, 297.40245432639495, 53.81155051244423, -0.04800000227987766, -0.06400000303983688, 1.0400000493973494, 0.0, 0.0, 0.0, 0.0, 0.0, 1.762206403834143E9, 0.0, 2025-11-03 16:46:43.834
78.0, 278.04660210572183, -48.27088872808963, 245.66467833938077, 7.470450161490589, -0.04800000227987766, -0.06400000303983688, 1.0400000493973494, 0.0, 0.0, 0.0, 0.0, 0.0, 1.762206403834143E9, 0.0, 2025-11-03 16:46:43.834
79.0, 244.38376260455698, -82.10576362721622, 217.8211231692694, -24.206502463202924, -0.04800000227987766, -0.06400000303983688, 1.0400000493973494, 0.0, 0.0, 0.0, 0.0, 0.0, 1.762206403847692E9, 0.0, 2025-11-03 16:46:43.847
79.0, 318.7479333234951, -19.088449373841286, 283.68824118888006, 45.890442406293005, -0.04800000227987766, -0.06400000303983688, 1.0400000493973494, 0.0, 0.0, 0.0, 0.0, 0.0, 1.762206403847692E9, 0.0, 2025-11-03 16:46:43.847
80.0, 294.19175021443516, -33.8311349991709, 266.8212923887186, 26.158730240073055, -0.04800000227987766, -0.06400000303983688, 1.0400000493973494, 0.0, 0.0, 0.0, 0.0, 0.0, 1.7622064038635156E9, 0.0, 2025-11-03 16:46:43.863
80.0, 232.2216079486534, -91.98657931014895, 197.9996534041129, -41.70923425583169, -0.04800000227987766, -0.06400000303983688, 1.0400000493973494, 0.0, 0.0, 0.0, 0.0, 0.0, 1.7622064038635156E9, 0.0, 2025-11-03 16:46:43.863
81.0, 282.1642319569364, -51.93599068466574, 241.08704079361632, 1.853120428044349, -0.04800000227987766, -0.06400000303983688, 1.0400000493973494, 0.0, 0.0, 0.0, 0.0, 0.0, 1.762206403864139E9, 0.0, 2025-11-03 16:46:43.864
81.0, 337.8363826973364, -7.049711416475475, 291.65422809449956, 42.99575984058902, -0.04800000227987766, -0.06400000303983688, 1.0400000493973494, 0.0, 0.0, 0.0, 0.0, 0.0, 1.762206403864139E9, 0.0, 2025-11-03 16:46:43.864
82.0, 251.65038821846247, -75.9611080000177, 217.36859527463093, -23.346325473394245, -0.04800000227987766, -0.06400000303983688, 1.0400000493973494, 0.0, 0.0, 0.0, 0.0, 0.0, 1.762206403877664E9, 0.0, 2025-11-03 16:46:43.877
82.0, 264.44084606692195, -72.42316264193505, 220.0538434428163, -23.376244673039764, -0.04800000227987766, -0.06400000303983688, 1.0400000493973494, 0.0, 0.0, 0.0, 0.0, 0.0, 1.762206403877664E9, 0.0, 2025-11-03 16:46:43.877
83.0, 335.5363442245871, -4.652435544878244, 294.2721580634825, 52.53250472759828, -0.04800000227987766, -0.06400000303983688, 1.0400000493973494, 0.0, 0.0, 0.0, 0.0, 0.0, 1.762206403893454E9, 0.0, 2025-11-03 16:46:43.893
83.0, 271.4568983837962, -58.30130040924996, 233.85407427931204, -12.149065006058663, -0.04800000227987766, -0.06400000303983688, 1.0400000493973494, 0.0, 0.0, 0.0, 0.0, 0.0, 1.762206403893454E9, 0.0, 2025-11-03 16:46:43.893
84.0, 262.7466713869944, -72.84577133692801, 223.0906422068365, -16.6930434522219, -0.04800000227987766, -0.06400000303983688, 1.0400000493973494, 0.0, 0.0, 0.0, 0.0, 0.0, 1.7622064038941267E9, 0.0, 2025-11-03 16:46:43.894
84.0, 313.39239658694714, -31.72931122407317, 269.1063712616451, 24.864724855404347, -0.04800000227987766, -0.06400000303983688, 1.0400000493973494, 0.0, 0.0, 0.0, 0.0, 0.0, 1.7622064038941267E9, 0.0, 2025-11-03 16:46:43.894
85.0, 301.01706763356924, -28.292343164794147, 267.64033047901466, 28.129657516721636, -0.04800000227987766, -0.06400000303983688, 1.0400000493973494, 0.0, 0.0, 0.0, 0.0, 0.0, 1.762206403907664E9, 0.0, 2025-11-03 16:46:43.907
85.0, 250.72663292940706, -78.7061945674941, 214.9713194030337, -18.409657531883568, -0.04800000227987766, -0.06400000303983688, 1.0400000493973494, 0.0, 0.0, 0.0, 0.0, 0.0, 1.762206403907664E9, 0.0, 2025-11-03 16:46:43.907
86.0, 288.2827082844451, -44.80774136912078, 248.75009580282494, 20.885471302550286, -0.04800000227987766, -0.06400000303983688, 1.0400000493973494, 0.0, 0.0, 0.0, 0.0, 0.0, 1.7622064039234667E9, 0.0, 2025-11-03 16:46:43.923
86.0, 313.83744468167424, -25.81278949417174, 273.60547090834007, 28.80283950874582, -0.04800000227987766, -0.06400000303983688, 1.0400000493973494, 0.0, 0.0, 0.0, 0.0, 0.0, 1.7622064039234667E9, 0.0, 2025-11-03 16:46:43.923
87.0, 257.0096648549661, -77.47576748207211, 216.7141127823852, -14.471542878542095, -0.04800000227987766, -0.06400000303983688, 1.0400000493973494, 0.0, 0.0, 0.0, 0.0, 0.0, 1.7622064039241245E9, 0.0, 2025-11-03 16:46:43.924
87.0, 260.424193514511, -77.74878017883748, 217.48079227330163, -17.51956134242937, -0.04800000227987766, -0.06400000303983688, 1.0400000493973494, 0.0, 0.0, 0.0, 0.0, 0.0, 1.7622064039241245E9, 0.0, 2025-11-03 16:46:43.924
88.0, 336.13472821749747, -3.6389226568862796, 293.21376637602225, 53.60959591483697, -0.04800000227987766, -0.06400000303983688, 1.0400000493973494, 0.0, 0.0, 0.0, 0.0, 0.0, 1.762206403937716E9, 0.0, 2025-11-03 16:46:43.937
88.0, 268.1695263227448, -62.594705558381975, 230.74621741613373, -10.724163122940809, -0.04800000227987766, -0.06400000303983688, 1.0400000493973494, 0.0, 0.0, 0.0, 0.0, 0.0, 1.762206403937716E9, 0.0, 2025-11-03 16:46:43.937
89.0, 244.46978030353785, -87.95870705787092, 209.4175679688342, -26.80199303245172, -0.04800000227987766, -0.06400000303983688, 1.0400000493973494, 0.0, 0.0, 0.0, 0.0, 0.0, 1.7622064039535644E9, 0.0, 2025-11-03 16:46:43.953
89.0, 321.65757548902184, -23.871781417168677, 274.7349206949584, 37.33729120763019, -0.04800000227987766, -0.06400000303983688, 1.0400000493973494, 0.0, 0.0, 0.0, 0.0, 0.0, 1.7622064039535644E9, 0.0, 2025-11-03 16:46:43.953
90.0, 306.6007382674143, -32.035983020439744, 263.0327737336047, 10.058460930828005, -0.04800000227987766, -0.06400000303983688, 1.0400000493973494, 0.0, 0.0, 0.0, 0.0, 0.0, 1.7622064039541183E9, 0.0, 2025-11-03 16:46:43.954
90.0, 256.84510925691575, -80.71452084369957, 210.16180806001648, -24.868464755360037, -0.04800000227987766, -0.06400000303983688, 1.0400000493973494, 0.0, 0.0, 0.0, 0.0, 0.0, 1.7622064039541183E9, 0.0, 2025-11-03 16:46:43.954
91.0, 296.53666748665273, -41.72980370558798, 261.7799072484486, 48.676667873281986, -0.04800000227987766, -0.06400000303983688, 1.0400000493973494, 0.0, 0.0, 0.0, 0.0, 0.0, 1.762206403967712E9, 0.0, 2025-11-03 16:46:43.967
91.0, 300.22794874291867, -33.89845319837332, 261.26754095451906, 9.325440539512783, -0.04800000227987766, -0.06400000303983688, 1.0400000493973494, 0.0, 0.0, 0.0, 0.0, 0.0, 1.762206403967712E9, 0.0, 2025-11-03 16:46:43.967
92.0, 247.06153097283095, -78.6313965683803, 217.75754487002268, -25.9193766429089, -0.04800000227987766, -0.06400000303983688, 1.0400000493973494, 0.0, 0.0, 0.0, 0.0, 0.0, 1.762206403983468E9, 0.0, 2025-11-03 16:46:43.983
92.0, 263.8686413737014, -68.85529808420688, 234.650672969874, 0.7498499411158264, -0.04800000227987766, -0.06400000303983688, 1.0400000493973494, 0.0, 0.0, 0.0, 0.0, 0.0, 1.762206403983468E9, 0.0, 2025-11-03 16:46:43.983
93.0, 336.98742540739477, -3.343470560386777, 307.63482060516253, 70.59622151358053, -0.04800000227987766, -0.06400000303983688, 1.0400000493973494, 0.0, 0.0, 0.0, 0.0, 0.0, 1.7622064039841225E9, 0.0, 2025-11-03 16:46:43.984
93.0, 258.80481683369726, -70.54573286417872, 225.0540896835737, -6.961823767516762, -0.04800000227987766, -0.06400000303983688, 1.0400000493973494, 0.0, 0.0, 0.0, 0.0, 0.0, 1.7622064039841225E9, 0.0, 2025-11-03 16:46:43.984
94.0, 261.1908730054274, -75.23182750865817, 217.38729477440938, -11.43848401447758, -0.04800000227987766, -0.06400000303983688, 1.0400000493973494, 0.0, 0.0, 0.0, 0.0, 0.0, 1.7622064039977417E9, 0.0, 2025-11-03 16:46:43.997
94.0, 327.95556701440364, -16.676213902421296, 273.45587491011247, 28.148357016500086, -0.04800000227987766, -0.06400000303983688, 1.0400000493973494, 0.0, 0.0, 0.0, 0.0, 0.0, 1.7622064039977417E9, 0.0, 2025-11-03 16:46:43.997
95.0, 303.48914150428027, -30.13985374290496, 259.07969948044047, 26.207348939497024, -0.04800000227987766, -0.06400000303983688, 1.0400000493973494, 0.0, 0.0, 0.0, 0.0, 0.0, 1.7622064040134945E9, 0.0, 2025-11-03 16:46:44.013
95.0, 251.9720196146518, -81.90754892956465, 209.17447447171435, -34.87643703678623, -0.04800000227987766, -0.06400000303983688, 1.0400000493973494, 0.0, 0.0, 0.0, 0.0, 0.0, 1.7622064040134945E9, 0.0, 2025-11-03 16:46:44.013
96.0, 303.39190410543233, -37.81038855202496, 256.08403961593285, 15.395298167597502, -0.04800000227987766, -0.06400000303983688, 1.0400000493973494, 0.0, 0.0, 0.0, 0.0, 0.0, 1.7622064040141249E9, 0.0, 2025-11-03 16:46:44.014
96.0, 342.51499754190445, 1.4211619831621647, 301.18723308155313, 62.54421690898016, -0.04800000227987766, -0.06400000303983688, 1.0400000493973494, 0.0, 0.0, 0.0, 0.0, 0.0, 1.7622064040141249E9, 0.0, 2025-11-03 16:46:44.014
97.0, 260.1137818181887, -68.4401691891253, 227.55608275393024, -11.48336281394586, -0.04800000227987766, -0.06400000303983688, 1.0400000493973494, 0.0, 0.0, 0.0, 0.0, 0.0, 1.76220640402783E9, 0.0, 2025-11-03 16:46:44.027
97.0, 265.73859135154635, -70.52703336440027, 221.40768722677603, -27.13484412850812, -0.04800000227987766, -0.06400000303983688, 1.0400000493973494, 0.0, 0.0, 0.0, 0.0, 0.0, 1.76220640402783E9, 0.0, 2025-11-03 16:46:44.027
98.0, 338.69655968714505, -4.192427850328386, 296.7442319341935, 61.65412071952596, -0.04800000227987766, -0.06400000303983688, 1.0400000493973494, 0.0, 0.0, 0.0, 0.0, 0.0, 1.7622064040434484E9, 0.0, 2025-11-03 16:46:44.043
98.0, 263.22163868136704, -63.09211225248873, 232.89291999069974, 2.1448326245881617, -0.04800000227987766, -0.06400000303983688, 1.0400000493973494, 0.0, 0.0, 0.0, 0.0, 0.0, 1.7622064040434484E9, 0.0, 2025-11-03 16:46:44.043
99.0, 238.69537477195263, -90.31858392991126, 204.02837213268504, -34.4052096423693, -0.04800000227987766, -0.06400000303983688, 1.0400000493973494, 0.0, 0.0, 0.0, 0.0, 0.0, 1.762206404044103E9, 0.0, 2025-11-03 16:46:44.044
99.0, 307.68530925456434, -32.29029621742666, 263.777013824787, 17.12313194712624, -0.04800000227987766, -0.06400000303983688, 1.0400000493973494, 0.0, 0.0, 0.0, 0.0, 0.0, 1.762206404044103E9, 0.0, 2025-11-03 16:46:44.044
100.0, 292.71074983198196, -42.051435101777315, 259.3714116769843, 12.998022296000272, -0.04800000227987766, -0.06400000303983688, 1.0400000493973494, 0.0, 0.0, 0.0, 0.0, 0.0, 1.7622064040584817E9, 0.0, 2025-11-03 16:46:44.058
100.0, 262.7578910868615, -71.49940735287964, 224.89701388543472, -7.429311261978, -0.04800000227987766, -0.06400000303983688, 1.0400000493973494, 0.0, 0.0, 0.0, 0.0, 0.0, 1.7622064040584817E9, 0.0, 2025-11-03 16:46:44.058
0.0, 281.48357016500086, -60.07401298824698, 240.982323594857, 4.037222002167255, -0.04800000227987766, -0.06400000303983688, 1.0400000493973494, 0.0, 0.0, 0.0, 0.0, 0.0, 1.7622064040591493E9, 0.0, 2025-11-03 16:46:44.059
1.0, 310.9726813156158, -23.901700616814196, 282.83180409902707, 55.139214996714145, -0.04800000227987766, -0.06400000303983688, 1.0400000493973494, 0.0, 0.0, 0.0, 0.0, 0.0, 1.7622064040727415E9, 0.0, 2025-11-03 16:46:44.072
1.0, 251.01834512595087, -80.10117725096643, 212.35338943405077, -22.972335477825254, -0.04800000227987766, -0.06400000303983688, 1.0400000493973494, 0.0, 0.0, 0.0, 0.0, 0.0, 1.7622064040727415E9, 0.0, 2025-11-03 16:46:44.072
2.0, 256.2616848638281, -80.34801064804196, 218.67008045921102, -1.5464486316777766, -0.04800000227987766, -0.06400000303983688, 1.0400000493973494, 0.0, 0.0, 0.0, 0.0, 0.0, 1.762206404088452E9, 0.0, 2025-11-03 16:46:44.088
2.0, 344.62056121695787, -3.8745363540947437, 306.3595147202723, 85.34264703886583, -0.04800000227987766, -0.06400000303983688, 1.0400000493973494, 0.0, 0.0, 0.0, 0.0, 0.0, 1.762206404088452E9, 0.0, 2025-11-03 16:46:44.088
3.0, 266.0938818473369, -65.066779429093, 225.95914547285065, -20.111312011722475, -0.04800000227987766, -0.06400000303983688, 1.0400000493973494, 0.0, 0.0, 0.0, 0.0, 0.0, 1.7622064040891335E9, 0.0, 2025-11-03 16:46:44.089
3.0, 256.9797456553206, -85.05654469225556, 203.97601353330538, -53.72927271341905, -0.04800000227987766, -0.06400000303983688, 1.0400000493973494, 0.0, 0.0, 0.0, 0.0, 0.0, 1.7622064040891335E9, 0.0, 2025-11-03 16:46:44.089
4.0, 321.2910652933642, -23.658607119694352, 273.2576602124609, 32.0341130704619, -0.04800000227987766, -0.06400000303983688, 1.0400000493973494, 0.0, 0.0, 0.0, 0.0, 0.0, 1.7622064041027534E9, 0.0, 2025-11-03 16:46:44.102
4.0, 302.08293912094086, -31.572235425934196, 267.83480527671054, 40.93133506504819, -0.04800000227987766, -0.06400000303983688, 1.0400000493973494, 0.0, 0.0, 0.0, 0.0, 0.0, 1.7622064041027534E9, 0.0, 2025-11-03 16:46:44.102
5.0, 258.711319334805, -76.97088098805398, 215.47246599709615, -34.184555544983596, -0.04800000227987766, -0.06400000303983688, 1.0400000493973494, 0.0, 0.0, 0.0, 0.0, 0.0, 1.7622064041184616E9, 0.0, 2025-11-03 16:46:44.118
5.0, 294.7976140072569, -44.00366287864745, 252.83406655443832, 12.743709099013358, -0.04800000227987766, -0.06400000303983688, 1.0400000493973494, 0.0, 0.0, 0.0, 0.0, 0.0, 1.7622064041184616E9, 0.0, 2025-11-03 16:46:44.118
6.0, 320.666502000764, -14.170480932109058, 283.83783718710765, 60.318976435344666, -0.04800000227987766, -0.06400000303983688, 1.0400000493973494, 0.0, 0.0, 0.0, 0.0, 0.0, 1.7622064041191182E9, 0.0, 2025-11-03 16:46:44.119
6.0, 258.9095340324566, -71.45826845336705, 213.3070639227517, -25.57904574694112, -0.04800000227987766, -0.06400000303983688, 1.0400000493973494, 0.0, 0.0, 0.0, 0.0, 0.0, 1.7622064041191182E9, 0.0, 2025-11-03 16:46:44.119
7.0, 271.5840549822897, -66.70485560968518, 233.6483797817491, 2.978830314707011, -0.04800000227987766, -0.06400000303983688, 1.0400000493973494, 0.0, 0.0, 0.0, 0.0, 0.0, 1.762206404133935E9, 0.0, 2025-11-03 16:46:44.133
7.0, 342.44393944274634, -3.4818468587473035, 294.0776832657866, 62.50307800946757, -0.04800000227987766, -0.06400000303983688, 1.0400000493973494, 0.0, 0.0, 0.0, 0.0, 0.0, 1.762206404133935E9, 0.0, 2025-11-03 16:46:44.133
8.0, 267.07747553568333, -55.49263554252684, 233.97001117793843, -8.929011144209653, -0.04800000227987766, -0.06400000303983688, 1.0400000493973494, 0.0, 0.0, 0.0, 0.0, 0.0, 1.762206404148448E9, 0.0, 2025-11-03 16:46:44.148
8.0, 258.80107693374157, -69.1806693803519, 218.4569061617367, -32.10517116962001, -0.04800000227987766, -0.06400000303983688, 1.0400000493973494, 0.0, 0.0, 0.0, 0.0, 0.0, 1.762206404148448E9, 0.0, 2025-11-03 16:46:44.148
9.0, 311.50000720936805, -34.459438191726804, 261.9519426464103, 19.726102316286415, -0.04800000227987766, -0.06400000303983688, 1.0400000493973494, 0.0, 0.0, 0.0, 0.0, 0.0, 1.762206404149115E9, 0.0, 2025-11-03 16:46:44.149
9.0, 305.2842934830114, -32.20427851844579, 268.3322119708173, 38.0740514989011, -0.04800000227987766, -0.06400000303983688, 1.0400000493973494, 0.0, 0.0, 0.0, 0.0, 0.0, 1.762206404149115E9, 0.0, 2025-11-03 16:46:44.149
10.0, 250.58077683113515, -84.22254700213671, 217.06566337822005, -5.3312273868359625, -0.04800000227987766, -0.06400000303983688, 1.0400000493973494, 0.0, 0.0, 0.0, 0.0, 0.0, 1.762206404162866E9, 0.0, 2025-11-03 16:46:44.162
10.0, 290.7024235557765, -52.17908418178558, 248.7313963030465, 12.68387069972232, -0.04800000227987766, -0.06400000303983688, 1.0400000493973494, 0.0, 0.0, 0.0, 0.0, 0.0, 1.762206404162866E9, 0.0, 2025-11-03 16:46:44.162
11.0, 308.328572046943, -23.015344327315688, 282.1848014066927, 47.96234698174521, -0.04800000227987766, -0.06400000303983688, 1.0400000493973494, 0.0, 0.0, 0.0, 0.0, 0.0, 1.7622064041785078E9, 0.0, 2025-11-03 16:46:44.178
11.0, 246.32851058151573, -81.68689483217895, 208.2320196828805, -38.679915291722864, -0.04800000227987766, -0.06400000303983688, 1.0400000493973494, 0.0, 0.0, 0.0, 0.0, 0.0, 1.7622064041785078E9, 0.0, 2025-11-03 16:46:44.178
12.0, 271.6139741819352, -62.80040005594492, 230.83971491502598, -4.766502493526787, -0.04800000227987766, -0.06400000303983688, 1.0400000493973494, 0.0, 0.0, 0.0, 0.0, 0.0, 1.7622064041791253E9, 0.0, 2025-11-03 16:46:44.179
12.0, 337.40629420243204, 0.40390919521450996, 299.3846013029106, 67.86983444588259, -0.04800000227987766, -0.06400000303983688, 1.0400000493973494, 0.0, 0.0, 0.0, 0.0, 0.0, 1.7622064041791253E9, 0.0, 2025-11-03 16:46:44.179
13.0, 287.75538239069283, -41.85696030408144, 254.3225467368029, 7.605086559895426, -0.04800000227987766, -0.06400000303983688, 1.0400000493973494, 0.0, 0.0, 0.0, 0.0, 0.0, 1.762206404192803E9, 0.0, 2025-11-03 16:46:44.192
13.0, 261.72941859904677, -70.22410146798939, 223.92089999699965, -20.978968801442534, -0.04800000227987766, -0.06400000303983688, 1.0400000493973494, 0.0, 0.0, 0.0, 0.0, 0.0, 1.762206404192803E9, 0.0, 2025-11-03 16:46:44.192
14.0, 296.2225158903748, -39.272689434699714, 257.83057289524004, 15.810427062679082, -0.04800000227987766, -0.06400000303983688, 1.0400000493973494, 0.0, 0.0, 0.0, 0.0, 0.0, 1.7622064042084763E9, 0.0, 2025-11-03 16:46:44.208
14.0, 286.4651169059798, -41.39695260953158, 254.22904923791066, 11.565640612971038, -0.04800000227987766, -0.06400000303983688, 1.0400000493973494, 0.0, 0.0, 0.0, 0.0, 0.0, 1.7622064042084763E9, 0.0, 2025-11-03 16:46:44.208
15.0, 262.36894149146974, -71.17029615677893, 225.315882680472, 2.492643320467323, -0.04800000227987766, -0.06400000303983688, 1.0400000493973494, 0.0, 0.0, 0.0, 0.0, 0.0, 1.7622064042091184E9, 0.0, 2025-11-03 16:46:44.209
15.0, 297.74839507229626, -50.72426309902221, 239.21709081577137, -19.16137742297724, -0.04800000227987766, -0.06400000303983688, 1.0400000493973494, 0.0, 0.0, 0.0, 0.0, 0.0, 1.7622064042091184E9, 0.0, 2025-11-03 16:46:44.209
16.0, 330.3790221856907, -14.035844533704221, 281.8108114111237, 36.47711421782151, -0.04800000227987766, -0.06400000303983688, 1.0400000493973494, 0.0, 0.0, 0.0, 0.0, 0.0, 1.7622064042228003E9, 0.0, 2025-11-03 16:46:44.222
16.0, 260.4989915136248, -68.63464398682117, 222.7540512108244, -18.892104626167566, -0.04800000227987766, -0.06400000303983688, 1.0400000493973494, 0.0, 0.0, 0.0, 0.0, 0.0, 1.7622064042228003E9, 0.0, 2025-11-03 16:46:44.222
17.0, 268.3041627211496, -65.94191601872444, 224.99051138432696, -7.6649249591864645, -0.04800000227987766, -0.06400000303983688, 1.0400000493973494, 0.0, 0.0, 0.0, 0.0, 0.0, 1.762206404238394E9, 0.0, 2025-11-03 16:46:44.238
17.0, 340.8357824617997, -6.342870324850082, 290.8277102042921, 44.4842400229536, -0.04800000227987766, -0.06400000303983688, 1.0400000493973494, 0.0, 0.0, 0.0, 0.0, 0.0, 1.762206404238394E9, 0.0, 2025-11-03 16:46:44.238
18.0, 274.11596725229174, -62.920076854527, 222.76901081064716, -28.74300110945478, -0.04800000227987766, -0.06400000303983688, 1.0400000493973494, 0.0, 0.0, 0.0, 0.0, 0.0, 1.7622064042391007E9, 0.0, 2025-11-03 16:46:44.239
18.0, 257.3761750506237, -84.60775669757277, 210.12814896041527, -27.288180026691407, -0.04800000227987766, -0.06400000303983688, 1.0400000493973494, 0.0, 0.0, 0.0, 0.0, 0.0, 1.7622064042391007E9, 0.0, 2025-11-03 16:46:44.239
19.0, 312.4462018981576, -36.6098806662485, 264.16970332013443, 27.16102342819795, -0.04800000227987766, -0.06400000303983688, 1.0400000493973494, 0.0, 0.0, 0.0, 0.0, 0.0, 1.7622064042527187E9, 0.0, 2025-11-03 16:46:44.252
19.0, 291.5027621462941, -43.56983448378742, 257.26958790188655, 30.175382792484015, -0.04800000227987766, -0.06400000303983688, 1.0400000493973494, 0.0, 0.0, 0.0, 0.0, 0.0, 1.7622064042527187E9, 0.0, 2025-11-03 16:46:44.252
20.0, 262.95984568446875, -80.32931114826351, 208.17218128358945, -40.97621386451647, -0.04800000227987766, -0.06400000303983688, 1.0400000493973494, 0.0, 0.0, 0.0, 0.0, 0.0, 1.7622064042684329E9, 0.0, 2025-11-03 16:46:44.268
20.0, 293.6906036203727, -51.38248549122363, 243.7984682614915, 11.04579451913014, -0.04800000227987766, -0.06400000303983688, 1.0400000493973494, 0.0, 0.0, 0.0, 0.0, 0.0, 1.7622064042684329E9, 0.0, 2025-11-03 16:46:44.268
21.0, 317.8989760335535, -18.673320478759706, 280.1615155306645, 52.43152742879465, -0.04800000227987766, -0.06400000303983688, 1.0400000493973494, 0.0, 0.0, 0.0, 0.0, 0.0, 1.762206404269102E9, 0.0, 2025-11-03 16:46:44.269
21.0, 251.79998421669006, -77.50568668171763, 205.58417051425204, -36.56313191680238, -0.04800000227987766, -0.06400000303983688, 1.0400000493973494, 0.0, 0.0, 0.0, 0.0, 0.0, 1.762206404269102E9, 0.0, 2025-11-03 16:46:44.269
22.0, 279.19475139211863, -57.99462861288339, 226.69216586416587, -9.82658713357523, -0.04800000227987766, -0.06400000303983688, 1.0400000493973494, 0.0, 0.0, 0.0, 0.0, 0.0, 1.7622064042827575E9, 0.0, 2025-11-03 16:46:44.282
22.0, 339.54925687704235, -4.304624848999083, 292.0057786903344, 56.758591677527875, -0.04800000227987766, -0.06400000303983688, 1.0400000493973494, 0.0, 0.0, 0.0, 0.0, 0.0, 1.7622064042827575E9, 0.0, 2025-11-03 16:46:44.282
23.0, 286.9924427997321, -42.33940739836544, 251.19973027380183, 3.5921739074401557, -0.04800000227987766, -0.06400000303983688, 1.0400000493973494, 0.0, 0.0, 0.0, 0.0, 0.0, 1.762206404298542E9, 0.0, 2025-11-03 16:46:44.298
23.0, 266.41177334357053, -68.85529808420688, 211.530611443799, -41.55215845769271, -0.04800000227987766, -0.06400000303983688, 1.0400000493973494, 0.0, 0.0, 0.0, 0.0, 0.0, 1.762206404298542E9, 0.0, 2025-11-03 16:46:44.298
24.0, 306.398783669807, -34.788549387827516, 260.16801036754623, 14.942770272959024, -0.04800000227987766, -0.06400000303983688, 1.0400000493973494, 0.0, 0.0, 0.0, 0.0, 0.0, 1.7622064042991092E9, 0.0, 2025-11-03 16:46:44.299
24.0, 294.68167710863054, -35.28221618197858, 255.36971872439608, 24.094305464532226, -0.04800000227987766, -0.06400000303983688, 1.0400000493973494, 0.0, 0.0, 0.0, 0.0, 0.0, 1.7622064042991092E9, 0.0, 2025-11-03 16:46:44.299
25.0, 255.21451287623495, -70.9571218593046, 218.16519396519288, -27.09744512895122, -0.04800000227987766, -0.06400000303983688, 1.0400000493973494, 0.0, 0.0, 0.0, 0.0, 0.0, 1.7622064043128831E9, 0.0, 2025-11-03 16:46:44.312
25.0, 300.68047663755715, -39.97205072641373, 250.88557867752388, 0.9742439384572208, -0.04800000227987766, -0.06400000303983688, 1.0400000493973494, 0.0, 0.0, 0.0, 0.0, 0.0, 1.7622064043128831E9, 0.0, 2025-11-03 16:46:44.312
26.0, 328.65118840616196, -11.481492863968015, 286.1154362601228, 41.469880658667535, -0.04800000227987766, -0.06400000303983688, 1.0400000493973494, 0.0, 0.0, 0.0, 0.0, 0.0, 1.7622064043284132E9, 0.0, 2025-11-03 16:46:44.328
26.0, 257.06950325425714, -74.67458241526037, 219.58261604839936, -13.89933818532154, -0.04800000227987766, -0.06400000303983688, 1.0400000493973494, 0.0, 0.0, 0.0, 0.0, 0.0, 1.7622064043284132E9, 0.0, 2025-11-03 16:46:44.328
27.0, 262.3203227920458, -70.06328576989472, 224.6053016888909, 6.8234474691562355, -0.04800000227987766, -0.06400000303983688, 1.0400000493973494, 0.0, 0.0, 0.0, 0.0, 0.0, 1.7622064043290963E9, 0.0, 2025-11-03 16:46:44.329
27.0, 329.65348159428686, -17.181100396439433, 279.4172754394822, 32.194928768556565, -0.04800000227987766, -0.06400000303983688, 1.0400000493973494, 0.0, 0.0, 0.0, 0.0, 0.0, 1.7622064043290963E9, 0.0, 2025-11-03 16:46:44.329
28.0, 273.62230045814067, -59.23253549821675, 231.8719273027964, 9.931304332334548, -0.04800000227987766, -0.06400000303983688, 1.0400000493973494, 0.0, 0.0, 0.0, 0.0, 0.0, 1.762206404342801E9, 0.0, 2025-11-03 16:46:44.342
28.0, 263.7901034746319, -69.95108877122402, 216.3102035871707, -31.15149668091908, -0.04800000227987766, -0.06400000303983688, 1.0400000493973494, 0.0, 0.0, 0.0, 0.0, 0.0, 1.762206404342801E9, 0.0, 2025-11-03 16:46:44.342
29.0, 311.12227731384337, -31.43011922761798, 262.34837204171345, 18.237622133921832, -0.04800000227987766, -0.06400000303983688, 1.0400000493973494, 0.0, 0.0, 0.0, 0.0, 0.0, 1.7622064043583755E9, 0.0, 2025-11-03 16:46:44.358
29.0, 288.8436932777986, -41.75224310532212, 248.64163870410994, 0.9518045387230814, -0.04800000227987766, -0.06400000303983688, 1.0400000493973494, 0.0, 0.0, 0.0, 0.0, 0.0, 1.7622064043583755E9, 0.0, 2025-11-03 16:46:44.358
30.0, 250.84630972798914, -74.10611762199551, 217.72388577042148, -21.49507499532774, -0.04800000227987766, -0.06400000303983688, 1.0400000493973494, 0.0, 0.0, 0.0, 0.0, 0.0, 1.7622064043590808E9, 0.0, 2025-11-03 16:46:44.359
30.0, 291.8356132423505, -38.96975753828883, 261.04314695717767, 36.73142741480842, -0.04800000227987766, -0.06400000303983688, 1.0400000493973494, 0.0, 0.0, 0.0, 0.0, 0.0, 1.7622064043590808E9, 0.0, 2025-11-03 16:46:44.359
31.0, 326.57928383070976, -6.320430925115943, 300.77584408642724, 77.43275863258168, -0.04800000227987766, -0.06400000303983688, 1.0400000493973494, 0.0, 0.0, 0.0, 0.0, 0.0, 1.7622064043728654E9, 0.0, 2025-11-03 16:46:44.372
31.0, 251.60924931894988, -70.10442466940731, 220.48767183767632, -17.48964214278385, -0.04800000227987766, -0.06400000303983688, 1.0400000493973494, 0.0, 0.0, 0.0, 0.0, 0.0, 1.7622064043728654E9, 0.0, 2025-11-03 16:46:44.372
32.0, 269.11198111157864, -65.06303952913731, 228.84260833868757, -6.718730270396918, -0.04800000227987766, -0.06400000303983688, 1.0400000493973494, 0.0, 0.0, 0.0, 0.0, 0.0, 1.7622064043885295E9, 0.0, 2025-11-03 16:46:44.388
32.0, 326.72513992898166, -14.45845322869718, 282.4914732030593, 38.7771526905708, -0.04800000227987766, -0.06400000303983688, 1.0400000493973494, 0.0, 0.0, 0.0, 0.0, 0.0, 1.7622064043885295E9, 0.0, 2025-11-03 16:46:44.388
33.0, 264.0892954710871, -61.43907647207379, 227.4588453550823, -22.504847983364016, -0.04800000227987766, -0.06400000303983688, 1.0400000493973494, 0.0, 0.0, 0.0, 0.0, 0.0, 1.7622064043891332E9, 0.0, 2025-11-03 16:46:44.389
33.0, 249.39522854518145, -79.64490945637226, 212.51420513214543, -28.582185411360115, -0.04800000227987766, -0.06400000303983688, 1.0400000493973494, 0.0, 0.0, 0.0, 0.0, 0.0, 1.7622064043891332E9, 0.0, 2025-11-03 16:46:44.389
34.0, 320.50194640271366, -21.38848784659058, 277.6408229605295, 33.13364365743473, -0.04800000227987766, -0.06400000303983688, 1.0400000493973494, 0.0, 0.0, 0.0, 0.0, 0.0, 1.7622064044027164E9, 0.0, 2025-11-03 16:46:44.402
34.0, 303.75467440113425, -27.77249707095325, 269.2971061593853, 24.34861866151914, -0.04800000227987766, -0.06400000303983688, 1.0400000493973494, 0.0, 0.0, 0.0, 0.0, 0.0, 1.7622064044027164E9, 0.0, 2025-11-03 16:46:44.402
35.0, 246.1489953836426, -76.67168899159878, 216.54581728437915, -25.96051554242149, -0.04800000227987766, -0.06400000303983688, 1.0400000493973494, 0.0, 0.0, 0.0, 0.0, 0.0, 1.7622064044184718E9, 0.0, 2025-11-03 16:46:44.418
35.0, 280.3915193779394, -59.374651696532965, 235.39865296101198, -11.520761813502759, -0.04800000227987766, -0.06400000303983688, 1.0400000493973494, 0.0, 0.0, 0.0, 0.0, 0.0, 1.7622064044184718E9, 0.0, 2025-11-03 16:46:44.418
36.0, 330.906348079443, -13.085909944958985, 285.2365597705357, 43.870896430220455, -0.04800000227987766, -0.06400000303983688, 1.0400000493973494, 0.0, 0.0, 0.0, 0.0, 0.0, 1.762206404419105E9, 0.0, 2025-11-03 16:46:44.419
36.0, 255.14719467703253, -76.57819149270654, 213.4903190205805, -34.39398994250223, -0.04800000227987766, -0.06400000303983688, 1.0400000493973494, 0.0, 0.0, 0.0, 0.0, 0.0, 1.762206404419105E9, 0.0, 2025-11-03 16:46:44.419
37.0, 287.2093569971621, -49.306841015815735, 242.9906498710625, 1.7633628291077912, -0.04800000227987766, -0.06400000303983688, 1.0400000493973494, 0.0, 0.0, 0.0, 0.0, 0.0, 1.7622064044327164E9, 0.0, 2025-11-03 16:46:44.432
37.0, 327.6040164185688, -13.781531336717308, 284.3838625806384, 38.56397839309648, -0.04800000227987766, -0.06400000303983688, 1.0400000493973494, 0.0, 0.0, 0.0, 0.0, 0.0, 1.7622064044327164E9, 0.0, 2025-11-03 16:46:44.432
38.0, 273.37172716110945, -54.572620153427124, 238.353173926007, -3.1172066130675375, -0.04800000227987766, -0.06400000303983688, 1.0400000493973494, 0.0, 0.0, 0.0, 0.0, 0.0, 1.762206404448396E9, 0.0, 2025-11-03 16:46:44.448
38.0, 262.3091030921787, -70.14930346887559, 221.9798919199966, -25.12277795234695, -0.04800000227987766, -0.06400000303983688, 1.0400000493973494, 0.0, 0.0, 0.0, 0.0, 0.0, 1.762206404448396E9, 0.0, 2025-11-03 16:46:44.448
39.0, 317.08741774316877, -20.793843753635883, 277.46504766261205, 44.8544901185669, -0.04800000227987766, -0.06400000303983688, 1.0400000493973494, 0.0, 0.0, 0.0, 0.0, 0.0, 1.762206404449087E9, 0.0, 2025-11-03 16:46:44.449
39.0, 293.2492954256013, -32.402493216097355, 259.5958056743257, 14.217229681555182, -0.04800000227987766, -0.06400000303983688, 1.0400000493973494, 0.0, 0.0, 0.0, 0.0, 0.0, 1.762206404449087E9, 0.0, 2025-11-03 16:46:44.449
40.0, 251.4110346212983, -77.56926498096436, 208.8603228754364, -38.37324349535629, -0.04800000227987766, -0.06400000303983688, 1.0400000493973494, 0.0, 0.0, 0.0, 0.0, 0.0, 1.762206404462746E9, 0.0, 2025-11-03 16:46:44.462
40.0, 290.49298915825784, -49.78554821014404, 245.38418584270403, 10.376352427061647, -0.04800000227987766, -0.06400000303983688, 1.0400000493973494, 0.0, 0.0, 0.0, 0.0, 0.0, 1.762206404462746E9, 0.0, 2025-11-03 16:46:44.462
41.0, 329.8965750914067, -13.949826834723353, 278.8263712464832, 35.26538663217798, -0.04800000227987766, -0.06400000303983688, 1.0400000493973494, 0.0, 0.0, 0.0, 0.0, 0.0, 1.7622064044784293E9, 0.0, 2025-11-03 16:46:44.478
41.0, 272.51902997121215, -56.81656012684107, 228.80894923908636, -6.883285868447274, -0.04800000227987766, -0.06400000303983688, 1.0400000493973494, 0.0, 0.0, 0.0, 0.0, 0.0, 1.7622064044784293E9, 0.0, 2025-11-03 16:46:44.478
42.0, 253.95416659116745, -72.84203143697232, 225.14384728251025, -5.967010379303247, -0.04800000227987766, -0.06400000303983688, 1.0400000493973494, 0.0, 0.0, 0.0, 0.0, 0.0, 1.7622064044791193E9, 0.0, 2025-11-03 16:46:44.479
42.0, 325.3114577457309, -17.169880696572363, 281.42560171568766, 29.760253897402436, -0.04800000227987766, -0.06400000303983688, 1.0400000493973494, 0.0, 0.0, 0.0, 0.0, 0.0, 1.7622064044791193E9, 0.0, 2025-11-03 16:46:44.479
43.0, 266.5800688415766, -61.768187668174505, 237.7211308334954, -9.347879939246923, -0.04800000227987766, -0.06400000303983688, 1.0400000493973494, 0.0, 0.0, 0.0, 0.0, 0.0, 1.7622064044927E9, 0.0, 2025-11-03 16:46:44.492
43.0, 247.36820276919752, -81.65697563253343, 220.00522474339232, -9.220723340753466, -0.04800000227987766, -0.06400000303983688, 1.0400000493973494, 0.0, 0.0, 0.0, 0.0, 0.0, 1.7622064044927E9, 0.0, 2025-11-03 16:46:44.492
44.0, 317.01635964401066, -18.385348182171583, 285.35249666916206, 66.381354263518, -0.04800000227987766, -0.06400000303983688, 1.0400000493973494, 0.0, 0.0, 0.0, 0.0, 0.0, 1.7622064045084436E9, 0.0, 2025-11-03 16:46:44.508
44.0, 300.9684489341453, -31.73679102398455, 264.94760251091793, 12.122885706368834, -0.04800000227987766, -0.06400000303983688, 1.0400000493973494, 0.0, 0.0, 0.0, 0.0, 0.0, 1.7622064045084436E9, 0.0, 2025-11-03 16:46:44.508
45.0, 245.73012658860534, -85.32955738902092, 208.8191839759238, -34.47626774152741, -0.04800000227987766, -0.06400000303983688, 1.0400000493973494, 0.0, 0.0, 0.0, 0.0, 0.0, 1.7622064045091634E9, 0.0, 2025-11-03 16:46:44.509
45.0, 296.2225158903748, -42.35810689814389, 256.05412041628733, 22.878837978933007, -0.04800000227987766, -0.06400000303983688, 1.0400000493973494, 0.0, 0.0, 0.0, 0.0, 0.0, 1.7622064045091634E9, 0.0, 2025-11-03 16:46:44.509
46.0, 320.883416198194, -14.694066925905645, 281.61259671347216, 27.93892261898145, -0.04800000227987766, -0.06400000303983688, 1.0400000493973494, 0.0, 0.0, 0.0, 0.0, 0.0, 1.7622064045229163E9, 0.0, 2025-11-03 16:46:44.522
46.0, 260.5251708133146, -62.86023845523596, 229.41107313195243, -4.912358591798693, -0.04800000227987766, -0.06400000303983688, 1.0400000493973494, 0.0, 0.0, 0.0, 0.0, 0.0, 1.7622064045229163E9, 0.0, 2025-11-03 16:46:44.522
47.0, 266.9390992373228, -63.806433144025505, 230.43954561976716, -11.150511717889458, -0.04800000227987766, -0.06400000303983688, 1.0400000493973494, 0.0, 0.0, 0.0, 0.0, 0.0, 1.7622064045385563E9, 0.0, 2025-11-03 16:46:44.538
47.0, 327.27864512242377, -11.197260467335582, 289.84411651594564, 40.87897646566853, -0.04800000227987766, -0.06400000303983688, 1.0400000493973494, 0.0, 0.0, 0.0, 0.0, 0.0, 1.7622064045385563E9, 0.0, 2025-11-03 16:46:44.538
48.0, 277.25748321507126, -47.642585535533726, 239.7593763093464, 0.5366756436415017, -0.04800000227987766, -0.06400000303983688, 1.0400000493973494, 0.0, 0.0, 0.0, 0.0, 0.0, 1.76220640453919E9, 0.0, 2025-11-03 16:46:44.539
48.0, 257.3836548505351, -74.33799141924828, 215.94369339151308, -25.474328548181802, -0.04800000227987766, -0.06400000303983688, 1.0400000493973494, 0.0, 0.0, 0.0, 0.0, 0.0, 1.76220640453919E9, 0.0, 2025-11-03 16:46:44.539
49.0, 329.35802949778736, -13.912427835166454, 282.1174832074903, 37.34103110758588, -0.04800000227987766, -0.06400000303983688, 1.0400000493973494, 0.0, 0.0, 0.0, 0.0, 0.0, 1.7622064045527256E9, 0.0, 2025-11-03 16:46:44.552
49.0, 312.4162826985121, -19.454959569498897, 273.90840280475095, 29.494721000548452, -0.04800000227987766, -0.06400000303983688, 1.0400000493973494, 0.0, 0.0, 0.0, 0.0, 0.0, 1.7622064045527256E9, 0.0, 2025-11-03 16:46:44.552
50.0, 247.79829126410186, -79.94410145282745, 211.3024775465019, -23.368764873128384, -0.04800000227987766, -0.06400000303983688, 1.0400000493973494, 0.0, 0.0, 0.0, 0.0, 0.0, 1.7622064045684412E9, 0.0, 2025-11-03 16:46:44.568
50.0, 297.23976867832243, -43.76430928148329, 242.429664877709, -9.613412836100906, -0.04800000227987766, -0.06400000303983688, 1.0400000493973494, 0.0, 0.0, 0.0, 0.0, 0.0, 1.7622064045684412E9, 0.0, 2025-11-03 16:46:44.568
51.0, 330.6108959829435, -0.7517198910936713, 293.5279179723002, 58.333089558873326, -0.04800000227987766, -0.06400000303983688, 1.0400000493973494, 0.0, 0.0, 0.0, 0.0, 0.0, 1.762206404569177E9, 0.0, 2025-11-03 16:46:44.569
51.0, 246.8633162751794, -79.73092715535313, 209.60830286657438, -30.75506728561595, -0.04800000227987766, -0.06400000303983688, 1.0400000493973494, 0.0, 0.0, 0.0, 0.0, 0.0, 1.762206404569177E9, 0.0, 2025-11-03 16:46:44.569
52.0, 263.1206613825634, -73.42171593010426, 213.73341251770034, -42.46843394683674, -0.04800000227987766, -0.06400000303983688, 1.0400000493973494, 0.0, 0.0, 0.0, 0.0, 0.0, 1.762206404582748E9, 0.0, 2025-11-03 16:46:44.582
52.0, 337.6419078996405, -4.917968441732228, 286.9756132499315, 40.86775676580146, -0.04800000227987766, -0.06400000303983688, 1.0400000493973494, 0.0, 0.0, 0.0, 0.0, 0.0, 1.762206404582748E9, 0.0, 2025-11-03 16:46:44.582
53.0, 281.5396686643362, -57.45608301926404, 236.5019234479405, -4.7291034939698875, -0.04800000227987766, -0.06400000303983688, 1.0400000493973494, 0.0, 0.0, 0.0, 0.0, 0.0, 1.7622064045984397E9, 0.0, 2025-11-03 16:46:44.598
53.0, 250.81639052834362, -82.28901872504503, 211.0855633490719, -16.74914195155725, -0.04800000227987766, -0.06400000303983688, 1.0400000493973494, 0.0, 0.0, 0.0, 0.0, 0.0, 1.7622064045984397E9, 0.0, 2025-11-03 16:46:44.598
54.0, 320.5692646019161, -28.9393458571285, 276.21218117745593, 42.700307744089514, -0.04800000227987766, -0.06400000303983688, 1.0400000493973494, 0.0, 0.0, 0.0, 0.0, 0.0, 1.7622064045991478E9, 0.0, 2025-11-03 16:46:44.599
54.0, 295.44835659954697, -41.16507881227881, 256.2934740134515, 16.498568654526025, -0.04800000227987766, -0.06400000303983688, 1.0400000493973494, 0.0, 0.0, 0.0, 0.0, 0.0, 1.7622064045991478E9, 0.0, 2025-11-03 16:46:44.599
55.0, 266.00038434844464, -73.28707953169942, 224.07049599522725, -11.165471317712218, -0.04800000227987766, -0.06400000303983688, 1.0400000493973494, 0.0, 0.0, 0.0, 0.0, 0.0, 1.762206404612706E9, 0.0, 2025-11-03 16:46:44.612
55.0, 282.4671638533473, -57.702916416339576, 238.6112270229496, 11.46092341421172, -0.04800000227987766, -0.06400000303983688, 1.0400000493973494, 0.0, 0.0, 0.0, 0.0, 0.0, 1.762206404612706E9, 0.0, 2025-11-03 16:46:44.612
56.0, 326.62416263017803, -15.905794511549175, 280.31859132880345, 44.04293182818219, -0.04800000227987766, -0.06400000303983688, 1.0400000493973494, 0.0, 0.0, 0.0, 0.0, 0.0, 1.7622064046284285E9, 0.0, 2025-11-03 16:46:44.628
56.0, 268.28920312132686, -64.36741813737899, 217.6790069709532, -38.253566696774215, -0.04800000227987766, -0.06400000303983688, 1.0400000493973494, 0.0, 0.0, 0.0, 0.0, 0.0, 1.7622064046284285E9, 0.0, 2025-11-03 16:46:44.628
57.0, 277.4968368122354, -65.29865322634578, 224.6389607884921, -16.154497858602554, -0.04800000227987766, -0.06400000303983688, 1.0400000493973494, 0.0, 0.0, 0.0, 0.0, 0.0, 1.7622064046291516E9, 0.0, 2025-11-03 16:46:44.629
57.0, 349.250557362102, 9.043078092858195, 307.062615911942, 83.46147736115381, -0.04800000227987766, -0.06400000303983688, 1.0400000493973494, 0.0, 0.0, 0.0, 0.0, 0.0, 1.7622064046291516E9, 0.0, 2025-11-03 16:46:44.629
58.0, 278.7235239977017, -51.90981138497591, 234.37018047319725, -19.14641782315448, -0.04800000227987766, -0.06400000303983688, 1.0400000493973494, 0.0, 0.0, 0.0, 0.0, 0.0, 1.7622064046428888E9, 0.0, 2025-11-03 16:46:44.642
58.0, 262.9710653843358, -69.87629077211022, 224.96807198459283, -3.82778760464862, -0.04800000227987766, -0.06400000303983688, 1.0400000493973494, 0.0, 0.0, 0.0, 0.0, 0.0, 1.7622064046428888E9, 0.0, 2025-11-03 16:46:44.642
59.0, 325.4049552446231, -20.315136559307575, 276.7095878715627, 43.3360907365568, -0.04800000227987766, -0.06400000303983688, 1.0400000493973494, 0.0, 0.0, 0.0, 0.0, 0.0, 1.7622064046584609E9, 0.0, 2025-11-03 16:46:44.658
59.0, 308.1752361487597, -30.416606339626014, 257.6248783976771, 3.5659946077503264, -0.04800000227987766, -0.06400000303983688, 1.0400000493973494, 0.0, 0.0, 0.0, 0.0, 0.0, 1.7622064046584609E9, 0.0, 2025-11-03 16:46:44.658
60.0, 262.26048439275473, -68.38407068978995, 216.77769108163193, -18.847225826699287, -0.04800000227987766, -0.06400000303983688, 1.0400000493973494, 0.0, 0.0, 0.0, 0.0, 0.0, 1.7622064046591673E9, 0.0, 2025-11-03 16:46:44.659
60.0, 306.2267482718453, -37.74307035282254, 253.34269294841215, 17.287687545176595, -0.04800000227987766, -0.06400000303983688, 1.0400000493973494, 0.0, 0.0, 0.0, 0.0, 0.0, 1.7622064046591673E9, 0.0, 2025-11-03 16:46:44.659
61.0, 351.6590529335663, 4.01291265245527, 297.6455478235148, 51.137522044125944, -0.04800000227987766, -0.06400000303983688, 1.0400000493973494, 0.0, 0.0, 0.0, 0.0, 0.0, 1.7622064046727047E9, 0.0, 2025-11-03 16:46:44.672
61.0, 249.97865293826908, -85.83070398308337, 202.17338175466284, -37.98429389996454, -0.04800000227987766, -0.06400000303983688, 1.0400000493973494, 0.0, 0.0, 0.0, 0.0, 0.0, 1.7622064046727047E9, 0.0, 2025-11-03 16:46:44.672
62.0, 265.7647706512362, -74.5885647162795, 219.13756795367226, -17.03711424814537, -0.04800000227987766, -0.06400000303983688, 1.0400000493973494, 0.0, 0.0, 0.0, 0.0, 0.0, 1.7622064046881828E9, 0.0, 2025-11-03 16:46:44.688
62.0, 333.8683488443494, -13.160707944072783, 282.98513999721035, 40.01879947585985, -0.04800000227987766, -0.06400000303983688, 1.0400000493973494, 0.0, 0.0, 0.0, 0.0, 0.0, 1.7622064046881828E9, 0.0, 2025-11-03 16:46:44.688
63.0, 262.7242319872603, -68.93383598327637, 219.8257095455192, -28.208195415791124, -0.04800000227987766, -0.06400000303983688, 1.0400000493973494, 0.0, 0.0, 0.0, 0.0, 0.0, 1.76220640470344E9, 0.0, 2025-11-03 16:46:44.703
63.0, 249.65328164212406, -85.05654469225556, 201.90036905789748, -42.05330505175516, -0.04800000227987766, -0.06400000303983688, 1.0400000493973494, 0.0, 0.0, 0.0, 0.0, 0.0, 1.76220640470344E9, 0.0, 2025-11-03 16:46:44.703
64.0, 326.6316424300894, -23.838122317567468, 271.3615309349261, 24.890904155094177, -0.04800000227987766, -0.06400000303983688, 1.0400000493973494, 0.0, 0.0, 0.0, 0.0, 0.0, 1.762206404704143E9, 0.0, 2025-11-03 16:46:44.704
64.0, 306.09211187344044, -32.798922611400485, 261.1703035556711, 22.30289338575676, -0.04800000227987766, -0.06400000303983688, 1.0400000493973494, 0.0, 0.0, 0.0, 0.0, 0.0, 1.762206404704143E9, 0.0, 2025-11-03 16:46:44.704
