%OpenBCI Raw EXG Data
%Number of channels = 4
%Sample Rate = 200 Hz
%Board = OpenBCI_GUI$BoardGanglionBLE
Sample Index, EXG Channel 0, EXG Channel 1, EXG Channel 2, EXG Channel 3, Accel Channel 0, Accel Channel 1, Accel Channel 2, Other, Other, Other, Other, Other, Timestamp, Marker Channel, Timestamp (Formatted)
38.0, -34.855867587029934, -24.343008811585605, -29.36195455212146, -21.35856864694506, 0.0, 0.0, 0.0, 0.0, 0.0, 0.0, 0.0, 0.0, 1.7622067418899379E9, 0.0, 2025-11-03 16:52:21.889
38.0, -61.67843006923795, -46.76744894590229, -54.79327425081283, -45.89231235627085, 0.0, 0.0, 0.0, 0.0, 0.0, 0.0, 0.0, 0.0, 1.7622067418899379E9, 0.0, 2025-11-03 16:52:21.889
0.0, 313.63362013408914, -32.51843011472374, 277.1134970667772, 19.144547873176634, 0.0, 0.0, 0.0, 0.0, 0.0, 0.0, 0.0, 0.0, 1.7622067419159915E9, 0.0, 2025-11-03 16:52:21.915
1.0, 266.13315079687163, -62.50868785940111, 245.7619157382287, -2.4832935705780983, 0.0, -0.04800000227987766, 0.0, 0.0, 0.0, 0.0, 0.0, 0.0, 1.762206741929428E9, 0.0, 2025-11-03 16:52:21.929
1.0, 235.5370292593725, -92.3792688054964, 208.87154257530347, -37.14468635991216, 0.0, -0.04800000227987766, 0.0, 0.0, 0.0, 0.0, 0.0, 0.0, 1.762206741929428E9, 0.0, 2025-11-03 16:52:21.929
2.0, 263.1786298318766, -71.75746044982225, 233.19585188711062, -14.46967292856425, -0.04800000227987766, -0.04800000227987766, 0.0, 0.0, 0.0, 0.0, 0.0, 0.0, 1.7622067419461672E9, 0.0, 2025-11-03 16:52:21.946
2.0, 272.86497071711347, -54.79701415076852, 255.1041858275421, -3.1938745621591806, -0.04800000227987766, -0.04800000227987766, 0.0, 0.0, 0.0, 0.0, 0.0, 0.0, 1.7622067419461672E9, 0.0, 2025-11-03 16:52:21.946
3.0, 220.6073486362584, -105.24452465306967, 203.05973804416135, -42.71713729389012, -0.04800000227987766, -0.04800000227987766, 0.0, 0.0, 0.0, 0.0, 0.0, 0.0, 1.7622067419468987E9, 0.0, 2025-11-03 16:52:21.946
3.0, 237.06664834124967, -95.37118877004832, 217.06192347826436, -20.88360135257244, -0.04800000227987766, -0.04800000227987766, 0.0, 0.0, 0.0, 0.0, 0.0, 0.0, 1.7622067419468987E9, 0.0, 2025-11-03 16:52:21.946
4.0, 273.76628660643473, -57.13445162307471, 259.97727546980605, 16.11522890906781, -0.04800000227987766, -0.04800000227987766, 0.0, 0.0, 0.0, 0.0, 0.0, 0.0, 1.7622067419592764E9, 0.0, 2025-11-03 16:52:21.959
4.0, 229.9084798260592, -91.0067255217582, 218.47934556147084, -19.832689465023577, -0.04800000227987766, -0.04800000227987766, 0.0, 0.0, 0.0, 0.0, 0.0, 0.0, 1.7622067419592764E9, 0.0, 2025-11-03 16:52:21.959
5.0, 234.71425126912072, -94.71670627780259, 217.72388577042148, -23.845602117478848, -0.04800000227987766, -0.04800000227987766, 0.0, 0.0, 0.0, 0.0, 0.0, 0.0, 1.7622067419749906E9, 0.0, 2025-11-03 16:52:21.974
5.0, 286.46698685595766, -47.717383534647524, 266.0695724976249, 25.01619080360979, -0.04800000227987766, -0.04800000227987766, 0.0, 0.0, 0.0, 0.0, 0.0, 0.0, 1.7622067419749906E9, 0.0, 2025-11-03 16:52:21.974
6.0, 263.72091532545164, -56.23313573375344, 251.9177910652943, 13.366402441635728, -0.04800000227987766, -0.04800000227987766, 0.0, 0.0, 0.0, 0.0, 0.0, 0.0, 1.7622067419757087E9, 0.0, 2025-11-03 16:52:21.975
6.0, 237.3583605377935, -90.15776823181659, 218.43820666195825, -14.192920331843197, -0.04800000227987766, -0.04800000227987766, 0.0, 0.0, 0.0, 0.0, 0.0, 0.0, 1.7622067419757087E9, 0.0, 2025-11-03 16:52:21.975
7.0, 269.7458941540681, -62.160877163521945, 246.75298922648653, -3.7922585550695658, -0.04800000227987766, -0.04800000227987766, 0.0, 0.0, 0.0, 0.0, 0.0, 0.0, 1.7622067420057957E9, 0.0, 2025-11-03 16:52:22.005
7.0, 281.3695032163523, -52.22770288120955, 252.2880411609076, -2.490773370489478, -0.04800000227987766, -0.04800000227987766, 0.0, 0.0, 0.0, 0.0, 0.0, 0.0, 1.7622067420057957E9, 0.0, 2025-11-03 16:52:22.005
8.0, 229.51953023066744, -98.85677552875131, 205.99555950937793, -43.16218538861722, -0.04800000227987766, -0.04800000227987766, 0.0, 0.0, 0.0, 0.0, 0.0, 0.0, 1.7622067420064185E9, 0.0, 2025-11-03 16:52:22.006
8.0, 261.521854151506, -69.89125037193298, 234.13830667594448, -13.927387434989214, -0.04800000227987766, -0.04800000227987766, 0.0, 0.0, 0.0, 0.0, 0.0, 0.0, 1.7622067420064185E9, 0.0, 2025-11-03 16:52:22.006
9.0, 314.1310268281959, -25.610834896564484, 282.1848014066927, 29.545209649950266, -0.04800000227987766, -0.04800000227987766, 0.0, 0.0, 0.0, 0.0, 0.0, 0.0, 1.7622067420070972E9, 0.0, 2025-11-03 16:52:22.007
9.0, 248.77253520255908, -71.2189148562029, 228.4573986432515, -19.944886463694274, -0.04800000227987766, -0.04800000227987766, 0.0, 0.0, 0.0, 0.0, 0.0, 0.0, 1.7622067420070972E9, 0.0, 2025-11-03 16:52:22.007
10.0, 233.59976108232513, -88.4486339520663, 216.84874918079004, -25.842708693817258, -0.04800000227987766, -0.04800000227987766, 1.0400000493973494, 0.0, 0.0, 0.0, 0.0, 0.0, 1.762206742019323E9, 0.0, 2025-11-03 16:52:22.019
10.0, 282.6709884009324, -49.673351211473346, 262.1501573440619, 12.165894555859268, -0.04800000227987766, -0.04800000227987766, 1.0400000493973494, 0.0, 0.0, 0.0, 0.0, 0.0, 1.762206742019323E9, 0.0, 2025-11-03 16:52:22.019
11.0, 256.38323161238804, -71.24883405584842, 235.21913776313886, -15.976852610707283, -0.04800000227987766, -0.03200000151991844, 1.0400000493973494, 0.0, 0.0, 0.0, 0.0, 0.0, 1.7622067420350325E9, 0.0, 2025-11-03 16:52:22.035
11.0, 222.57453601295128, -95.52078476827592, 213.5613771197386, -26.90858018118888, -0.04800000227987766, -0.03200000151991844, 1.0400000493973494, 0.0, 0.0, 0.0, 0.0, 0.0, 1.7622067420350325E9, 0.0, 2025-11-03 16:52:22.035
12.0, 266.3388452944346, -65.75492102093995, 247.42617121851072, -7.550858010537922, -0.03200000151991844, -0.03200000151991844, 1.0400000493973494, 0.0, 0.0, 0.0, 0.0, 0.0, 1.762206742035726E9, 0.0, 2025-11-03 16:52:22.035
12.0, 287.39448204496875, -45.226610164158046, 272.5882181203924, 22.772250830195844, -0.03200000151991844, -0.03200000151991844, 1.0400000493973494, 0.0, 0.0, 0.0, 0.0, 0.0, 1.762206742035726E9, 0.0, 2025-11-03 16:52:22.035
13.0, 226.56500926567242, -90.3410233296454, 218.69625975890085, -23.168680225498974, -0.03200000151991844, -0.03200000151991844, 1.0400000493973494, 0.0, 0.0, 0.0, 0.0, 0.0, 1.7622067420500054E9, 0.0, 2025-11-03 16:52:22.050
13.0, 231.66997270518914, -94.24547888338566, 219.4517195499502, -22.327202735468745, -0.03200000151991844, -0.03200000151991844, 1.0400000493973494, 0.0, 0.0, 0.0, 0.0, 0.0, 1.7622067420500054E9, 0.0, 2025-11-03 16:52:22.050
14.0, 275.5502188852988, -56.184517034329474, 261.3348591537215, 16.601415903307498, -0.03200000151991844, -0.03200000151991844, 1.0400000493973494, 0.0, 0.0, 0.0, 0.0, 0.0, 1.762206742065981E9, 0.0, 2025-11-03 16:52:22.065
14.0, 234.33278147364035, -87.58471706230193, 221.25435132859275, -22.394520934671164, -0.03200000151991844, -0.03200000151991844, 1.0400000493973494, 0.0, 0.0, 0.0, 0.0, 0.0, 1.762206742065981E9, 0.0, 2025-11-03 16:52:22.065
15.0, 235.51084995968267, -86.15607527922839, 222.63437441224232, -17.528911092318594, -0.03200000151991844, -0.03200000151991844, 1.0400000493973494, 0.0, 0.0, 0.0, 0.0, 0.0, 1.7622067420659962E9, 0.0, 2025-11-03 16:52:22.065
15.0, 276.64974947227165, -58.05820691213012, 250.691103879828, 0.4263485949486494, -0.03200000151991844, -0.03200000151991844, 1.0400000493973494, 0.0, 0.0, 0.0, 0.0, 0.0, 1.7622067420659962E9, 0.0, 2025-11-03 16:52:22.065
16.0, 244.5838472521864, -76.42485559452325, 227.92259294958785, -14.020884933881462, -0.03200000151991844, -0.03200000151991844, 1.0400000493973494, 0.0, 0.0, 0.0, 0.0, 0.0, 1.7622067420793364E9, 0.0, 2025-11-03 16:52:22.079
16.0, 233.10235438821837, -94.06970358546823, 212.14021513657644, -34.799769087694585, -0.03200000151991844, -0.03200000151991844, 1.0400000493973494, 0.0, 0.0, 0.0, 0.0, 0.0, 1.7622067420793364E9, 0.0, 2025-11-03 16:52:22.079
17.0, 251.64477836852893, -76.37249699514359, 240.11840670509264, -1.847510578110814, -0.03200000151991844, -0.03200000151991844, 1.0400000493973494, 0.0, 0.0, 0.0, 0.0, 0.0, 1.762206742094985E9, 0.0, 2025-11-03 16:52:22.094
17.0, 291.35503609804437, -27.03199687972665, 284.25296608218923, 45.40986526198685, -0.03200000151991844, -0.03200000151991844, 1.0400000493973494, 0.0, 0.0, 0.0, 0.0, 0.0, 1.762206742094985E9, 0.0, 2025-11-03 16:52:22.094
18.0, 249.90572488913313, -60.50784138310701, 256.82827970711514, 21.014497851021588, -0.03200000151991844, -0.03200000151991844, 1.0400000493973494, 0.0, 0.0, 0.0, 0.0, 0.0, 1.7622067420959997E9, 0.0, 2025-11-03 16:52:22.095
18.0, 238.3569138259627, -74.6633627153933, 248.9483105004765, 12.259392054751515, -0.03200000151991844, -0.03200000151991844, 1.0400000493973494, 0.0, 0.0, 0.0, 0.0, 0.0, 1.7622067420959997E9, 0.0, 2025-11-03 16:52:22.095
19.0, 291.8337432923727, -19.907487464137375, 306.55024961801246, 71.68640235066414, -0.03200000151991844, -0.03200000151991844, 1.0400000493973494, 0.0, 0.0, 0.0, 0.0, 0.0, 1.762206742109373E9, 0.0, 2025-11-03 16:52:22.109
19.0, 246.3902189307846, -54.8044939506799, 269.5925582558848, 45.237829864025116, -0.03200000151991844, -0.03200000151991844, 1.0400000493973494, 0.0, 0.0, 0.0, 0.0, 0.0, 1.762206742109373E9, 0.0, 2025-11-03 16:52:22.109
20.0, 228.85756793851033, -71.02444005850703, 253.4025313477032, 13.467379740439355, -0.03200000151991844, -0.03200000151991844, 0.5280000250786543, 0.0, 0.0, 0.0, 0.0, 0.0, 1.7622067421250432E9, 0.0, 2025-11-03 16:52:22.125
20.0, 286.58292375458404, -24.690819507464767, 298.32620961545035, 63.10707185231149, -0.03200000151991844, -0.03200000151991844, 0.5280000250786543, 0.0, 0.0, 0.0, 0.0, 0.0, 1.7622067421250432E9, 0.0, 2025-11-03 16:52:22.125
21.0, 257.81935319537297, -45.312627863138914, 278.2990453527309, 46.71883024647832, -0.03200000151991844, -0.04800000227987766, 0.5280000250786543, 0.0, 0.0, 0.0, 0.0, 0.0, 1.7622067421257324E9, 0.0, 2025-11-03 16:52:22.125
21.0, 232.52266989508644, -70.16052316874266, 253.54090764606372, 23.445432822220027, -0.03200000151991844, -0.04800000227987766, 0.5280000250786543, 0.0, 0.0, 0.0, 0.0, 0.0, 1.7622067421257324E9, 0.0, 2025-11-03 16:52:22.125
22.0, 263.26838743081316, -44.80774136912078, 282.60367020173, 51.47972289007157, -0.04800000227987766, -0.04800000227987766, 0.5280000250786543, 0.0, 0.0, 0.0, 0.0, 0.0, 1.7622067421558983E9, 0.0, 2025-11-03 16:52:22.155
22.0, 275.7110345833935, -27.32370907627046, 299.85208879737183, 73.7732665259391, -0.04800000227987766, -0.04800000227987766, 0.5280000250786543, 0.0, 0.0, 0.0, 0.0, 0.0, 1.7622067421558983E9, 0.0, 2025-11-03 16:52:22.155
23.0, 224.2387914932333, -76.52583289332688, 243.00186957092956, 12.270611754618585, -0.04800000227987766, -0.04800000227987766, 0.5280000250786543, 0.0, 0.0, 0.0, 0.0, 0.0, 1.762206742156363E9, 0.0, 2025-11-03 16:52:22.156
23.0, 231.08280841214582, -75.04483251087368, 245.9863097355701, 16.721092701889575, -0.04800000227987766, -0.04800000227987766, 0.5280000250786543, 0.0, 0.0, 0.0, 0.0, 0.0, 1.762206742156363E9, 0.0, 2025-11-03 16:52:22.156
24.0, 293.6064558713697, -21.545563644729555, 301.44154627854005, 66.8843708075583, -0.04800000227987766, -0.04800000227987766, 0.5280000250786543, 0.0, 0.0, 0.0, 0.0, 0.0, 1.7622067421571288E9, 0.0, 2025-11-03 16:52:22.157
24.0, 241.19923779228702, -61.12492487579584, 257.2957672015764, 25.562216197140515, -0.04800000227987766, -0.04800000227987766, 0.5280000250786543, 0.0, 0.0, 0.0, 0.0, 0.0, 1.7622067421571288E9, 0.0, 2025-11-03 16:52:22.157
25.0, 228.11332784732804, -71.41712955385447, 244.98027664748952, 21.33986914716661, -0.04800000227987766, -0.04800000227987766, 0.5280000250786543, 0.0, 0.0, 0.0, 0.0, 0.0, 1.762206742169394E9, 0.0, 2025-11-03 16:52:22.169
25.0, 289.4065482211299, -19.095929173752666, 300.6075485884212, 66.2149287154898, -0.04800000227987766, -0.04800000227987766, 0.5280000250786543, 0.0, 0.0, 0.0, 0.0, 0.0, 1.762206742169394E9, 0.0, 2025-11-03 16:52:22.169
26.0, 256.2897341134958, -41.12767981272191, 278.1494493545033, 47.279815239831805, -0.04800000227987766, -0.04800000227987766, 0.5280000250786543, 0.0, 0.0, 0.0, 0.0, 0.0, 1.7622067421850696E9, 0.0, 2025-11-03 16:52:22.185
26.0, 230.19271222269163, -71.11793755739927, 244.15749865723774, 19.544717168435454, -0.04800000227987766, -0.04800000227987766, 0.5280000250786543, 0.0, 0.0, 0.0, 0.0, 0.0, 1.7622067421850696E9, 0.0, 2025-11-03 16:52:22.185
27.0, 258.2457017903216, -50.03612150717527, 271.0286798388697, 39.09691413678229, -0.04800000227987766, -0.04800000227987766, 0.5280000250786543, 0.0, 0.0, 0.0, 0.0, 0.0, 1.7622067421857471E9, 0.0, 2025-11-03 16:52:22.185
27.0, 271.2680334360339, -32.57826851401478, 295.94763324363157, 69.20684868004173, -0.04800000227987766, -0.04800000227987766, 0.5280000250786543, 0.0, 0.0, 0.0, 0.0, 0.0, 1.7622067421857471E9, 0.0, 2025-11-03 16:52:22.185
28.0, 223.80870299832895, -77.52812608145177, 243.2786221676506, 12.311750654131174, -0.04800000227987766, -0.04800000227987766, 0.5280000250786543, 0.0, 0.0, 0.0, 0.0, 0.0, 1.7622067421993675E9, 0.0, 2025-11-03 16:52:22.199
28.0, 243.04674837039784, -68.52244698815048, 252.78918775497004, 15.763678313232958, -0.04800000227987766, -0.04800000227987766, 0.5280000250786543, 0.0, 0.0, 0.0, 0.0, 0.0, 1.7622067421993675E9, 0.0, 2025-11-03 16:52:22.199
29.0, 267.853504776489, -44.15325887687504, 281.2199072181247, 45.679138058796525, -0.04800000227987766, -0.04800000227987766, 0.5280000250786543, 0.0, 0.0, 0.0, 0.0, 0.0, 1.7622067422150404E9, 0.0, 2025-11-03 16:52:22.215
29.0, 230.19645212264732, -68.45138888899237, 250.36947248363867, 19.858868764713407, -0.04800000227987766, -0.04800000227987766, 0.5280000250786543, 0.0, 0.0, 0.0, 0.0, 0.0, 1.7622067422150404E9, 0.0, 2025-11-03 16:52:22.215
30.0, 224.96807198459283, -75.96484789997339, 241.356313590426, 13.29160444252193, -0.04800000227987766, -0.04800000227987766, 0.7840000372380018, 0.0, 0.0, 0.0, 0.0, 0.0, 1.7622067422157538E9, 0.0, 2025-11-03 16:52:22.215
30.0, 278.34766405215487, -37.39525965694338, 283.0000995970331, 49.295621315948665, -0.04800000227987766, -0.04800000227987766, 0.7840000372380018, 0.0, 0.0, 0.0, 0.0, 0.0, 1.7622067422157538E9, 0.0, 2025-11-03 16:52:22.215
31.0, 247.90113851288334, -59.11285869963467, 259.8800380709581, 22.042970338836312, -0.04800000227987766, -0.04800000227987766, 0.7840000372380018, 0.0, 0.0, 0.0, 0.0, 0.0, 1.7622067422292955E9, 0.0, 2025-11-03 16:52:22.229
31.0, 220.48393193772063, -86.60112337395549, 224.2761904927902, -7.767772207967937, -0.04800000227987766, -0.04800000227987766, 0.7840000372380018, 0.0, 0.0, 0.0, 0.0, 0.0, 1.7622067422292955E9, 0.0, 2025-11-03 16:52:22.229
32.0, 267.3411384825595, -51.95469018444419, 263.7321350253187, 30.13611384294927, -0.04800000227987766, -0.04800000227987766, 0.7840000372380018, 0.0, 0.0, 0.0, 0.0, 0.0, 1.762206742245038E9, 0.0, 2025-11-03 16:52:22.245
32.0, 271.04737933864817, -35.244817182421684, 275.27346628857777, 46.55053474847227, -0.04800000227987766, -0.04800000227987766, 0.7840000372380018, 0.0, 0.0, 0.0, 0.0, 0.0, 1.762206742245038E9, 0.0, 2025-11-03 16:52:22.245
33.0, 221.73305852292106, -81.95242772903293, 229.4260327317752, -7.4274413120001554, -0.04800000227987766, -0.04800000227987766, 0.7840000372380018, 0.0, 0.0, 0.0, 0.0, 0.0, 1.762206742245726E9, 0.0, 2025-11-03 16:52:22.245
33.0, 240.27548250323161, -69.03481328208, 252.87146555399522, 13.875028835609555, -0.04800000227987766, -0.04800000227987766, 0.7840000372380018, 0.0, 0.0, 0.0, 0.0, 0.0, 1.762206742245726E9, 0.0, 2025-11-03 16:52:22.245
34.0, 289.5337048196234, -21.3810080466792, 302.9674254604615, 65.99053471814841, -0.04800000227987766, -0.04800000227987766, 0.7840000372380018, 0.0, 0.0, 0.0, 0.0, 0.0, 1.762206742259277E9, 0.0, 2025-11-03 16:52:22.259
34.0, 237.77722933283076, -60.29466708563268, 253.00610195240006, 15.27749131899327, -0.04800000227987766, -0.04800000227987766, 0.7840000372380018, 0.0, 0.0, 0.0, 0.0, 0.0, 1.762206742259277E9, 0.0, 2025-11-03 16:52:22.259
35.0, 229.4596918313764, -80.53874554578215, 235.37247366132215, 1.1556290863081813, -0.04800000227987766, -0.04800000227987766, 0.7840000372380018, 0.0, 0.0, 0.0, 0.0, 0.0, 1.7622067422750587E9, 0.0, 2025-11-03 16:52:22.275
35.0, 273.220261212904, -39.80749512836337, 280.73372022388503, 38.75284334085882, -0.04800000227987766, -0.04800000227987766, 0.7840000372380018, 0.0, 0.0, 0.0, 0.0, 0.0, 1.7622067422750587E9, 0.0, 2025-11-03 16:52:22.275
36.0, 255.90826431801543, -43.700730982236564, 273.3025390119292, 31.39272022806108, -0.04800000227987766, -0.04800000227987766, 0.7840000372380018, 0.0, 0.0, 0.0, 0.0, 0.0, 1.762206742275751E9, 0.0, 2025-11-03 16:52:22.275
36.0, 228.78650983935222, -75.90874940063804, 234.6132739703171, -3.414528659544885, -0.04800000227987766, -0.04800000227987766, 0.7840000372380018, 0.0, 0.0, 0.0, 0.0, 0.0, 1.762206742275751E9, 0.0, 2025-11-03 16:52:22.275
37.0, 261.34607885358855, -53.312273868359625, 265.2654940071516, 28.711211959831417, -0.04800000227987766, -0.04800000227987766, 0.7840000372380018, 0.0, 0.0, 0.0, 0.0, 0.0, 1.7622067422893114E9, 0.0, 2025-11-03 16:52:22.289
37.0, 281.1488491189666, -26.21669868938625, 299.73615189874545, 69.39384367782623, -0.04800000227987766, -0.04800000227987766, 0.7840000372380018, 0.0, 0.0, 0.0, 0.0, 0.0, 1.7622067422893114E9, 0.0, 2025-11-03 16:52:22.289
38.0, 216.77395118167624, -91.09274322073907, 230.28620972158387, -6.264332425780594, -0.04800000227987766, -0.04800000227987766, 0.7840000372380018, 0.0, 0.0, 0.0, 0.0, 0.0, 1.7622067423051484E9, 0.0, 2025-11-03 16:52:22.305
38.0, 232.4291723961942, -79.4055558592081, 248.89969180105254, 8.990719493478537, -0.04800000227987766, -0.04800000227987766, 0.7840000372380018, 0.0, 0.0, 0.0, 0.0, 0.0, 1.7622067423051484E9, 0.0, 2025-11-03 16:52:22.305
39.0, 276.53381257364526, -35.44303188007325, 292.2600918873213, 60.27970748580992, -0.04800000227987766, -0.04800000227987766, 0.7840000372380018, 0.0, 0.0, 0.0, 0.0, 0.0, 1.762206742305752E9, 0.0, 2025-11-03 16:52:22.305
39.0, 214.98627900285646, -86.86665627080947, 229.38115393230692, -0.1533358981832862, -0.04800000227987766, -0.04800000227987766, 0.7840000372380018, 0.0, 0.0, 0.0, 0.0, 0.0, 1.762206742305752E9, 0.0, 2025-11-03 16:52:22.305
40.0, 239.44148481311277, -68.11479789298028, 247.6580450157635, 14.90724122337997, -0.04800000227987766, -0.04800000227987766, 0.9120000433176756, 0.0, 0.0, 0.0, 0.0, 0.0, 1.7622067423195362E9, 0.0, 2025-11-03 16:52:22.319
40.0, 276.3019387763925, -37.9076259508729, 284.4885797793977, 49.284401616081595, -0.04800000227987766, -0.04800000227987766, 0.9120000433176756, 0.0, 0.0, 0.0, 0.0, 0.0, 1.7622067423195362E9, 0.0, 2025-11-03 16:52:22.319
41.0, 254.37864523613825, -54.19115035794675, 262.9579757344909, 31.699392024427652, -0.04800000227987766, -0.04800000227987766, 0.9120000433176756, 0.0, 0.0, 0.0, 0.0, 0.0, 1.7622067423350248E9, 0.0, 2025-11-03 16:52:22.335
41.0, 233.73439748072997, -76.32387829571962, 235.03962256526574, 4.338283948600292, -0.04800000227987766, -0.04800000227987766, 0.9120000433176756, 0.0, 0.0, 0.0, 0.0, 0.0, 1.7622067423350248E9, 0.0, 2025-11-03 16:52:22.335
42.0, 255.15654442692176, -58.3985378080979, 255.83720621885732, 13.24672564305365, -0.04800000227987766, -0.04800000227987766, 0.9120000433176756, 0.0, 0.0, 0.0, 0.0, 0.0, 1.7622067423357496E9, 0.0, 2025-11-03 16:52:22.335
42.0, 271.42884913412854, -35.14757978357375, 282.95148089760914, 45.52954206056893, -0.04800000227987766, -0.04800000227987766, 0.9120000433176756, 0.0, 0.0, 0.0, 0.0, 0.0, 1.7622067423357496E9, 0.0, 2025-11-03 16:52:22.335
43.0, 225.39816047949716, -79.47287405841053, 234.97604426601902, -1.2416467852890491, -0.04800000227987766, -0.04800000227987766, 0.9120000433176756, 0.0, 0.0, 0.0, 0.0, 0.0, 1.7622067423492713E9, 0.0, 2025-11-03 16:52:22.349
43.0, 248.3574063074775, -59.434490095824, 254.4310038355179, 7.580777210183442, -0.04800000227987766, -0.04800000227987766, 0.9120000433176756, 0.0, 0.0, 0.0, 0.0, 0.0, 1.7622067423492713E9, 0.0, 2025-11-03 16:52:22.349
44.0, 287.39448204496875, -22.794690229929984, 296.03365094261244, 51.763955286704004, -0.04800000227987766, -0.04800000227987766, 0.9120000433176756, 0.0, 0.0, 0.0, 0.0, 0.0, 1.7622067423649998E9, 0.0, 2025-11-03 16:52:22.364
44.0, 241.00850289454684, -66.49542121216655, 253.49228894663975, 20.393674458377063, -0.04800000227987766, -0.04800000227987766, 0.9120000433176756, 0.0, 0.0, 0.0, 0.0, 0.0, 1.7622067423649998E9, 0.0, 2025-11-03 16:52:22.364
45.0, 213.6361751188524, -92.96643309853971, 223.78626359859481, -13.976006134413183, -0.04800000227987766, -0.04800000227987766, 0.9120000433176756, 0.0, 0.0, 0.0, 0.0, 0.0, 1.7622067423657331E9, 0.0, 2025-11-03 16:52:22.365
45.0, 269.1175909615122, -45.80629465728998, 281.57145781395957, 48.32698722742498, -0.04800000227987766, -0.04800000227987766, 0.9120000433176756, 0.0, 0.0, 0.0, 0.0, 0.0, 1.7622067423657331E9, 0.0, 2025-11-03 16:52:22.365
46.0, 242.7625159737654, -61.31191987358034, 258.0699264924042, 20.19171986076981, -0.04800000227987766, -0.04800000227987766, 0.9120000433176756, 0.0, 0.0, 0.0, 0.0, 0.0, 1.7622067423792784E9, 0.0, 2025-11-03 16:52:22.379
46.0, 215.11343560134992, -92.12869550846517, 225.158806882333, -2.617929968982935, -0.04800000227987766, -0.04800000227987766, 0.9120000433176756, 0.0, 0.0, 0.0, 0.0, 0.0, 1.7622067423792784E9, 0.0, 2025-11-03 16:52:22.379
47.0, 256.9217772060074, -54.572620153427124, 261.3012000541203, 24.99749130383134, -0.04800000227987766, -0.04800000227987766, 0.9120000433176756, 0.0, 0.0, 0.0, 0.0, 0.0, 1.7622067423957505E9, 0.0, 2025-11-03 16:52:22.395
47.0, 275.0827313908376, -38.09462094865739, 283.4451476917602, 45.709057258442044, -0.04800000227987766, -0.04800000227987766, 0.9120000433176756, 0.0, 0.0, 0.0, 0.0, 0.0, 1.7622067423957505E9, 0.0, 2025-11-03 16:52:22.395
48.0, 222.54461681330577, -89.58930343855172, 229.77010352769867, 0.12715659849345684, -0.04800000227987766, -0.04800000227987766, 0.9120000433176756, 0.0, 0.0, 0.0, 0.0, 0.0, 1.7622067423957734E9, 0.0, 2025-11-03 16:52:22.395
48.0, 228.0946283475496, -93.49375899229199, 230.0879950239323, -1.933528277091682, -0.04800000227987766, -0.04800000227987766, 0.9120000433176756, 0.0, 0.0, 0.0, 0.0, 0.0, 1.7622067423957734E9, 0.0, 2025-11-03 16:52:22.395
49.0, 273.01082681538537, -46.70013074669987, 275.7147744833492, 38.95479793846607, -0.04800000227987766, -0.04800000227987766, 0.9120000433176756, 0.0, 0.0, 0.0, 0.0, 0.0, 1.7622067424095142E9, 0.0, 2025-11-03 16:52:22.409
49.0, 232.93031899025664, -73.15618303325027, 240.86638669623062, 10.512858775444329, -0.04800000227987766, -0.04800000227987766, 0.9120000433176756, 0.0, 0.0, 0.0, 0.0, 0.0, 1.7622067424095142E9, 0.0, 2025-11-03 16:52:22.409
50.0, 229.26147713372484, -77.34487098362297, 235.21165796322748, 8.104363203980029, -0.04800000227987766, -0.04800000227987766, 0.9760000463575125, 0.0, 0.0, 0.0, 0.0, 0.0, 1.762206742425084E9, 0.0, 2025-11-03 16:52:22.425
50.0, 288.2621388346888, -30.21091184206307, 282.8168444992043, 38.027302749454975, -0.04800000227987766, -0.04800000227987766, 0.9760000463575125, 0.0, 0.0, 0.0, 0.0, 0.0, 1.762206742425084E9, 0.0, 2025-11-03 16:52:22.425
51.0, 251.9140511653386, -59.06050010025501, 251.86917236587033, 15.120415520854294, -0.04800000227987766, -0.06400000303983688, 0.9760000463575125, 0.0, 0.0, 0.0, 0.0, 0.0, 1.762206742426754E9, 0.0, 2025-11-03 16:52:22.426
51.0, 227.29054985707626, -80.84541734214872, 225.25978418113664, -20.629288155585527, -0.04800000227987766, -0.06400000303983688, 0.9760000463575125, 0.0, 0.0, 0.0, 0.0, 0.0, 1.762206742426754E9, 0.0, 2025-11-03 16:52:22.426
52.0, 264.61475141486153, -54.553920653648674, 255.23882222594693, 15.535544415935874, -0.04800000227987766, -0.06400000303983688, 0.9760000463575125, 0.0, 0.0, 0.0, 0.0, 0.0, 1.762206742439348E9, 0.0, 2025-11-03 16:52:22.439
52.0, 274.0318195032887, -36.32190836966038, 272.50594032136723, 34.96058478578925, -0.04800000227987766, -0.06400000303983688, 0.9760000463575125, 0.0, 0.0, 0.0, 0.0, 0.0, 1.762206742439348E9, 0.0, 2025-11-03 16:52:22.439
53.0, 232.60494769411162, -74.48384751752019, 235.9072793549858, -7.876229306682944, -0.04800000227987766, -0.06400000303983688, 0.9760000463575125, 0.0, 0.0, 0.0, 0.0, 0.0, 1.7622067424549804E9, 0.0, 2025-11-03 16:52:22.454
53.0, 247.89365871297196, -69.0310733821243, 238.08764102915302, 0.018699499778449535, -0.04800000227987766, -0.06400000303983688, 0.9760000463575125, 0.0, 0.0, 0.0, 0.0, 0.0, 1.7622067424549804E9, 0.0, 2025-11-03 16:52:22.454
54.0, 287.61139624239877, -30.330588640645146, 279.2714193412103, 33.950811797752976, -0.04800000227987766, -0.06400000303983688, 0.9760000463575125, 0.0, 0.0, 0.0, 0.0, 0.0, 1.7622067424557204E9, 0.0, 2025-11-03 16:52:22.455
54.0, 226.8342820624821, -83.29131191316992, 227.76551715144888, -11.459053464233875, -0.04800000227987766, -0.06400000303983688, 0.9760000463575125, 0.0, 0.0, 0.0, 0.0, 0.0, 1.7622067424557204E9, 0.0, 2025-11-03 16:52:22.455
55.0, 224.76611738698557, -92.36430920567364, 219.44049985008314, -19.69057326670736, -0.04800000227987766, -0.06400000303983688, 0.9760000463575125, 0.0, 0.0, 0.0, 0.0, 0.0, 1.7622067424693305E9, 0.0, 2025-11-03 16:52:22.469
55.0, 280.1241165311076, -39.4634243324399, 276.8517040698789, 32.69794531259686, -0.04800000227987766, -0.06400000303983688, 0.9760000463575125, 0.0, 0.0, 0.0, 0.0, 0.0, 1.7622067424693305E9, 0.0, 2025-11-03 16:52:22.469
56.0, 263.403023829218, -45.17425156477839, 265.05231970967725, 25.42383989877999, -0.04800000227987766, -0.06400000303983688, 0.9760000463575125, 0.0, 0.0, 0.0, 0.0, 0.0, 1.7622067424850295E9, 0.0, 2025-11-03 16:52:22.485
56.0, 234.867587167304, -79.65238925628364, 231.62883380567655, -2.41971527133137, -0.04800000227987766, -0.06400000303983688, 0.9760000463575125, 0.0, 0.0, 0.0, 0.0, 0.0, 1.7622067424850295E9, 0.0, 2025-11-03 16:52:22.485
57.0, 283.9762134854682, -40.60783371888101, 271.06233893847093, 34.17894569505006, -0.04800000227987766, -0.06400000303983688, 0.9760000463575125, 0.0, 0.0, 0.0, 0.0, 0.0, 1.7622067424857402E9, 0.0, 2025-11-03 16:52:22.485
57.0, 279.6267098370008, -43.278122287243605, 268.93807576363906, 32.417452815920115, -0.04800000227987766, -0.06400000303983688, 0.9760000463575125, 0.0, 0.0, 0.0, 0.0, 0.0, 1.7622067424857402E9, 0.0, 2025-11-03 16:52:22.485
58.0, 212.87697542784736, -100.71924570668489, 211.55305084353313, -25.35278179962188, -0.04800000227987766, -0.06400000303983688, 0.9760000463575125, 0.0, 0.0, 0.0, 0.0, 0.0, 1.7622067424994915E9, 0.0, 2025-11-03 16:52:22.499
58.0, 231.5727353063412, -84.35718340054154, 230.4619850195013, -12.379068853333592, -0.04800000227987766, -0.06400000303983688, 0.9760000463575125, 0.0, 0.0, 0.0, 0.0, 0.0, 1.7622067424994915E9, 0.0, 2025-11-03 16:52:22.499
59.0, 285.3001380697824, -38.25169674679637, 282.0688645080663, 39.4634243324399, -0.04800000227987766, -0.06400000303983688, 0.9760000463575125, 0.0, 0.0, 0.0, 0.0, 0.0, 1.7622067425149944E9, 0.0, 2025-11-03 16:52:22.514
59.0, 234.9049861668609, -70.64671016298234, 242.44088457757607, 6.496206223033369, -0.04800000227987766, -0.06400000303983688, 0.9760000463575125, 0.0, 0.0, 0.0, 0.0, 0.0, 1.7622067425149944E9, 0.0, 2025-11-03 16:52:22.514
60.0, 230.73873761622235, -78.2237474732101, 235.3126352620311, -4.873089642263949, -0.04800000227987766, -0.06400000303983688, 1.008000047877431, 0.0, 0.0, 0.0, 0.0, 0.0, 1.7622067425157423E9, 0.0, 2025-11-03 16:52:22.515
60.0, 272.6704959194176, -49.01138891931623, 268.1078179734759, 27.290049976669252, -0.04800000227987766, -0.06400000303983688, 1.008000047877431, 0.0, 0.0, 0.0, 0.0, 0.0, 1.7622067425157423E9, 0.0, 2025-11-03 16:52:22.515
61.0, 254.53572103427723, -59.19513649865985, 251.95892996480688, 13.085909944958985, -0.04800000227987766, -0.04800000227987766, 1.008000047877431, 0.0, 0.0, 0.0, 0.0, 0.0, 1.762206742529307E9, 0.0, 2025-11-03 16:52:22.529
61.0, 230.26377032184973, -84.16270860284567, 228.4237395436503, -9.533004987053573, -0.04800000227987766, -0.04800000227987766, 1.008000047877431, 0.0, 0.0, 0.0, 0.0, 0.0, 1.762206742529307E9, 0.0, 2025-11-03 16:52:22.529
62.0, 247.0222620232962, -67.97268169466406, 242.9457710715942, 9.372189288958907, -0.04800000227987766, -0.04800000227987766, 1.008000047877431, 0.0, 0.0, 0.0, 0.0, 0.0, 1.7622067425449793E9, 0.0, 2025-11-03 16:52:22.544
62.0, 251.42412427114323, -61.57745277043432, 252.00006886431947, 22.51419773325324, -0.04800000227987766, -0.04800000227987766, 1.008000047877431, 0.0, 0.0, 0.0, 0.0, 0.0, 1.7622067425449793E9, 0.0, 2025-11-03 16:52:22.544
63.0, 232.07388190040365, -80.08247775118798, 226.70712546398863, -2.337437472306192, -0.04800000227987766, -0.04800000227987766, 1.008000047877431, 0.0, 0.0, 0.0, 0.0, 0.0, 1.762206742545719E9, 0.0, 2025-11-03 16:52:22.545
63.0, 237.84828743198887, -80.80801834259182, 230.80231591546908, -2.8423239663243294, -0.04800000227987766, -0.04800000227987766, 1.008000047877431, 0.0, 0.0, 0.0, 0.0, 0.0, 1.762206742545719E9, 0.0, 2025-11-03 16:52:22.545
64.0, 279.2938587409444, -46.449557449668646, 263.94156942283735, 23.587549020536244, -0.04800000227987766, -0.04800000227987766, 1.008000047877431, 0.0, 0.0, 0.0, 0.0, 0.0, 1.7622067425593357E9, 0.0, 2025-11-03 16:52:22.559
64.0, 231.75225050421432, -83.45960741117597, 222.68673301162198, -20.296437059529126, -0.04800000227987766, -0.04800000227987766, 1.008000047877431, 0.0, 0.0, 0.0, 0.0, 0.0, 1.7622067425593357E9, 0.0, 2025-11-03 16:52:22.559
65.0, 223.012104307767, -95.68908026628196, 209.7466791649349, -30.61108113732189, -0.04800000227987766, -0.04800000227987766, 1.008000047877431, 0.0, 0.0, 0.0, 0.0, 0.0, 1.7622067425750139E9, 0.0, 2025-11-03 16:52:22.575
65.0, 277.1209768666886, -53.91813766118139, 259.2218156787567, 23.138761025853455, -0.04800000227987766, -0.04800000227987766, 1.008000047877431, 0.0, 0.0, 0.0, 0.0, 0.0, 1.7622067425750139E9, 0.0, 2025-11-03 16:52:22.575
66.0, 238.70098462188616, -77.0755981868133, 225.04286998370662, -21.586702544242144, -0.04800000227987766, -0.04800000227987766, 1.008000047877431, 0.0, 0.0, 0.0, 0.0, 0.0, 1.7622067425757277E9, 0.0, 2025-11-03 16:52:22.575
66.0, 223.9358595968224, -95.31883017066866, 212.8283567284234, -27.959492068737745, -0.04800000227987766, -0.04800000227987766, 1.008000047877431, 0.0, 0.0, 0.0, 0.0, 0.0, 1.7622067425757277E9, 0.0, 2025-11-03 16:52:22.575
67.0, 265.42630970524624, -55.48515574261546, 259.700522873085, 15.733759113587439, -0.04800000227987766, -0.04800000227987766, 1.008000047877431, 0.0, 0.0, 0.0, 0.0, 0.0, 1.7622067425895948E9, 0.0, 2025-11-03 16:52:22.589
67.0, 268.01058057462797, -43.633412783034146, 266.45478219306096, 25.629534396342933, -0.04800000227987766, -0.04800000227987766, 1.008000047877431, 0.0, 0.0, 0.0, 0.0, 0.0, 1.7622067425895948E9, 0.0, 2025-11-03 16:52:22.589
68.0, 221.44508622633293, -92.34560970589519, 215.99231209093705, -18.329249682836235, -0.04800000227987766, -0.04800000227987766, 1.008000047877431, 0.0, 0.0, 0.0, 0.0, 0.0, 1.7622067426051483E9, 0.0, 2025-11-03 16:52:22.605
68.0, 248.68277760362253, -68.20455549191684, 245.23084994452074, 9.035598292946815, -0.04800000227987766, -0.04800000227987766, 1.008000047877431, 0.0, 0.0, 0.0, 0.0, 0.0, 1.7622067426051483E9, 0.0, 2025-11-03 16:52:22.605
69.0, 281.3021850171499, -45.641739059239626, 279.68280833633617, 35.84694107528776, -0.04800000227987766, -0.04800000227987766, 1.008000047877431, 0.0, 0.0, 0.0, 0.0, 0.0, 1.76220674260576E9, 0.0, 2025-11-03 16:52:22.605
69.0, 246.2107037329115, -63.96350894216448, 252.6545513565652, 15.801077312789857, -0.04800000227987766, -0.04800000227987766, 1.008000047877431, 0.0, 0.0, 0.0, 0.0, 0.0, 1.76220674260576E9, 0.0, 2025-11-03 16:52:22.605
70.0, 232.9041396905668, -84.0766909038648, 230.5405229185708, -9.562924186699092, -0.04800000227987766, -0.04800000227987766, 1.0240000486373901, 0.0, 0.0, 0.0, 0.0, 0.0, 1.7622067426193223E9, 0.0, 2025-11-03 16:52:22.619
70.0, 285.3450168692507, -40.794828716665506, 275.7858325825073, 35.48791067954153, -0.04800000227987766, -0.04800000227987766, 1.0240000486373901, 0.0, 0.0, 0.0, 0.0, 0.0, 1.7622067426193223E9, 0.0, 2025-11-03 16:52:22.619
71.0, 243.88822586042807, -70.14182366896421, 244.89799884846434, 10.539038075134158, -0.04800000227987766, -0.04800000227987766, 1.0240000486373901, 0.0, 0.0, 0.0, 0.0, 0.0, 1.7622067426513703E9, 0.0, 2025-11-03 16:52:22.651
71.0, 222.00233131973073, -91.90056161116809, 222.18932631751522, -22.431919934228063, -0.04800000227987766, -0.04800000227987766, 1.0240000486373901, 0.0, 0.0, 0.0, 0.0, 0.0, 1.7622067426513703E9, 0.0, 2025-11-03 16:52:22.651
72.0, 262.172596743796, -54.142531658522785, 259.2517348784022, 24.657160407863557, -0.04800000227987766, -0.04800000227987766, 1.0240000486373901, 0.0, 0.0, 0.0, 0.0, 0.0, 1.7622067426520774E9, 0.0, 2025-11-03 16:52:22.652
72.0, 280.5691646258347, -37.9450249504298, 275.2211076891981, 33.08315500803292, -0.04800000227987766, -0.04800000227987766, 1.0240000486373901, 0.0, 0.0, 0.0, 0.0, 0.0, 1.7622067426520774E9, 0.0, 2025-11-03 16:52:22.652
73.0, 225.7235317756422, -87.98114645760506, 219.1600073534064, -24.57488260883838, -0.04800000227987766, -0.04800000227987766, 1.0240000486373901, 0.0, 0.0, 0.0, 0.0, 0.0, 1.7622067426528416E9, 0.0, 2025-11-03 16:52:22.652
73.0, 244.41555175418034, -76.71656779106706, 232.986417489592, -4.188687950372696, -0.04800000227987766, -0.04800000227987766, 1.0240000486373901, 0.0, 0.0, 0.0, 0.0, 0.0, 1.7622067426528416E9, 0.0, 2025-11-03 16:52:22.652
74.0, 289.9376140148379, -34.54171599075198, 279.0058864443563, 35.69734507706016, -0.04800000227987766, -0.04800000227987766, 1.0240000486373901, 0.0, 0.0, 0.0, 0.0, 0.0, 1.7622067426535704E9, 0.0, 2025-11-03 16:52:22.653
74.0, 230.30116932140663, -83.54936501011252, 218.39706776244566, -14.716506325639784, -0.04800000227987766, -0.04800000227987766, 1.0240000486373901, 0.0, 0.0, 0.0, 0.0, 0.0, 1.7622067426535704E9, 0.0, 2025-11-03 16:52:22.653
75.0, 225.93296617316082, -93.96498638670892, 214.43277380941436, -15.632781814783812, -0.04800000227987766, -0.04800000227987766, 1.0240000486373901, 0.0, 0.0, 0.0, 0.0, 0.0, 1.7622067426644006E9, 0.0, 2025-11-03 16:52:22.664
75.0, 269.4803612572141, -59.03058090060949, 252.09356636321172, 16.627595202997327, -0.04800000227987766, -0.04800000227987766, 1.0240000486373901, 0.0, 0.0, 0.0, 0.0, 0.0, 1.7622067426644006E9, 0.0, 2025-11-03 16:52:22.664
76.0, 253.66806424455717, -62.531127259135246, 246.53233512910083, 15.73001921363175, -0.04800000227987766, -0.04800000227987766, 1.0240000486373901, 0.0, 0.0, 0.0, 0.0, 0.0, 1.762206742679293E9, 0.0, 2025-11-03 16:52:22.679
76.0, 243.96676375949755, -78.50797986984253, 228.0572293479927, -0.5497652934864163, -0.04800000227987766, -0.04800000227987766, 1.0240000486373901, 0.0, 0.0, 0.0, 0.0, 0.0, 1.762206742679293E9, 0.0, 2025-11-03 16:52:22.679
77.0, 239.48636361258104, -87.17706796713173, 228.89122703811154, 1.7839322788640857, -0.04800000227987766, -0.04800000227987766, 1.0240000486373901, 0.0, 0.0, 0.0, 0.0, 0.0, 1.76220674269499E9, 0.0, 2025-11-03 16:52:22.694
77.0, 248.2826083083637, -68.70944198593497, 245.14109234558418, 11.65352826192975, -0.04800000227987766, -0.04800000227987766, 1.0240000486373901, 0.0, 0.0, 0.0, 0.0, 0.0, 1.76220674269499E9, 0.0, 2025-11-03 16:52:22.694
78.0, 226.40793346753344, -90.91696792282164, 215.8950746920891, -17.622408591210842, -0.04800000227987766, -0.04800000227987766, 1.0240000486373901, 0.0, 0.0, 0.0, 0.0, 0.0, 1.762206742695742E9, 0.0, 2025-11-03 16:52:22.695
78.0, 223.9059403971769, -90.92070782277733, 219.5302574490197, -6.930034617893398, -0.04800000227987766, -0.04800000227987766, 1.0240000486373901, 0.0, 0.0, 0.0, 0.0, 0.0, 1.762206742695742E9, 0.0, 2025-11-03 16:52:22.695
79.0, 289.4626467204653, -28.797229658812284, 283.84157708706334, 52.971942972391844, -0.04800000227987766, -0.04800000227987766, 1.0240000486373901, 0.0, 0.0, 0.0, 0.0, 0.0, 1.7622067427094488E9, 0.0, 2025-11-03 16:52:22.709
79.0, 227.73933785175905, -77.82731807790697, 231.1239473116584, -2.655328968539834, -0.04800000227987766, -0.04800000227987766, 1.0240000486373901, 0.0, 0.0, 0.0, 0.0, 0.0, 1.7622067427094488E9, 0.0, 2025-11-03 16:52:22.709
80.0, 208.261938882526, -98.19855313654989, 208.0412847851403, -24.298130012117326, -0.04800000227987766, -0.04800000227987766, 1.0400000493973494, 0.0, 0.0, 0.0, 0.0, 0.0, 1.7622067427250507E9, 0.0, 2025-11-03 16:52:22.725
80.0, 278.98344704462215, -44.99847626686096, 260.5420003631152, 31.127187331207097, -0.04800000227987766, -0.04800000227987766, 1.0400000493973494, 0.0, 0.0, 0.0, 0.0, 0.0, 1.7622067427250507E9, 0.0, 2025-11-03 16:52:22.725
81.0, 257.67723699705675, -55.02140814810991, 248.5032624057494, 10.587656774558127, -0.04800000227987766, -0.06400000303983688, 1.0400000493973494, 0.0, 0.0, 0.0, 0.0, 0.0, 1.7622067427257469E9, 0.0, 2025-11-03 16:52:22.725
81.0, 231.55403580656275, -78.44814147055149, 224.72497848747298, -17.599969191476703, -0.04800000227987766, -0.06400000303983688, 1.0400000493973494, 0.0, 0.0, 0.0, 0.0, 0.0, 1.7622067427257469E9, 0.0, 2025-11-03 16:52:22.725
82.0, 273.0818849145435, -42.17859170027077, 266.49966099252924, 28.786009958945215, -0.04800000227987766, -0.06400000303983688, 1.0400000493973494, 0.0, 0.0, 0.0, 0.0, 0.0, 1.762206742739274E9, 0.0, 2025-11-03 16:52:22.739
82.0, 275.6773754837923, -36.041415872983634, 276.50763327395543, 46.24760285206139, -0.04800000227987766, -0.06400000303983688, 1.0400000493973494, 0.0, 0.0, 0.0, 0.0, 0.0, 1.762206742739274E9, 0.0, 2025-11-03 16:52:22.739
83.0, 221.6059019244276, -86.5973834739998, 222.41372031485662, -10.09025008045137, -0.04800000227987766, -0.06400000303983688, 1.0400000493973494, 0.0, 0.0, 0.0, 0.0, 0.0, 1.7622067427551188E9, 0.0, 2025-11-03 16:52:22.755
83.0, 243.62269296357408, -68.19333579204977, 238.30829512653872, 4.03535205218941, -0.04800000227987766, -0.06400000303983688, 1.0400000493973494, 0.0, 0.0, 0.0, 0.0, 0.0, 1.7622067427551188E9, 0.0, 2025-11-03 16:52:22.755
84.0, 293.4979987726547, -22.301023435778916, 284.09215038409457, 45.36124656256288, -0.04800000227987766, -0.06400000303983688, 1.0400000493973494, 0.0, 0.0, 0.0, 0.0, 0.0, 1.7622067427557418E9, 0.0, 2025-11-03 16:52:22.755
84.0, 243.129026169423, -60.76589448004961, 243.4356979657896, 6.645802221260965, -0.04800000227987766, -0.06400000303983688, 1.0400000493973494, 0.0, 0.0, 0.0, 0.0, 0.0, 1.7622067427557418E9, 0.0, 2025-11-03 16:52:22.755
85.0, 223.603008500766, -89.1143361441791, 215.0049785026349, -16.16758750844747, -0.04800000227987766, -0.06400000303983688, 1.0400000493973494, 0.0, 0.0, 0.0, 0.0, 0.0, 1.7622067427692783E9, 0.0, 2025-11-03 16:52:22.769
85.0, 264.86532471189275, -51.00101569574326, 257.8754516947083, 19.013651374727488, -0.04800000227987766, -0.06400000303983688, 1.0400000493973494, 0.0, 0.0, 0.0, 0.0, 0.0, 1.7622067427692783E9, 0.0, 2025-11-03 16:52:22.769
86.0, 242.89715237217024, -66.34582521393895, 238.67106542224064, 6.238153126090765, -0.04800000227987766, -0.06400000303983688, 1.0400000493973494, 0.0, 0.0, 0.0, 0.0, 0.0, 1.76220674278559E9, 0.0, 2025-11-03 16:52:22.785
86.0, 207.46908009191975, -106.17201984208077, 201.61987656122074, -32.21923811826855, -0.04800000227987766, -0.06400000303983688, 1.0400000493973494, 0.0, 0.0, 0.0, 0.0, 0.0, 1.76220674278559E9, 0.0, 2025-11-03 16:52:22.785
87.0, 260.38492456497625, -60.82199297938496, 250.1712577859871, 18.89397457614541, -0.04800000227987766, -0.06400000303983688, 1.0400000493973494, 0.0, 0.0, 0.0, 0.0, 0.0, 1.7622067427999735E9, 0.0, 2025-11-03 16:52:22.799
87.0, 271.57470523240045, -44.497329672798514, 269.50654055690393, 34.788549387827516, -0.04800000227987766, -0.06400000303983688, 1.0400000493973494, 0.0, 0.0, 0.0, 0.0, 0.0, 1.7622067427999735E9, 0.0, 2025-11-03 16:52:22.799
88.0, 218.73739865841344, -86.24583287816495, 218.63268145965412, -15.887095011770725, -0.04800000227987766, -0.06400000303983688, 1.0400000493973494, 0.0, 0.0, 0.0, 0.0, 0.0, 1.7622067428007388E9, 0.0, 2025-11-03 16:52:22.800
88.0, 233.88399347895756, -75.67313570342958, 237.07412814116105, 1.249126585200429, -0.04800000227987766, -0.06400000303983688, 1.0400000493973494, 0.0, 0.0, 0.0, 0.0, 0.0, 1.7622067428007388E9, 0.0, 2025-11-03 16:52:22.800
89.0, 280.8608768223785, -39.80375522840768, 277.31919156434014, 40.52929581981152, -0.04800000227987766, -0.06400000303983688, 1.0400000493973494, 0.0, 0.0, 0.0, 0.0, 0.0, 1.7622067428151064E9, 0.0, 2025-11-03 16:52:22.815
89.0, 242.8335740729235, -62.35535196121782, 244.8045013495721, 9.013158893212676, -0.04800000227987766, -0.06400000303983688, 1.0400000493973494, 0.0, 0.0, 0.0, 0.0, 0.0, 1.7622067428151064E9, 0.0, 2025-11-03 16:52:22.815
90.0, 230.58166181808338, -82.86122341826558, 227.8290954506956, -4.551458246074617, -0.04800000227987766, -0.06400000303983688, 1.0400000493973494, 0.0, 0.0, 0.0, 0.0, 0.0, 1.7622067428157444E9, 0.0, 2025-11-03 16:52:22.815
90.0, 281.95292760943994, -34.47439779154956, 276.488933774177, 33.73763750027865, -0.04800000227987766, -0.06400000303983688, 1.0400000493973494, 0.0, 0.0, 0.0, 0.0, 0.0, 1.7622067428157444E9, 0.0, 2025-11-03 16:52:22.815
91.0, 250.56768718129024, -58.170403910800815, 254.44596343534067, 15.68514041416347, -0.04800000227987766, -0.06400000303983688, 1.0400000493973494, 0.0, 0.0, 0.0, 0.0, 0.0, 1.7622067428293688E9, 0.0, 2025-11-03 16:52:22.829
91.0, 220.8317426335998, -93.25440539512783, 215.94743329146877, -16.11522890906781, -0.04800000227987766, -0.06400000303983688, 1.0400000493973494, 0.0, 0.0, 0.0, 0.0, 0.0, 1.7622067428293688E9, 0.0, 2025-11-03 16:52:22.829
92.0, 259.543447074946, -62.47876865975559, 240.00620970642194, -6.974913417361677, -0.04800000227987766, -0.06400000303983688, 1.0400000493973494, 0.0, 0.0, 0.0, 0.0, 0.0, 1.7622067428450544E9, 0.0, 2025-11-03 16:52:22.845
92.0, 279.90720233367756, -37.35412075743079, 276.6011307728477, 34.67635238915682, -0.04800000227987766, -0.06400000303983688, 1.0400000493973494, 0.0, 0.0, 0.0, 0.0, 0.0, 1.7622067428450544E9, 0.0, 2025-11-03 16:52:22.845
93.0, 237.00307004200295, -73.46285482961684, 232.0514425006695, -6.357829924672842, -0.04800000227987766, -0.06400000303983688, 1.0400000493973494, 0.0, 0.0, 0.0, 0.0, 0.0, 1.7622067428457494E9, 0.0, 2025-11-03 16:52:22.845
93.0, 232.43665219610557, -80.0375989517197, 225.0877487831749, -18.419007281772792, -0.04800000227987766, -0.06400000303983688, 1.0400000493973494, 0.0, 0.0, 0.0, 0.0, 0.0, 1.7622067428457494E9, 0.0, 2025-11-03 16:52:22.845
94.0, 278.46734085073695, -48.33072712738067, 262.9130969350226, 22.424440134316683, -0.04800000227987766, -0.06400000303983688, 1.0400000493973494, 0.0, 0.0, 0.0, 0.0, 0.0, 1.7622067428592863E9, 0.0, 2025-11-03 16:52:22.859
94.0, 225.55897617759183, -84.95930729340762, 221.39272762695327, -15.816036912612617, -0.04800000227987766, -0.06400000303983688, 1.0400000493973494, 0.0, 0.0, 0.0, 0.0, 0.0, 1.7622067428592863E9, 0.0, 2025-11-03 16:52:22.859
95.0, 233.69325858121738, -83.02951891627163, 221.31792962783948, -16.328403206542134, -0.04800000227987766, -0.06400000303983688, 1.0400000493973494, 0.0, 0.0, 0.0, 0.0, 0.0, 1.762206742875013E9, 0.0, 2025-11-03 16:52:22.875
95.0, 273.5269330092706, -52.553074177354574, 258.64213118562475, 16.702393202111125, -0.04800000227987766, -0.06400000303983688, 1.0400000493973494, 0.0, 0.0, 0.0, 0.0, 0.0, 1.762206742875013E9, 0.0, 2025-11-03 16:52:22.875
96.0, 240.16328550456092, -74.79051931388676, 237.08160794107243, 3.6389226568862796, -0.04800000227987766, -0.06400000303983688, 1.0400000493973494, 0.0, 0.0, 0.0, 0.0, 0.0, 1.7622067428757553E9, 0.0, 2025-11-03 16:52:22.875
96.0, 215.30043059913442, -103.42693327460438, 207.6373755899258, -25.31538280006498, -0.04800000227987766, -0.06400000303983688, 1.0400000493973494, 0.0, 0.0, 0.0, 0.0, 0.0, 1.7622067428757553E9, 0.0, 2025-11-03 16:52:22.875
97.0, 263.5974986269139, -59.815959891304374, 253.86253904225305, 25.498637897893786, -0.04800000227987766, -0.06400000303983688, 1.0400000493973494, 0.0, 0.0, 0.0, 0.0, 0.0, 1.7622067428893385E9, 0.0, 2025-11-03 16:52:22.889
97.0, 277.4201688631438, -42.27208919916302, 271.57844513235614, 35.203678282909095, -0.04800000227987766, -0.06400000303983688, 1.0400000493973494, 0.0, 0.0, 0.0, 0.0, 0.0, 1.7622067428893385E9, 0.0, 2025-11-03 16:52:22.889
98.0, 217.75754487002268, -97.95171973947436, 211.3398765460588, -25.73051169514656, -0.04800000227987766, -0.06400000303983688, 1.0400000493973494, 0.0, 0.0, 0.0, 0.0, 0.0, 1.762206742905012E9, 0.0, 2025-11-03 16:52:22.905
98.0, 237.02550944173709, -82.61812992114574, 225.2036856818013, -15.853435912169516, -0.04800000227987766, -0.06400000303983688, 1.0400000493973494, 0.0, 0.0, 0.0, 0.0, 0.0, 1.762206742905012E9, 0.0, 2025-11-03 16:52:22.905
99.0, 296.1495878412388, -29.081462055444717, 279.9707806329243, 35.633766777813435, -0.04800000227987766, -0.06400000303983688, 1.0400000493973494, 0.0, 0.0, 0.0, 0.0, 0.0, 1.7622067429057455E9, 0.0, 2025-11-03 16:52:22.905
99.0, 248.75009580282494, -61.0650864765048, 241.41989188967273, -2.1504424745216966, -0.04800000227987766, -0.06400000303983688, 1.0400000493973494, 0.0, 0.0, 0.0, 0.0, 0.0, 1.7622067429057455E9, 0.0, 2025-11-03 16:52:22.905
100.0, 240.52231590030715, -71.39095025416464, 230.07303542410955, -13.643155038356781, -0.04800000227987766, -0.06400000303983688, 1.0400000493973494, 0.0, 0.0, 0.0, 0.0, 0.0, 1.7622067429200535E9, 0.0, 2025-11-03 16:52:22.920
100.0, 280.3821696280502, -53.62268556468189, 259.49108847556636, 10.87936897110194, -0.04800000227987766, -0.06400000303983688, 1.0400000493973494, 0.0, 0.0, 0.0, 0.0, 0.0, 1.7622067429200535E9, 0.0, 2025-11-03 16:52:22.920
0.0, 261.93698304658756, -59.4924585451372, 247.80577106401324, 4.459830697160214, -0.04800000227987766, -0.06400000303983688, 1.0400000493973494, 0.0, 0.0, 0.0, 0.0, 0.0, 1.7622067429207368E9, 0.0, 2025-11-03 16:52:22.920
1.0, 235.89605965511873, -83.55871476000175, 220.7700342843309, -24.28130046231672, -0.04800000227987766, -0.04800000227987766, 1.0400000493973494, 0.0, 0.0, 0.0, 0.0, 0.0, 1.7622067429343948E9, 0.0, 2025-11-03 16:52:22.934
1.0, 283.7929583876394, -45.123762915376574, 262.92244668491185, 18.577953029889613, -0.04800000227987766, -0.04800000227987766, 1.0400000493973494, 0.0, 0.0, 0.0, 0.0, 0.0, 1.7622067429343948E9, 0.0, 2025-11-03 16:52:22.934
2.0, 282.4204151039012, -45.55011151032522, 261.0188376074657, 15.178383970167488, -0.04800000227987766, -0.04800000227987766, 1.0400000493973494, 0.0, 0.0, 0.0, 0.0, 0.0, 1.7622067429500294E9, 0.0, 2025-11-03 16:52:22.950
2.0, 233.76805658033118, -81.98047697870061, 227.5130739044398, -9.400238538626581, -0.04800000227987766, -0.04800000227987766, 1.0400000493973494, 0.0, 0.0, 0.0, 0.0, 0.0, 1.7622067429500294E9, 0.0, 2025-11-03 16:52:22.950
3.0, 255.81476681912318, -66.44867246272042, 241.27216584142298, 4.859999992419034, -0.04800000227987766, -0.04800000227987766, 1.0400000493973494, 0.0, 0.0, 0.0, 0.0, 0.0, 1.7622067429507399E9, 0.0, 2025-11-03 16:52:22.950
3.0, 295.88405494438484, -27.56867252336815, 282.22033045627177, 35.23920733248815, -0.04800000227987766, -0.04800000227987766, 1.0400000493973494, 0.0, 0.0, 0.0, 0.0, 0.0, 1.7622067429507399E9, 0.0, 2025-11-03 16:52:22.950
4.0, 232.78446289198473, -78.9474181146361, 230.1085644736886, -15.941323561128229, -0.04800000227987766, -0.04800000227987766, 1.0400000493973494, 0.0, 0.0, 0.0, 0.0, 0.0, 1.7622067429644482E9, 0.0, 2025-11-03 16:52:22.964
4.0, 222.0920889186673, -99.42711027199402, 213.37625207193196, -31.23751437989995, -0.04800000227987766, -0.04800000227987766, 1.0400000493973494, 0.0, 0.0, 0.0, 0.0, 0.0, 1.7622067429644482E9, 0.0, 2025-11-03 16:52:22.964
5.0, 303.70044585177675, -27.003947630058974, 287.60578639246523, 48.347556677181274, -0.04800000227987766, -0.04800000227987766, 1.0400000493973494, 0.0, 0.0, 0.0, 0.0, 0.0, 1.762206742980013E9, 0.0, 2025-11-03 16:52:22.980
5.0, 277.0686182673089, -46.89647549437359, 266.0228237481788, 26.83191223209724, -0.04800000227987766, -0.04800000227987766, 1.0400000493973494, 0.0, 0.0, 0.0, 0.0, 0.0, 1.762206742980013E9, 0.0, 2025-11-03 16:52:22.980
6.0, 240.08848750544712, -85.62313953554258, 227.5168138043955, -11.371165815275162, -0.04800000227987766, -0.04800000227987766, 1.0400000493973494, 0.0, 0.0, 0.0, 0.0, 0.0, 1.7622067429807432E9, 0.0, 2025-11-03 16:52:22.980
6.0, 280.87583642220125, -53.512358515989035, 268.96238511335105, 18.34233933268115, -0.04800000227987766, -0.04800000227987766, 1.0400000493973494, 0.0, 0.0, 0.0, 0.0, 0.0, 1.7622067429807432E9, 0.0, 2025-11-03 16:52:22.980
7.0, 306.0565828238614, -24.113004964310676, 286.7605690024793, 33.32811845513061, -0.04800000227987766, -0.04800000227987766, 1.0400000493973494, 0.0, 0.0, 0.0, 0.0, 0.0, 1.7622067429944565E9, 0.0, 2025-11-03 16:52:22.994
7.0, 250.55646748142317, -67.98203144455329, 237.21811428945512, -14.66975757619366, -0.04800000227987766, -0.04800000227987766, 1.0400000493973494, 0.0, 0.0, 0.0, 0.0, 0.0, 1.7622067429944565E9, 0.0, 2025-11-03 16:52:22.994
8.0, 266.4435624931939, -61.33248932333663, 245.9358210861683, -2.3879261217080057, -0.04800000227987766, -0.04800000227987766, 1.0400000493973494, 0.0, 0.0, 0.0, 0.0, 0.0, 1.7622067430101416E9, 0.0, 2025-11-03 16:52:23.010
8.0, 305.7947898269631, -20.3618853087537, 292.30310073681176, 41.095890663098544, -0.04800000227987766, -0.04800000227987766, 1.0400000493973494, 0.0, 0.0, 0.0, 0.0, 0.0, 1.7622067430101416E9, 0.0, 2025-11-03 16:52:23.010
9.0, 259.16571717942134, -58.44902645749971, 247.06901077274233, 5.2526894877664745, -0.04800000227987766, -0.04800000227987766, 1.0400000493973494, 0.0, 0.0, 0.0, 0.0, 0.0, 1.7622067430107486E9, 0.0, 2025-11-03 16:52:23.010
9.0, 251.85047286609188, -72.72422458836809, 232.48714084550738, -26.132550940383226, -0.04800000227987766, -0.04800000227987766, 1.0400000493973494, 0.0, 0.0, 0.0, 0.0, 0.0, 1.7622067430107486E9, 0.0, 2025-11-03 16:52:23.010
10.0, 310.91845276625827, -19.5465871184133, 289.7337894672528, 35.014813335146755, -0.04800000227987766, -0.04800000227987766, 1.0400000493973494, 0.0, 0.0, 0.0, 0.0, 0.0, 1.7622067430243497E9, 0.0, 2025-11-03 16:52:23.024
10.0, 274.7461403948255, -39.58497108099982, 264.32490916829556, 5.9370911796577275, -0.04800000227987766, -0.04800000227987766, 1.0400000493973494, 0.0, 0.0, 0.0, 0.0, 0.0, 1.7622067430243497E9, 0.0, 2025-11-03 16:52:23.024
11.0, 258.4401765880175, -62.58909570844844, 236.68330859579146, -9.83032703353092, -0.04800000227987766, -0.04800000227987766, 1.0400000493973494, 0.0, 0.0, 0.0, 0.0, 0.0, 1.762206743056386E9, 0.0, 2025-11-03 16:52:23.056
11.0, 281.20868751825765, -39.73082717927173, 265.7834701510146, 20.608718705829233, -0.04800000227987766, -0.04800000227987766, 1.0400000493973494, 0.0, 0.0, 0.0, 0.0, 0.0, 1.762206743056386E9, 0.0, 2025-11-03 16:52:23.056
12.0, 282.17732160678133, -36.12930352194235, 274.11222735233605, 20.38806460844353, -0.06400000303983688, -0.04800000227987766, 1.0400000493973494, 0.0, 0.0, 0.0, 0.0, 0.0, 1.7622067430570917E9, 0.0, 2025-11-03 16:52:23.057
12.0, 234.04106927709654, -79.41490560909733, 231.70924165472388, -6.038068478461355, -0.06400000303983688, -0.04800000227987766, 1.0400000493973494, 0.0, 0.0, 0.0, 0.0, 0.0, 1.7622067430570917E9, 0.0, 2025-11-03 16:52:23.057
13.0, 232.37307389685884, -85.40248543815687, 229.64481687918305, -7.376952662598342, -0.06400000303983688, -0.04800000227987766, 1.0400000493973494, 0.0, 0.0, 0.0, 0.0, 0.0, 1.762206743057834E9, 0.0, 2025-11-03 16:52:23.057
13.0, 281.4480411154218, -41.64191605662927, 276.8348745200783, 32.78209306159988, -0.06400000303983688, -0.04800000227987766, 1.0400000493973494, 0.0, 0.0, 0.0, 0.0, 0.0, 1.762206743057834E9, 0.0, 2025-11-03 16:52:23.057
14.0, 237.54535553557798, -77.3504808335565, 229.4466021815315, -12.837206597905606, -0.06400000303983688, -0.04800000227987766, 1.0400000493973494, 0.0, 0.0, 0.0, 0.0, 0.0, 1.762206743058602E9, 0.0, 2025-11-03 16:52:23.058
14.0, 241.3600534903817, -84.77044234564528, 230.24694077204913, -10.544647925067693, -0.06400000303983688, -0.04800000227987766, 1.0400000493973494, 0.0, 0.0, 0.0, 0.0, 0.0, 1.762206743058602E9, 0.0, 2025-11-03 16:52:23.058
15.0, 275.84193108184263, -53.20568671962246, 267.0064174365252, 27.20964212762192, -0.06400000303983688, -0.04800000227987766, 1.0400000493973494, 0.0, 0.0, 0.0, 0.0, 0.0, 1.7622067430693345E9, 0.0, 2025-11-03 16:52:23.069
15.0, 241.66672528674826, -73.93969207396731, 244.68295460101217, 3.0685879136435688, -0.06400000303983688, -0.04800000227987766, 1.0400000493973494, 0.0, 0.0, 0.0, 0.0, 0.0, 1.7622067430693345E9, 0.0, 2025-11-03 16:52:23.069
16.0, 231.92802580213174, -85.5408617365174, 231.67558255512267, -10.866279321257025, -0.06400000303983688, -0.04800000227987766, 1.0400000493973494, 0.0, 0.0, 0.0, 0.0, 0.0, 1.7622067430843036E9, 0.0, 2025-11-03 16:52:23.084
16.0, 259.72296227281913, -68.88334733387455, 254.29449748713523, 15.945063461083919, -0.06400000303983688, -0.04800000227987766, 1.0400000493973494, 0.0, 0.0, 0.0, 0.0, 0.0, 1.7622067430843036E9, 0.0, 2025-11-03 16:52:23.084
17.0, 274.73118079500273, -46.90021539432928, 274.07108845282346, 31.682562474627048, -0.06400000303983688, -0.04800000227987766, 1.0400000493973494, 0.0, 0.0, 0.0, 0.0, 0.0, 1.7622067430999813E9, 0.0, 2025-11-03 16:52:23.099
17.0, 233.33422818547115, -82.29088867502287, 230.38531707040966, -11.573120412882417, -0.06400000303983688, -0.04800000227987766, 1.0400000493973494, 0.0, 0.0, 0.0, 0.0, 0.0, 1.7622067430999813E9, 0.0, 2025-11-03 16:52:23.099
18.0, 239.93515160726383, -74.81482866359875, 240.68500154837966, 6.8197075692005455, -0.06400000303983688, -0.04800000227987766, 1.0400000493973494, 0.0, 0.0, 0.0, 0.0, 0.0, 1.762206743100746E9, 0.0, 2025-11-03 16:52:23.100
18.0, 287.09529004851356, -32.71851476235315, 286.3566598072648, 49.533104963134974, -0.06400000303983688, -0.04800000227987766, 1.0400000493973494, 0.0, 0.0, 0.0, 0.0, 0.0, 1.762206743100746E9, 0.0, 2025-11-03 16:52:23.100
19.0, 232.77324319211766, -81.3559136861004, 229.99262757506222, -18.117945335339755, -0.06400000303983688, -0.04800000227987766, 1.0400000493973494, 0.0, 0.0, 0.0, 0.0, 0.0, 1.7622067431143067E9, 0.0, 2025-11-03 16:52:23.114
19.0, 236.33362794993445, -83.67091175867245, 226.28264681901783, -15.559853765647858, -0.06400000303983688, -0.04800000227987766, 1.0400000493973494, 0.0, 0.0, 0.0, 0.0, 0.0, 1.7622067431143067E9, 0.0, 2025-11-03 16:52:23.114
20.0, 287.0354516492225, -42.34127734834328, 268.2368445219472, 20.537660606671125, -0.06400000303983688, -0.04800000227987766, 1.0400000493973494, 0.0, 0.0, 0.0, 0.0, 0.0, 1.7622067431301663E9, 0.0, 2025-11-03 16:52:23.130
20.0, 255.33605962479487, -65.71191217144951, 240.4119888516143, -7.118899565655738, -0.06400000303983688, -0.04800000227987766, 1.0400000493973494, 0.0, 0.0, 0.0, 0.0, 0.0, 1.7622067431301663E9, 0.0, 2025-11-03 16:52:23.130
21.0, 222.06216971902177, -91.24420916894451, 215.01058835256845, -29.9210695954971, -0.06400000303983688, -0.04800000227987766, 1.0400000493973494, 0.0, 0.0, 0.0, 0.0, 0.0, 1.762206743130777E9, 0.0, 2025-11-03 16:52:23.130
21.0, 265.2168753077276, -53.7853712127544, 259.0591300306842, 15.50001536635682, -0.06400000303983688, -0.04800000227987766, 1.0400000493973494, 0.0, 0.0, 0.0, 0.0, 0.0, 1.762206743130777E9, 0.0, 2025-11-03 16:52:23.130
22.0, 287.330903745722, -33.88910344848409, 277.5005767121911, 27.774367020931095, -0.04800000227987766, -0.04800000227987766, 1.0400000493973494, 0.0, 0.0, 0.0, 0.0, 0.0, 1.762206743144481E9, 0.0, 2025-11-03 16:52:23.144
22.0, 224.06301619531587, -88.51782210124657, 216.92541712988168, -21.58109269430861, -0.04800000227987766, -0.04800000227987766, 1.0400000493973494, 0.0, 0.0, 0.0, 0.0, 0.0, 1.762206743144481E9, 0.0, 2025-11-03 16:52:23.144
23.0, 243.3982989662327, -69.75848392350599, 233.20146173704416, -7.537768360693008, -0.04800000227987766, -0.04800000227987766, 1.0400000493973494, 0.0, 0.0, 0.0, 0.0, 0.0, 1.7622067431600266E9, 0.0, 2025-11-03 16:52:23.160
23.0, 287.379522445146, -35.68799532717094, 273.92523235455155, 20.230988810304552, -0.04800000227987766, -0.04800000227987766, 1.0400000493973494, 0.0, 0.0, 0.0, 0.0, 0.0, 1.7622067431600266E9, 0.0, 2025-11-03 16:52:23.160
24.0, 226.96891846088693, -86.25892252800986, 221.805986572057, -16.461169654969126, -0.04800000227987766, -0.04800000227987766, 1.0400000493973494, 0.0, 0.0, 0.0, 0.0, 0.0, 1.7622067431607473E9, 0.0, 2025-11-03 16:52:23.160
24.0, 228.60325474152341, -89.33312029158697, 215.56035364605486, -24.453335860278457, -0.04800000227987766, -0.04800000227987766, 1.0400000493973494, 0.0, 0.0, 0.0, 0.0, 0.0, 1.7622067431607473E9, 0.0, 2025-11-03 16:52:23.160
25.0, 287.73107304098085, -36.56313191680238, 272.5639087706804, 26.065232741180807, -0.04800000227987766, -0.04800000227987766, 1.0400000493973494, 0.0, 0.0, 0.0, 0.0, 0.0, 1.7622067431743066E9, 0.0, 2025-11-03 16:52:23.174
25.0, 256.16257751500234, -56.90818767575547, 255.24443207588047, 11.161731417756528, -0.04800000227987766, -0.04800000227987766, 1.0400000493973494, 0.0, 0.0, 0.0, 0.0, 0.0, 1.7622067431743066E9, 0.0, 2025-11-03 16:52:23.174
26.0, 228.13950714701787, -85.36134653864428, 222.38941096514463, -19.785940715577453, -0.04800000227987766, -0.04800000227987766, 1.0400000493973494, 0.0, 0.0, 0.0, 0.0, 0.0, 1.7622067431908855E9, 0.0, 2025-11-03 16:52:23.190
26.0, 249.42327779484913, -72.26047699386254, 239.58547096140683, -0.7049711416475475, -0.04800000227987766, -0.04800000227987766, 1.0400000493973494, 0.0, 0.0, 0.0, 0.0, 0.0, 1.7622067431908855E9, 0.0, 2025-11-03 16:52:23.190
27.0, 274.34597109956667, -44.7796921194531, 264.1902727698907, 13.203716793563217, -0.04800000227987766, -0.04800000227987766, 1.0400000493973494, 0.0, 0.0, 0.0, 0.0, 0.0, 1.7622067431913683E9, 0.0, 2025-11-03 16:52:23.191
27.0, 231.77095000399277, -86.5768140242435, 215.9867022410035, -24.71886875713244, -0.04800000227987766, -0.04800000227987766, 1.0400000493973494, 0.0, 0.0, 0.0, 0.0, 0.0, 1.7622067431913683E9, 0.0, 2025-11-03 16:52:23.191
28.0, 237.00680994195864, -85.8737128325738, 220.57929938659072, -27.800546320620924, -0.04800000227987766, -0.04800000227987766, 1.0400000493973494, 0.0, 0.0, 0.0, 0.0, 0.0, 1.7622067432044225E9, 0.0, 2025-11-03 16:52:23.204
28.0, 282.86920309858397, -46.99745279317722, 262.80276988632977, 8.61859944788739, -0.04800000227987766, -0.04800000227987766, 1.0400000493973494, 0.0, 0.0, 0.0, 0.0, 0.0, 1.7622067432044225E9, 0.0, 2025-11-03 16:52:23.204
29.0, 243.1327660693787, -72.77284328779206, 227.71876840200275, -18.26754133356735, -0.04800000227987766, -0.04800000227987766, 1.0400000493973494, 0.0, 0.0, 0.0, 0.0, 0.0, 1.7622067432199664E9, 0.0, 2025-11-03 16:52:23.219
29.0, 241.40119238989428, -75.9442784502171, 231.5933047560975, -11.124332418199629, -0.04800000227987766, -0.04800000227987766, 1.0400000493973494, 0.0, 0.0, 0.0, 0.0, 0.0, 1.7622067432199664E9, 0.0, 2025-11-03 16:52:23.219
30.0, 284.7541126762517, -45.77450550766662, 262.1595070939511, 10.080900330562145, -0.04800000227987766, -0.04800000227987766, 1.0400000493973494, 0.0, 0.0, 0.0, 0.0, 0.0, 1.7622067432207468E9, 0.0, 2025-11-03 16:52:23.220
30.0, 256.20371641451493, -60.56206993246451, 241.05899154394865, -2.5637014196254313, -0.04800000227987766, -0.04800000227987766, 1.0400000493973494, 0.0, 0.0, 0.0, 0.0, 0.0, 1.7622067432207468E9, 0.0, 2025-11-03 16:52:23.220
31.0, 222.58201581286266, -89.01896869530901, 213.73902236763388, -28.541046511847526, -0.04800000227987766, -0.04800000227987766, 1.0400000493973494, 0.0, 0.0, 0.0, 0.0, 0.0, 1.762206743234397E9, 0.0, 2025-11-03 16:52:23.234
31.0, 273.268879912328, -50.58027695072815, 257.51829124893993, 16.199376658070832, -0.04800000227987766, -0.04800000227987766, 1.0400000493973494, 0.0, 0.0, 0.0, 0.0, 0.0, 1.762206743234397E9, 0.0, 2025-11-03 16:52:23.234
32.0, 281.8594301105477, -42.31883794860914, 263.55074987746775, 19.57276641810313, -0.04800000227987766, -0.04800000227987766, 1.0400000493973494, 0.0, 0.0, 0.0, 0.0, 0.0, 1.7622067432497897E9, 0.0, 2025-11-03 16:52:23.249
32.0, 239.74067680956796, -74.26880327006802, 233.9307422284037, -6.22132357629016, -0.04800000227987766, -0.04800000227987766, 1.0400000493973494, 0.0, 0.0, 0.0, 0.0, 0.0, 1.7622067432497897E9, 0.0, 2025-11-03 16:52:23.249
33.0, 245.29068834381178, -77.10364743648097, 236.4776140982285, -1.9466179269365966, -0.04800000227987766, -0.04800000227987766, 1.0400000493973494, 0.0, 0.0, 0.0, 0.0, 0.0, 1.762206743264989E9, 0.0, 2025-11-03 16:52:23.264
33.0, 274.2150746011175, -52.99999222205952, 261.3367291036993, 12.983062696177512, -0.04800000227987766, -0.04800000227987766, 1.0400000493973494, 0.0, 0.0, 0.0, 0.0, 0.0, 1.762206743264989E9, 0.0, 2025-11-03 16:52:23.264
34.0, 235.66044595791027, -76.60624074237421, 231.88127705268562, -9.669511335436255, -0.04800000227987766, -0.04800000227987766, 1.0400000493973494, 0.0, 0.0, 0.0, 0.0, 0.0, 1.7622067432657545E9, 0.0, 2025-11-03 16:52:23.265
34.0, 226.6846860642545, -91.3601460675709, 225.16067683231086, -12.64273180020973, -0.04800000227987766, -0.04800000227987766, 1.0400000493973494, 0.0, 0.0, 0.0, 0.0, 0.0, 1.7622067432657545E9, 0.0, 2025-11-03 16:52:23.265
35.0, 273.2913193120621, -48.94968057004735, 268.84270831476897, 34.09853784600273, -0.04800000227987766, -0.04800000227987766, 1.0400000493973494, 0.0, 0.0, 0.0, 0.0, 0.0, 1.762206743280089E9, 0.0, 2025-11-03 16:52:23.280
35.0, 246.55103462887928, -70.831835210789, 243.8601766107604, 3.4762370088137686, -0.04800000227987766, -0.04800000227987766, 1.0400000493973494, 0.0, 0.0, 0.0, 0.0, 0.0, 1.762206743280089E9, 0.0, 2025-11-03 16:52:23.280
36.0, 235.92971875471994, -82.04405527794734, 226.71647521387786, -20.451642907690257, -0.04800000227987766, -0.04800000227987766, 1.0400000493973494, 0.0, 0.0, 0.0, 0.0, 0.0, 1.7622067432807426E9, 0.0, 2025-11-03 16:52:23.280
36.0, 265.4113501054235, -57.76836466556415, 254.72458598203957, -0.03552904957905412, -0.04800000227987766, -0.04800000227987766, 1.0400000493973494, 0.0, 0.0, 0.0, 0.0, 0.0, 1.7622067432807426E9, 0.0, 2025-11-03 16:52:23.280
37.0, 277.7492800592445, -42.240300049539655, 266.2434778455645, 14.935290473047644, -0.04800000227987766, -0.04800000227987766, 1.0400000493973494, 0.0, 0.0, 0.0, 0.0, 0.0, 1.7622067432943287E9, 0.0, 2025-11-03 16:52:23.294
37.0, 236.85721394373104, -80.94078479101881, 224.65579033829272, -16.34897265629843, -0.04800000227987766, -0.04800000227987766, 1.0400000493973494, 0.0, 0.0, 0.0, 0.0, 0.0, 1.7622067432943287E9, 0.0, 2025-11-03 16:52:23.294
38.0, 249.55417429329827, -74.63905336568132, 229.48774108104408, -17.45598304318264, -0.04800000227987766, -0.04800000227987766, 1.0400000493973494, 0.0, 0.0, 0.0, 0.0, 0.0, 1.7622067433100252E9, 0.0, 2025-11-03 16:52:23.310
38.0, 288.7558056288399, -35.366363930981606, 281.48731006495655, 34.93253553612158, -0.04800000227987766, -0.04800000227987766, 1.0400000493973494, 0.0, 0.0, 0.0, 0.0, 0.0, 1.7622067433100252E9, 0.0, 2025-11-03 16:52:23.310
39.0, 239.3592070140876, -73.09821458393708, 229.94774877559394, -10.533428225200623, -0.04800000227987766, -0.04800000227987766, 1.0400000493973494, 0.0, 0.0, 0.0, 0.0, 0.0, 1.7622067433107343E9, 0.0, 2025-11-03 16:52:23.310
39.0, 232.32071529747918, -88.7646554983221, 220.68775648530573, -29.745294297579676, -0.04800000227987766, -0.04800000227987766, 1.0400000493973494, 0.0, 0.0, 0.0, 0.0, 0.0, 1.7622067433107343E9, 0.0, 2025-11-03 16:52:23.310
40.0, 285.6329891658388, -41.873789853882045, 271.29234278574586, 23.10697187623009, -0.04800000227987766, -0.04800000227987766, 1.0400000493973494, 0.0, 0.0, 0.0, 0.0, 0.0, 1.7622067433250349E9, 0.0, 2025-11-03 16:52:23.325
40.0, 251.77567486697808, -59.79165054159239, 252.6040627071634, 14.381785279605538, -0.04800000227987766, -0.04800000227987766, 1.0400000493973494, 0.0, 0.0, 0.0, 0.0, 0.0, 1.7622067433250349E9, 0.0, 2025-11-03 16:52:23.325
41.0, 227.80665605096146, -83.53627536026761, 225.2130354316905, -19.415690619964153, -0.04800000227987766, -0.04800000227987766, 1.0400000493973494, 0.0, 0.0, 0.0, 0.0, 0.0, 1.762206743340216E9, 0.0, 2025-11-03 16:52:23.340
41.0, 262.486748340074, -53.145848320331424, 262.522277389653, 20.051473612431437, -0.04800000227987766, -0.04800000227987766, 1.0400000493973494, 0.0, 0.0, 0.0, 0.0, 0.0, 1.762206743340216E9, 0.0, 2025-11-03 16:52:23.340
42.0, 275.4866405860521, -40.43018847098574, 268.577175417915, 22.815259679686278, -0.04800000227987766, -0.04800000227987766, 1.0400000493973494, 0.0, 0.0, 0.0, 0.0, 0.0, 1.762206743340767E9, 0.0, 2025-11-03 16:52:23.340
42.0, 231.864447502885, -80.48451699642465, 224.92880303505808, -16.77158135129139, -0.04800000227987766, -0.04800000227987766, 1.0400000493973494, 0.0, 0.0, 0.0, 0.0, 0.0, 1.762206743340767E9, 0.0, 2025-11-03 16:52:23.340
43.0, 248.2826083083637, -68.8272488345392, 236.93762179277837, -3.7193305059336126, -0.04800000227987766, -0.04800000227987766, 1.0400000493973494, 0.0, 0.0, 0.0, 0.0, 0.0, 1.7622067433543162E9, 0.0, 2025-11-03 16:52:23.354
43.0, 287.5627775429748, -32.26598686771467, 281.56210806407034, 37.68510190350935, -0.04800000227987766, -0.04800000227987766, 1.0400000493973494, 0.0, 0.0, 0.0, 0.0, 0.0, 1.7622067433543162E9, 0.0, 2025-11-03 16:52:23.354
44.0, 227.55234285397455, -85.73907643416896, 224.3341589421034, -20.126271611545235, -0.04800000227987766, -0.04800000227987766, 1.0400000493973494, 0.0, 0.0, 0.0, 0.0, 0.0, 1.7622067433700829E9, 0.0, 2025-11-03 16:52:23.370
44.0, 218.11657526576892, -98.92222377797589, 211.55118089355528, -26.061492841225117, -0.04800000227987766, -0.04800000227987766, 1.0400000493973494, 0.0, 0.0, 0.0, 0.0, 0.0, 1.7622067433700829E9, 0.0, 2025-11-03 16:52:23.370
45.0, 261.3012000541203, -69.62758742505684, 247.83195036370307, 3.102247013244778, -0.04800000227987766, -0.04800000227987766, 1.0400000493973494, 0.0, 0.0, 0.0, 0.0, 0.0, 1.762206743370783E9, 0.0, 2025-11-03 16:52:23.370
45.0, 230.97061141347513, -86.3187609273009, 226.20036901999265, -23.817552867811173, -0.04800000227987766, -0.04800000227987766, 1.0400000493973494, 0.0, 0.0, 0.0, 0.0, 0.0, 1.762206743370783E9, 0.0, 2025-11-03 16:52:23.370
46.0, 225.0466098836623, -96.56234690593556, 204.30699467938393, -46.91143509419635, -0.04800000227987766, -0.04800000227987766, 1.0400000493973494, 0.0, 0.0, 0.0, 0.0, 0.0, 1.76220674338434E9, 0.0, 2025-11-03 16:52:23.384
46.0, 275.9204689809121, -55.169134196359664, 249.3802689453587, 6.023108878638595, -0.04800000227987766, -0.04800000227987766, 1.0400000493973494, 0.0, 0.0, 0.0, 0.0, 0.0, 1.76220674338434E9, 0.0, 2025-11-03 16:52:23.384
47.0, 278.01481295609847, -42.43103494727984, 261.18339320551604, 12.003208907786757, -0.04800000227987766, -0.04800000227987766, 1.0400000493973494, 0.0, 0.0, 0.0, 0.0, 0.0, 1.7622067434007125E9, 0.0, 2025-11-03 16:52:23.400
47.0, 238.13999962853268, -75.89565975079313, 222.89429745916277, -14.25462868111208, -0.04800000227987766, -0.04800000227987766, 1.0400000493973494, 0.0, 0.0, 0.0, 0.0, 0.0, 1.7622067434007125E9, 0.0, 2025-11-03 16:52:23.400
48.0, 246.19574413308874, -76.81193523993716, 224.0686260452494, -18.020707936491817, -0.04800000227987766, -0.04800000227987766, 1.0400000493973494, 0.0, 0.0, 0.0, 0.0, 0.0, 1.7622067434007592E9, 0.0, 2025-11-03 16:52:23.400
48.0, 287.61887604231015, -37.98055400000885, 272.51155017130077, 37.91323580080643, -0.04800000227987766, -0.04800000227987766, 1.0400000493973494, 0.0, 0.0, 0.0, 0.0, 0.0, 1.7622067434007592E9, 0.0, 2025-11-03 16:52:23.400
49.0, 226.93525936128572, -86.04200833057985, 216.68980343267322, -17.85241243848577, -0.04800000227987766, -0.04800000227987766, 1.0400000493973494, 0.0, 0.0, 0.0, 0.0, 0.0, 1.762206743414606E9, 0.0, 2025-11-03 16:52:23.414
49.0, 226.4939511665143, -91.74161586305127, 212.68437058012933, -20.982708701398224, -0.04800000227987766, -0.04800000227987766, 1.0400000493973494, 0.0, 0.0, 0.0, 0.0, 0.0, 1.762206743414606E9, 0.0, 2025-11-03 16:52:23.414
50.0, 286.35104995733127, -42.285178849007934, 267.10739473532885, 30.474574788939208, -0.04800000227987766, -0.04800000227987766, 1.0400000493973494, 0.0, 0.0, 0.0, 0.0, 0.0, 1.762206743430037E9, 0.0, 2025-11-03 16:52:23.430
50.0, 250.18621738580987, -62.14030771376565, 243.61708311364055, 9.288041539955884, -0.04800000227987766, -0.04800000227987766, 1.0400000493973494, 0.0, 0.0, 0.0, 0.0, 0.0, 1.762206743430037E9, 0.0, 2025-11-03 16:52:23.430
51.0, 216.9721658793278, -91.19185056956485, 216.52150793466717, -24.991881453897804, -0.04800000227987766, -0.04800000227987766, 1.0400000493973494, 0.0, 0.0, 0.0, 0.0, 0.0, 1.7622067434308162E9, 0.0, 2025-11-03 16:52:23.430
51.0, 263.8031931244768, -56.399561281781644, 258.1316348416731, 21.14726429944858, -0.04800000227987766, -0.04800000227987766, 1.0400000493973494, 0.0, 0.0, 0.0, 0.0, 0.0, 1.7622067434308162E9, 0.0, 2025-11-03 16:52:23.430
52.0, 265.78908000094816, -47.59957668604329, 260.3419157154858, 15.743108863476664, -0.04800000227987766, -0.04800000227987766, 1.0400000493973494, 0.0, 0.0, 0.0, 0.0, 0.0, 1.7622067434442863E9, 0.0, 2025-11-03 16:52:23.444
52.0, 233.06869528861716, -83.17724496452138, 219.39375110063702, -33.17852245690301, -0.04800000227987766, -0.04800000227987766, 1.0400000493973494, 0.0, 0.0, 0.0, 0.0, 0.0, 1.7622067434442863E9, 0.0, 2025-11-03 16:52:23.444
53.0, 239.03383571794257, -78.07228152500466, 228.23113469593227, -11.681577511597425, -0.04800000227987766, -0.04800000227987766, 1.0400000493973494, 0.0, 0.0, 0.0, 0.0, 0.0, 1.7622067434600842E9, 0.0, 2025-11-03 16:52:23.460
53.0, 278.0821311553009, -49.32741046557203, 264.43710616696626, 10.597006524447352, -0.04800000227987766, -0.04800000227987766, 1.0400000493973494, 0.0, 0.0, 0.0, 0.0, 0.0, 1.7622067434600842E9, 0.0, 2025-11-03 16:52:23.460
54.0, 227.91885304963216, -85.6867178347893, 221.65265067387372, -25.13399765221402, -0.04800000227987766, -0.04800000227987766, 1.0400000493973494, 0.0, 0.0, 0.0, 0.0, 0.0, 1.76220674346077E9, 0.0, 2025-11-03 16:52:23.460
54.0, 237.8370677321218, -81.42323188530281, 227.96934169903398, -18.634051529224962, -0.04800000227987766, -0.04800000227987766, 1.0400000493973494, 0.0, 0.0, 0.0, 0.0, 0.0, 1.76220674346077E9, 0.0, 2025-11-03 16:52:23.460
55.0, 295.7194993463345, -38.661215791944414, 273.0538356648758, 23.95966906612739, -0.04800000227987766, -0.04800000227987766, 1.0400000493973494, 0.0, 0.0, 0.0, 0.0, 0.0, 1.7622067434743636E9, 0.0, 2025-11-03 16:52:23.474
55.0, 244.16497845714912, -71.96876479731873, 231.9261558521539, -13.222416293341666, -0.04800000227987766, -0.04800000227987766, 1.0400000493973494, 0.0, 0.0, 0.0, 0.0, 0.0, 1.7622067434743636E9, 0.0, 2025-11-03 16:52:23.474
56.0, 219.8219696455635, -91.36388596752658, 207.07078074663877, -28.660723310429603, -0.04800000227987766, -0.04800000227987766, 1.0400000493973494, 0.0, 0.0, 0.0, 0.0, 0.0, 1.7622067434900205E9, 0.0, 2025-11-03 16:52:23.490
56.0, 272.72659441875294, -48.45227387594059, 255.25191187579185, 12.758668698836118, -0.04800000227987766, -0.04800000227987766, 1.0400000493973494, 0.0, 0.0, 0.0, 0.0, 0.0, 1.7622067434900205E9, 0.0, 2025-11-03 16:52:23.490
57.0, 271.08851823816076, -51.23849934292957, 256.3851015623659, 14.546340877655894, -0.04800000227987766, -0.04800000227987766, 1.0400000493973494, 0.0, 0.0, 0.0, 0.0, 0.0, 1.7622067434907608E9, 0.0, 2025-11-03 16:52:23.490
57.0, 221.13093463005498, -94.04539423575625, 204.00406278297305, -33.30567905539647, -0.04800000227987766, -0.04800000227987766, 1.0400000493973494, 0.0, 0.0, 0.0, 0.0, 0.0, 1.7622067434907608E9, 0.0, 2025-11-03 16:52:23.490
58.0, 244.62498615169898, -75.88070015097037, 226.76135401334614, -13.256075392942876, -0.04800000227987766, -0.04800000227987766, 1.0400000493973494, 0.0, 0.0, 0.0, 0.0, 0.0, 1.762206743504352E9, 0.0, 2025-11-03 16:52:23.504
58.0, 292.0805766894482, -34.05365904653445, 271.5840549822897, 29.281546703074127, -0.04800000227987766, -0.04800000227987766, 1.0400000493973494, 0.0, 0.0, 0.0, 0.0, 0.0, 1.762206743504352E9, 0.0, 2025-11-03 16:52:23.504
59.0, 244.2135971565731, -74.81108876364306, 222.5502266632393, -19.46056941943243, -0.04800000227987766, -0.04800000227987766, 1.0400000493973494, 0.0, 0.0, 0.0, 0.0, 0.0, 1.7622067435201468E9, 0.0, 2025-11-03 16:52:23.520
59.0, 229.4634317313321, -88.65993829956278, 213.2902343729511, -26.72719503333792, -0.04800000227987766, -0.04800000227987766, 1.0400000493973494, 0.0, 0.0, 0.0, 0.0, 0.0, 1.7622067435201468E9, 0.0, 2025-11-03 16:52:23.520
60.0, 273.9645013040863, -45.78572520753369, 265.22248515766114, 23.241608274634928, -0.04800000227987766, -0.04800000227987766, 1.0400000493973494, 0.0, 0.0, 0.0, 0.0, 0.0, 1.762206743520772E9, 0.0, 2025-11-03 16:52:23.520
60.0, 248.0282951113768, -65.89142736932263, 239.57425126153976, 3.8502270043827593, -0.04800000227987766, -0.04800000227987766, 1.0400000493973494, 0.0, 0.0, 0.0, 0.0, 0.0, 1.762206743520772E9, 0.0, 2025-11-03 16:52:23.520
61.0, 222.78397041046992, -93.14781824639067, 210.9191378010437, -32.221108068246394, -0.04800000227987766, -0.04800000227987766, 1.0400000493973494, 0.0, 0.0, 0.0, 0.0, 0.0, 1.7622067435345383E9, 0.0, 2025-11-03 16:52:23.534
61.0, 263.57131932722405, -55.81613688869402, 250.98468602634966, 8.955190443899482, -0.04800000227987766, -0.04800000227987766, 1.0400000493973494, 0.0, 0.0, 0.0, 0.0, 0.0, 1.7622067435345383E9, 0.0, 2025-11-03 16:52:23.534
62.0, 269.4878410571255, -43.844717130530626, 264.2463712692261, 27.96510191867128, -0.04800000227987766, -0.04800000227987766, 1.0400000493973494, 0.0, 0.0, 0.0, 0.0, 0.0, 1.7622067435501635E9, 0.0, 2025-11-03 16:52:23.550
62.0, 226.54630976589397, -87.82968050939962, 216.85435903072357, -21.682069993112236, -0.04800000227987766, -0.04800000227987766, 1.0400000493973494, 0.0, 0.0, 0.0, 0.0, 0.0, 1.7622067435501635E9, 0.0, 2025-11-03 16:52:23.550
63.0, 239.91645210748538, -78.56220841920003, 232.93592884019017, -2.0251558260060847, -0.04800000227987766, -0.04800000227987766, 1.0400000493973494, 0.0, 0.0, 0.0, 0.0, 0.0, 1.7622067435507607E9, 0.0, 2025-11-03 16:52:23.550
63.0, 280.8608768223785, -46.92639469401911, 264.69515926390886, 28.944955707062036, -0.04800000227987766, -0.04800000227987766, 1.0400000493973494, 0.0, 0.0, 0.0, 0.0, 0.0, 1.7622067435507607E9, 0.0, 2025-11-03 16:52:23.550
64.0, 237.19754483969882, -76.53144274326041, 231.27915315981954, -4.022262402344495, -0.04800000227987766, -0.04800000227987766, 1.0400000493973494, 0.0, 0.0, 0.0, 0.0, 0.0, 1.7622067435646365E9, 0.0, 2025-11-03 16:52:23.564
64.0, 222.81762951007113, -95.22720262175426, 215.29482074920088, -31.899476672057062, -0.04800000227987766, -0.04800000227987766, 1.0400000493973494, 0.0, 0.0, 0.0, 0.0, 0.0, 1.7622067435646365E9, 0.0, 2025-11-03 16:52:23.564
65.0, 274.71996109513566, -55.72637928975746, 254.10376258939505, 10.507248925510794, -0.04800000227987766, -0.04800000227987766, 1.0400000493973494, 0.0, 0.0, 0.0, 0.0, 0.0, 1.7622067435800517E9, 0.0, 2025-11-03 16:52:23.580
65.0, 248.08065371075645, -70.19605221832171, 233.17528243735433, -8.379245850723237, -0.04800000227987766, -0.04800000227987766, 1.0400000493973494, 0.0, 0.0, 0.0, 0.0, 0.0, 1.7622067435800517E9, 0.0, 2025-11-03 16:52:23.580
66.0, 246.00500923534855, -75.98541734972969, 228.2535740956664, -13.91803768509999, -0.04800000227987766, -0.04800000227987766, 1.0400000493973494, 0.0, 0.0, 0.0, 0.0, 0.0, 1.7622067435807638E9, 0.0, 2025-11-03 16:52:23.580
66.0, 266.3986836937256, -56.8221699767746, 254.57872988376766, 14.972689472604543, -0.04800000227987766, -0.04800000227987766, 1.0400000493973494, 0.0, 0.0, 0.0, 0.0, 0.0, 1.7622067435807638E9, 0.0, 2025-11-03 16:52:23.580
67.0, 275.2996455882676, -40.88645626557991, 263.96213887259364, 32.34826466673985, -0.04800000227987766, -0.04800000227987766, 1.0400000493973494, 0.0, 0.0, 0.0, 0.0, 0.0, 1.7622067435943391E9, 0.0, 2025-11-03 16:52:23.594
67.0, 230.48442441923544, -86.32250082725659, 217.8416926190257, -25.870757943484932, -0.04800000227987766, -0.04800000227987766, 1.0400000493973494, 0.0, 0.0, 0.0, 0.0, 0.0, 1.7622067435943391E9, 0.0, 2025-11-03 16:52:23.594
68.0, 237.17510543996468, -85.05093484232202, 219.87619819492102, -24.591712158638984, -0.04800000227987766, -0.04800000227987766, 1.0400000493973494, 0.0, 0.0, 0.0, 0.0, 0.0, 1.762206743610015E9, 0.0, 2025-11-03 16:52:23.610
68.0, 279.2901188409887, -43.16031543863937, 265.48427815455943, 24.887164255138487, -0.04800000227987766, -0.04800000227987766, 1.0400000493973494, 0.0, 0.0, 0.0, 0.0, 0.0, 1.762206743610015E9, 0.0, 2025-11-03 16:52:23.610
69.0, 242.96821047132835, -72.64942658925429, 230.8902035644278, -7.137599065434188, -0.04800000227987766, -0.04800000227987766, 1.0400000493973494, 0.0, 0.0, 0.0, 0.0, 0.0, 1.762206743610746E9, 0.0, 2025-11-03 16:52:23.610
69.0, 234.95360486628488, -86.11306642973796, 221.64517087396234, -13.259815292898566, -0.04800000227987766, -0.04800000227987766, 1.0400000493973494, 0.0, 0.0, 0.0, 0.0, 0.0, 1.762206743610746E9, 0.0, 2025-11-03 16:52:23.610
70.0, 281.7771523115225, -40.76677946699783, 272.48163097165525, 30.627910687122494, -0.04800000227987766, -0.04800000227987766, 1.0400000493973494, 0.0, 0.0, 0.0, 0.0, 0.0, 1.7622067436244917E9, 0.0, 2025-11-03 16:52:23.624
70.0, 240.30914160283282, -72.29787599341944, 238.72529397159815, 1.4417314329184592, -0.04800000227987766, -0.04800000227987766, 1.0400000493973494, 0.0, 0.0, 0.0, 0.0, 0.0, 1.7622067436244917E9, 0.0, 2025-11-03 16:52:23.624
71.0, 231.6063944059424, -89.26206219242886, 220.78873378410935, -18.951943025458604, -0.04800000227987766, -0.04800000227987766, 1.0400000493973494, 0.0, 0.0, 0.0, 0.0, 0.0, 1.762206743640086E9, 0.0, 2025-11-03 16:52:23.640
71.0, 260.52704076329246, -63.598868696484715, 248.91278145089746, 6.434497873764485, -0.04800000227987766, -0.04800000227987766, 1.0400000493973494, 0.0, 0.0, 0.0, 0.0, 0.0, 1.762206743640086E9, 0.0, 2025-11-03 16:52:23.640
72.0, 272.7078949189745, -47.143308891449124, 263.73774487525225, 21.53247399488464, -0.04800000227987766, -0.04800000227987766, 1.0400000493973494, 0.0, 0.0, 0.0, 0.0, 0.0, 1.7622067436407752E9, 0.0, 2025-11-03 16:52:23.640
72.0, 229.51579033071175, -87.02934191888198, 227.6290108030662, -12.074267006944865, -0.04800000227987766, -0.04800000227987766, 1.0400000493973494, 0.0, 0.0, 0.0, 0.0, 0.0, 1.7622067436407752E9, 0.0, 2025-11-03 16:52:23.640
73.0, 247.09706002241, -73.87611377472058, 238.40366257540882, -0.8919661394320428, -0.04800000227987766, -0.04800000227987766, 1.0400000493973494, 0.0, 0.0, 0.0, 0.0, 0.0, 1.7622067436543355E9, 0.0, 2025-11-03 16:52:23.654
73.0, 298.14295451762155, -31.13653708109632, 281.38259286619723, 34.28553284378722, -0.04800000227987766, -0.04800000227987766, 1.0400000493973494, 0.0, 0.0, 0.0, 0.0, 0.0, 1.7622067436543355E9, 0.0, 2025-11-03 16:52:23.654
74.0, 226.2358980695717, -90.99363587191328, 211.18093079794198, -33.55625235242769, -0.04800000227987766, -0.04800000227987766, 1.0400000493973494, 0.0, 0.0, 0.0, 0.0, 0.0, 1.7622067436700337E9, 0.0, 2025-11-03 16:52:23.670
74.0, 229.32879533292726, -84.36279325047508, 219.1020389040932, -19.408210820052773, -0.04800000227987766, -0.04800000227987766, 1.0400000493973494, 0.0, 0.0, 0.0, 0.0, 0.0, 1.7622067436700337E9, 0.0, 2025-11-03 16:52:23.670
75.0, 284.10337008396164, -41.58207765733823, 267.74317772779614, 19.767241215799004, -0.04800000227987766, -0.04800000227987766, 1.0400000493973494, 0.0, 0.0, 0.0, 0.0, 0.0, 1.762206743670755E9, 0.0, 2025-11-03 16:52:23.670
75.0, 258.90018428256735, -50.95052704634145, 254.20099998824298, 10.088380130473524, -0.04800000227987766, -0.04800000227987766, 1.0400000493973494, 0.0, 0.0, 0.0, 0.0, 0.0, 1.762206743670755E9, 0.0, 2025-11-03 16:52:23.670
76.0, 216.3775217863731, -92.4708963544108, 211.30808739643544, -24.32243936182931, -0.04800000227987766, -0.04800000227987766, 1.0400000493973494, 0.0, 0.0, 0.0, 0.0, 0.0, 1.7622067436844227E9, 0.0, 2025-11-03 16:52:23.684
76.0, 262.97293533431366, -56.42200068151578, 253.51285839639604, 13.667464388068765, -0.04800000227987766, -0.04800000227987766, 1.0400000493973494, 0.0, 0.0, 0.0, 0.0, 0.0, 1.7622067436844227E9, 0.0, 2025-11-03 16:52:23.684
77.0, 292.6415616828017, -22.927456678356975, 285.9490107120946, 37.90575600089505, -0.04800000227987766, -0.04800000227987766, 1.0400000493973494, 0.0, 0.0, 0.0, 0.0, 0.0, 1.7622067437005675E9, 0.0, 2025-11-03 16:52:23.700
77.0, 240.63825279893354, -69.2348979297094, 237.038599091582, -3.9960831026546657, -0.04800000227987766, -0.04800000227987766, 1.0400000493973494, 0.0, 0.0, 0.0, 0.0, 0.0, 1.7622067437005675E9, 0.0, 2025-11-03 16:52:23.700
78.0, 251.93275066511706, -65.57353587308899, 239.86222355812788, -1.9952366263605654, -0.04800000227987766, -0.04800000227987766, 1.0400000493973494, 0.0, 0.0, 0.0, 0.0, 0.0, 1.7622067437150464E9, 0.0, 2025-11-03 16:52:23.715
78.0, 285.94714076211676, -35.800192325841635, 271.1951053868979, 23.320146173704416, -0.04800000227987766, -0.04800000227987766, 1.0400000493973494, 0.0, 0.0, 0.0, 0.0, 0.0, 1.7622067437150464E9, 0.0, 2025-11-03 16:52:23.715
79.0, 231.78590960381553, -77.37292023329064, 227.16526320856065, -15.11480567092076, -0.04800000227987766, -0.04800000227987766, 1.0400000493973494, 0.0, 0.0, 0.0, 0.0, 0.0, 1.7622067437157688E9, 0.0, 2025-11-03 16:52:23.715
79.0, 223.0457634073682, -96.78674090327695, 207.30265454389155, -32.5165601647459, -0.04800000227987766, -0.04800000227987766, 1.0400000493973494, 0.0, 0.0, 0.0, 0.0, 0.0, 1.7622067437157688E9, 0.0, 2025-11-03 16:52:23.715
80.0, 277.6333431606181, -51.32825694186613, 259.54157712496817, 15.46635626675561, -0.04800000227987766, -0.04800000227987766, 1.0400000493973494, 0.0, 0.0, 0.0, 0.0, 0.0, 1.76220674373004E9, 0.0, 2025-11-03 16:52:23.730
80.0, 243.01682917075232, -73.40862628025934, 234.56278532091528, -2.406625621486455, -0.04800000227987766, -0.04800000227987766, 1.0400000493973494, 0.0, 0.0, 0.0, 0.0, 0.0, 1.76220674373004E9, 0.0, 2025-11-03 16:52:23.730
81.0, 230.32360872114077, -87.82220070948824, 218.8477257071063, -22.32159288553521, -0.04800000227987766, -0.04800000227987766, 1.0400000493973494, 0.0, 0.0, 0.0, 0.0, 0.0, 1.7622067437307737E9, 0.0, 2025-11-03 16:52:23.730
81.0, 270.31809884728864, -58.61732195550576, 252.4507268089801, 19.378291620407254, -0.04800000227987766, -0.04800000227987766, 1.0400000493973494, 0.0, 0.0, 0.0, 0.0, 0.0, 1.7622067437307737E9, 0.0, 2025-11-03 16:52:23.730
82.0, 269.91044975211844, -49.03195836907253, 260.9739588079974, 17.52704114234075, -0.04800000227987766, -0.04800000227987766, 1.0400000493973494, 0.0, 0.0, 0.0, 0.0, 0.0, 1.7622067437443645E9, 0.0, 2025-11-03 16:52:23.744
82.0, 224.41456679115072, -85.1332126413472, 219.6181450979784, -18.136644835118204, -0.04800000227987766, -0.04800000227987766, 1.0400000493973494, 0.0, 0.0, 0.0, 0.0, 0.0, 1.7622067437443645E9, 0.0, 2025-11-03 16:52:23.744
83.0, 245.49638284137473, -74.1640860713087, 228.74724088981748, -15.170904170256108, -0.04800000227987766, -0.04800000227987766, 1.0400000493973494, 0.0, 0.0, 0.0, 0.0, 0.0, 1.762206743760017E9, 0.0, 2025-11-03 16:52:23.760
83.0, 290.17322771204636, -30.646610186900944, 277.0592685174197, 29.053412805777043, -0.04800000227987766, -0.04800000227987766, 1.0400000493973494, 0.0, 0.0, 0.0, 0.0, 0.0, 1.762206743760017E9, 0.0, 2025-11-03 16:52:23.760
84.0, 235.50711005972698, -74.84100796328858, 226.45094231702387, -15.167164270300418, -0.04800000227987766, -0.04800000227987766, 1.0400000493973494, 0.0, 0.0, 0.0, 0.0, 0.0, 1.7622067437607493E9, 0.0, 2025-11-03 16:52:23.760
84.0, 223.58430900098756, -91.5434011653997, 208.73503622692078, -31.17393608065322, -0.04800000227987766, -0.04800000227987766, 1.0400000493973494, 0.0, 0.0, 0.0, 0.0, 0.0, 1.7622067437607493E9, 0.0, 2025-11-03 16:52:23.760
85.0, 278.13448975468054, -48.325117277447134, 259.91930702049285, 19.374551720451564, -0.04800000227987766, -0.04800000227987766, 1.0400000493973494, 0.0, 0.0, 0.0, 0.0, 0.0, 1.762206743774393E9, 0.0, 2025-11-03 16:52:23.774
85.0, 249.0679872990586, -63.90928039280698, 245.06816429644823, 5.794974981341511, -0.04800000227987766, -0.04800000227987766, 1.0400000493973494, 0.0, 0.0, 0.0, 0.0, 0.0, 1.762206743774393E9, 0.0, 2025-11-03 16:52:23.774
86.0, 218.7486183582805, -94.29970743274316, 209.6587915159762, -32.198668668512255, -0.04800000227987766, -0.04800000227987766, 1.0400000493973494, 0.0, 0.0, 0.0, 0.0, 0.0, 1.7622067437900126E9, 0.0, 2025-11-03 16:52:23.790
86.0, 264.05376642150804, -56.48183908080682, 255.22199267614633, 14.183570581953973, -0.04800000227987766, -0.04800000227987766, 1.0400000493973494, 0.0, 0.0, 0.0, 0.0, 0.0, 1.7622067437900126E9, 0.0, 2025-11-03 16:52:23.790
87.0, 286.01819886127487, -32.595098063815385, 278.6898648981005, 25.9193766429089, -0.04800000227987766, -0.04800000227987766, 1.0400000493973494, 0.0, 0.0, 0.0, 0.0, 0.0, 1.7622067437907567E9, 0.0, 2025-11-03 16:52:23.790
87.0, 223.06446290714666, -82.9453711672686, 223.9564290465787, -21.14726429944858, -0.04800000227987766, -0.04800000227987766, 1.0400000493973494, 0.0, 0.0, 0.0, 0.0, 0.0, 1.7622067437907567E9, 0.0, 2025-11-03 16:52:23.790
88.0, 229.54944943031296, -85.3538667387329, 224.12098464462906, -24.045686765108258, -0.04800000227987766, -0.04800000227987766, 1.0400000493973494, 0.0, 0.0, 0.0, 0.0, 0.0, 1.762206743804392E9, 0.0, 2025-11-03 16:52:23.804
88.0, 293.6849937704392, -27.269480526912957, 286.67829120345414, 47.18070789100602, -0.04800000227987766, -0.04800000227987766, 1.0400000493973494, 0.0, 0.0, 0.0, 0.0, 0.0, 1.762206743804392E9, 0.0, 2025-11-03 16:52:23.804
89.0, 237.17884533992037, -71.29558280529454, 236.0774448029697, -9.46381683787331, -0.04800000227987766, -0.04800000227987766, 1.0400000493973494, 0.0, 0.0, 0.0, 0.0, 0.0, 1.7622067438200238E9, 0.0, 2025-11-03 16:52:23.820
89.0, 230.6452401173301, -80.56305489549413, 228.60886459145695, -17.800053839106113, -0.04800000227987766, -0.04800000227987766, 1.0400000493973494, 0.0, 0.0, 0.0, 0.0, 0.0, 1.7622067438200238E9, 0.0, 2025-11-03 16:52:23.820
90.0, 291.44105379702523, -36.91094261268154, 269.77394340373576, 22.549726782832295, -0.04800000227987766, -0.04800000227987766, 1.0400000493973494, 0.0, 0.0, 0.0, 0.0, 0.0, 1.7622067438207839E9, 0.0, 2025-11-03 16:52:23.820
90.0, 262.8943974352442, -57.80576366512105, 249.05115774925798, 4.897398991975933, -0.04800000227987766, -0.04800000227987766, 1.0400000493973494, 0.0, 0.0, 0.0, 0.0, 0.0, 1.7622067438207839E9, 0.0, 2025-11-03 16:52:23.820
91.0, 229.48587113106623, -89.85670628538355, 214.37854526005685, -31.675082674715668, -0.04800000227987766, -0.04800000227987766, 1.0400000493973494, 0.0, 0.0, 0.0, 0.0, 0.0, 1.762206743834422E9, 0.0, 2025-11-03 16:52:23.834
91.0, 273.6204305081628, -46.82167749525979, 259.8258095216006, 16.079699859488755, -0.04800000227987766, -0.04800000227987766, 1.0400000493973494, 0.0, 0.0, 0.0, 0.0, 0.0, 1.762206743834422E9, 0.0, 2025-11-03 16:52:23.834
92.0, 264.50255441619083, -52.52128502773121, 251.63168871868402, 7.283455163706094, -0.04800000227987766, -0.04800000227987766, 1.0400000493973494, 0.0, 0.0, 0.0, 0.0, 0.0, 1.7622067438500028E9, 0.0, 2025-11-03 16:52:23.850
92.0, 213.23974572354928, -103.49986132374033, 196.98801046609879, -51.477852940093726, -0.04800000227987766, -0.04800000227987766, 1.0400000493973494, 0.0, 0.0, 0.0, 0.0, 0.0, 1.7622067438500028E9, 0.0, 2025-11-03 16:52:23.850
93.0, 240.29792190296575, -80.52939579589292, 218.49991501122713, -28.963655206840485, -0.04800000227987766, -0.04800000227987766, 1.0400000493973494, 0.0, 0.0, 0.0, 0.0, 0.0, 1.762206743850752E9, 0.0, 2025-11-03 16:52:23.850
93.0, 304.06695604743436, -26.71597533347085, 282.736436650157, 38.95292798848823, -0.04800000227987766, -0.04800000227987766, 1.0400000493973494, 0.0, 0.0, 0.0, 0.0, 0.0, 1.762206743850752E9, 0.0, 2025-11-03 16:52:23.850
94.0, 233.1659326874651, -80.01328960200772, 226.8810308119282, -21.846625591162592, -0.04800000227987766, -0.04800000227987766, 1.0400000493973494, 0.0, 0.0, 0.0, 0.0, 0.0, 1.7622067438644695E9, 0.0, 2025-11-03 16:52:23.864
94.0, 235.3911731611006, -82.12259317701682, 222.48664836399257, -20.967749101575464, -0.04800000227987766, -0.04800000227987766, 1.0400000493973494, 0.0, 0.0, 0.0, 0.0, 0.0, 1.7622067438644695E9, 0.0, 2025-11-03 16:52:23.864
95.0, 284.6755747771822, -38.88560978928581, 274.3815001491457, 30.616690987255424, -0.04800000227987766, -0.04800000227987766, 1.0400000493973494, 0.0, 0.0, 0.0, 0.0, 0.0, 1.7622067438800092E9, 0.0, 2025-11-03 16:52:23.880
95.0, 253.42871064739302, -60.6032088319771, 252.11413581296802, 11.85361290955916, -0.04800000227987766, -0.04800000227987766, 1.0400000493973494, 0.0, 0.0, 0.0, 0.0, 0.0, 1.7622067438800092E9, 0.0, 2025-11-03 16:52:23.880
96.0, 230.48068451927975, -83.88782595610246, 225.42994962912053, -19.752281615976244, -0.04800000227987766, -0.04800000227987766, 1.0400000493973494, 0.0, 0.0, 0.0, 0.0, 0.0, 1.7622067438807945E9, 0.0, 2025-11-03 16:52:23.880
96.0, 252.30300076073036, -72.77658318774775, 236.61225049663335, -11.217829917091876, -0.04800000227987766, -0.04800000227987766, 1.0400000493973494, 0.0, 0.0, 0.0, 0.0, 0.0, 1.7622067438807945E9, 0.0, 2025-11-03 16:52:23.880
97.0, 272.5956979203038, -50.91312804678455, 260.9365598084405, 16.494828754570335, -0.04800000227987766, -0.04800000227987766, 1.0400000493973494, 0.0, 0.0, 0.0, 0.0, 0.0, 1.762206743894451E9, 0.0, 2025-11-03 16:52:23.894
97.0, 223.24771800497547, -92.52699485374615, 211.59979959297925, -33.376737154554576, -0.04800000227987766, -0.04800000227987766, 1.0400000493973494, 0.0, 0.0, 0.0, 0.0, 0.0, 1.762206743894451E9, 0.0, 2025-11-03 16:52:23.894
98.0, 239.40782571351156, -79.88239310355857, 232.7003151429817, -13.424370890948921, -0.04800000227987766, -0.04800000227987766, 1.0400000493973494, 0.0, 0.0, 0.0, 0.0, 0.0, 1.7622067439100134E9, 0.0, 2025-11-03 16:52:23.910
98.0, 273.46335471002385, -47.82771058334038, 273.136113463901, 31.828418572898954, -0.04800000227987766, -0.04800000227987766, 1.0400000493973494, 0.0, 0.0, 0.0, 0.0, 0.0, 1.7622067439100134E9, 0.0, 2025-11-03 16:52:23.910
99.0, 233.41650598449633, -79.58320110710338, 228.6649630907923, -9.224463240709156, -0.04800000227987766, -0.04800000227987766, 1.0400000493973494, 0.0, 0.0, 0.0, 0.0, 0.0, 1.7622067439107568E9, 0.0, 2025-11-03 16:52:23.910
99.0, 226.4191531674005, -92.57187365321442, 217.93893001787364, -25.57156594702974, -0.04800000227987766, -0.04800000227987766, 1.0400000493973494, 0.0, 0.0, 0.0, 0.0, 0.0, 1.7622067439107568E9, 0.0, 2025-11-03 16:52:23.910
100.0, 279.5182527382858, -50.40824155276641, 263.1954593816772, 19.632604817394167, -0.04800000227987766, -0.04800000227987766, 1.0400000493973494, 0.0, 0.0, 0.0, 0.0, 0.0, 1.7622067439249997E9, 0.0, 2025-11-03 16:52:23.924
100.0, 264.53995341574773, -51.29459784226492, 254.09628278948367, 10.125779130030423, -0.04800000227987766, -0.04800000227987766, 1.0400000493973494, 0.0, 0.0, 0.0, 0.0, 0.0, 1.7622067439249997E9, 0.0, 2025-11-03 16:52:23.924
0.0, 226.85859141219407, -87.09479016810656, 215.88011509226635, -29.1805694042705, -0.04800000227987766, -0.04800000227987766, 1.0400000493973494, 0.0, 0.0, 0.0, 0.0, 0.0, 1.7622067439257753E9, 0.0, 2025-11-03 16:52:23.925
1.0, 272.8631007671356, -48.75333582237363, 260.4447629642673, 16.143278158735484, -0.04800000227987766, -0.04800000227987766, 1.0400000493973494, 0.0, 0.0, 0.0, 0.0, 0.0, 1.7622067439394238E9, 0.0, 2025-11-03 16:52:23.939
1.0, 279.0601149937138, -40.51059632003307, 266.52958019217476, 22.29915348580107, -0.04800000227987766, -0.04800000227987766, 1.0400000493973494, 0.0, 0.0, 0.0, 0.0, 0.0, 1.7622067439394238E9, 0.0, 2025-11-03 16:52:23.939
2.0, 222.9578757584095, -87.07235076837242, 213.75585191743448, -35.452381629962474, -0.04800000227987766, -0.04800000227987766, 1.0400000493973494, 0.0, 0.0, 0.0, 0.0, 0.0, 1.7622067439551394E9, 0.0, 2025-11-03 16:52:23.955
2.0, 246.3359903814271, -74.01636002305895, 231.26232361001894, -13.813320486340672, -0.04800000227987766, -0.04800000227987766, 1.0400000493973494, 0.0, 0.0, 0.0, 0.0, 0.0, 1.7622067439551394E9, 0.0, 2025-11-03 16:52:23.955
3.0, 289.49069597013295, -25.30042320024222, 287.3383835456334, 42.640469344798476, -0.04800000227987766, -0.04800000227987766, 1.0400000493973494, 0.0, 0.0, 0.0, 0.0, 0.0, 1.7622067439558034E9, 0.0, 2025-11-03 16:52:23.955
3.0, 234.34587112348527, -73.80692562554032, 232.04770260071382, -7.421831462066621, -0.04800000227987766, -0.04800000227987766, 1.0400000493973494, 0.0, 0.0, 0.0, 0.0, 0.0, 1.7622067439558034E9, 0.0, 2025-11-03 16:52:23.955
4.0, 239.23392036557198, -79.46165435854346, 231.52411660691723, -9.359099639113992, -0.04800000227987766, -0.04800000227987766, 1.0400000493973494, 0.0, 0.0, 0.0, 0.0, 0.0, 1.7622067439693503E9, 0.0, 2025-11-03 16:52:23.969
4.0, 292.34049973636866, -28.857068058103323, 283.8303573871963, 44.704894120339304, -0.04800000227987766, -0.04800000227987766, 1.0400000493973494, 0.0, 0.0, 0.0, 0.0, 0.0, 1.7622067439693503E9, 0.0, 2025-11-03 16:52:23.969
5.0, 250.3750823335722, -62.68446315731853, 244.8755594487302, -1.5389688317663968, -0.04800000227987766, -0.04800000227987766, 1.0400000493973494, 0.0, 0.0, 0.0, 0.0, 0.0, 1.7622067439851542E9, 0.0, 2025-11-03 16:52:23.985
5.0, 218.477475611493, -100.77160430606455, 204.83993042306975, -36.073205022607, -0.04800000227987766, -0.04800000227987766, 1.0400000493973494, 0.0, 0.0, 0.0, 0.0, 0.0, 1.7622067439851542E9, 0.0, 2025-11-03 16:52:23.985
6.0, 246.96055367402732, -79.25221996102482, 228.84260833868757, -17.770134639460593, -0.04800000227987766, -0.04800000227987766, 1.0400000493973494, 0.0, 0.0, 0.0, 0.0, 0.0, 1.7622067439862251E9, 0.0, 2025-11-03 16:52:23.986
6.0, 267.48138473089784, -58.07316651195288, 255.66517082089558, 12.597853000741452, -0.04800000227987766, -0.04800000227987766, 1.0400000493973494, 0.0, 0.0, 0.0, 0.0, 0.0, 1.7622067439862251E9, 0.0, 2025-11-03 16:52:23.986
7.0, 238.39244287554175, -82.4086955236271, 230.17401272291318, -5.353666786570102, -0.04800000227987766, -0.04800000227987766, 1.0400000493973494, 0.0, 0.0, 0.0, 0.0, 0.0, 1.7622067439993849E9, 0.0, 2025-11-03 16:52:23.999
7.0, 241.84437053464353, -84.52921879850328, 224.39960719132796, -17.93095033755526, -0.04800000227987766, -0.04800000227987766, 1.0400000493973494, 0.0, 0.0, 0.0, 0.0, 0.0, 1.7622067439993849E9, 0.0, 2025-11-03 16:52:23.999
8.0, 267.3392685325816, -59.42701029591262, 253.53342784615234, 9.250642540398985, -0.04800000227987766, -0.04800000227987766, 1.0400000493973494, 0.0, 0.0, 0.0, 0.0, 0.0, 1.7622067440150535E9, 0.0, 2025-11-03 16:52:24.015
8.0, 226.5855787154287, -89.39482864085585, 220.3792147389613, -18.035667536314577, -0.04800000227987766, -0.04800000227987766, 1.0400000493973494, 0.0, 0.0, 0.0, 0.0, 0.0, 1.7622067440150535E9, 0.0, 2025-11-03 16:52:24.015
9.0, 232.38616354670376, -82.55455162189901, 225.96662527276203, -11.520761813502759, -0.04800000227987766, -0.04800000227987766, 1.0400000493973494, 0.0, 0.0, 0.0, 0.0, 0.0, 1.762206744015786E9, 0.0, 2025-11-03 16:52:24.015
9.0, 292.60977253317833, -36.5350826671347, 275.4866405860521, 30.01456709438935, -0.04800000227987766, -0.04800000227987766, 1.0400000493973494, 0.0, 0.0, 0.0, 0.0, 0.0, 1.762206744015786E9, 0.0, 2025-11-03 16:52:24.015
10.0, 247.3794224690646, -65.22385522723198, 242.25014967983589, 0.7872489406727254, -0.04800000227987766, -0.04800000227987766, 1.0400000493973494, 0.0, 0.0, 0.0, 0.0, 0.0, 1.762206744029319E9, 0.0, 2025-11-03 16:52:24.029
10.0, 240.0005998564884, -80.41532884724438, 224.77733708685264, -19.85699881473556, -0.04800000227987766, -0.04800000227987766, 1.0400000493973494, 0.0, 0.0, 0.0, 0.0, 0.0, 1.762206744029319E9, 0.0, 2025-11-03 16:52:24.029
11.0, 255.20329317636788, -68.43268938921392, 241.40119238989428, -1.5801077312789857, -0.04800000227987766, -0.06400000303983688, 1.0400000493973494, 0.0, 0.0, 0.0, 0.0, 0.0, 1.7622067440451355E9, 0.0, 2025-11-03 16:52:24.045
11.0, 268.90254671406, -50.81776059791446, 262.9243166348897, 24.142924163956195, -0.04800000227987766, -0.06400000303983688, 1.0400000493973494, 0.0, 0.0, 0.0, 0.0, 0.0, 1.7622067440451355E9, 0.0, 2025-11-03 16:52:24.045
12.0, 222.48664836399257, -90.36720262933522, 211.54183114366606, -23.99706806568429, -0.04800000227987766, -0.06400000303983688, 1.0400000493973494, 0.0, 0.0, 0.0, 0.0, 0.0, 1.762206744045832E9, 0.0, 2025-11-03 16:52:24.045
12.0, 236.5150130977854, -87.43512106407434, 218.8234163573943, -25.19383605150506, -0.04800000227987766, -0.06400000303983688, 1.0400000493973494, 0.0, 0.0, 0.0, 0.0, 0.0, 1.762206744045832E9, 0.0, 2025-11-03 16:52:24.045
13.0, 293.2605151254684, -30.824255434796214, 275.1837086896412, 36.177922221366316, -0.04800000227987766, -0.06400000303983688, 1.0400000493973494, 0.0, 0.0, 0.0, 0.0, 0.0, 1.7622067440593364E9, 0.0, 2025-11-03 16:52:24.059
13.0, 243.58342401403934, -67.68096949812025, 232.99763718945906, -13.521608289796859, -0.04800000227987766, -0.06400000303983688, 1.0400000493973494, 0.0, 0.0, 0.0, 0.0, 0.0, 1.7622067440593364E9, 0.0, 2025-11-03 16:52:24.059
14.0, 226.37988421786577, -88.94604064617306, 218.81219665752724, -26.551419735420495, -0.04800000227987766, -0.06400000303983688, 1.0400000493973494, 0.0, 0.0, 0.0, 0.0, 0.0, 1.762206744075066E9, 0.0, 2025-11-03 16:52:24.075
14.0, 276.2439703270793, -44.56090797204524, 262.86073833564296, 16.012381660286337, -0.04800000227987766, -0.06400000303983688, 1.0400000493973494, 0.0, 0.0, 0.0, 0.0, 0.0, 1.762206744075066E9, 0.0, 2025-11-03 16:52:24.075
15.0, 244.95596729777753, -69.83141197264194, 241.56948788790032, 2.3056483226828277, -0.04800000227987766, -0.06400000303983688, 1.0400000493973494, 0.0, 0.0, 0.0, 0.0, 0.0, 1.762206744075784E9, 0.0, 2025-11-03 16:52:24.075
15.0, 222.81575956009328, -91.44429381657392, 211.35483614588156, -29.711635197978467, -0.04800000227987766, -0.06400000303983688, 1.0400000493973494, 0.0, 0.0, 0.0, 0.0, 0.0, 1.762206744075784E9, 0.0, 2025-11-03 16:52:24.075
16.0, 268.95490531343967, -55.60857244115323, 251.15859137428924, 6.9805232672952116, -0.04800000227987766, -0.06400000303983688, 1.0400000493973494, 0.0, 0.0, 0.0, 0.0, 0.0, 1.7622067440893233E9, 0.0, 2025-11-03 16:52:24.089
16.0, 267.11487453524023, -53.693743663839996, 255.97184261726215, 13.327133492100984, -0.04800000227987766, -0.06400000303983688, 1.0400000493973494, 0.0, 0.0, 0.0, 0.0, 0.0, 1.7622067440893233E9, 0.0, 2025-11-03 16:52:24.089
17.0, 224.5884721390903, -85.29215838946402, 222.3800612152554, -14.882931873667985, -0.04800000227987766, -0.06400000303983688, 1.0400000493973494, 0.0, 0.0, 0.0, 0.0, 0.0, 1.762206744105098E9, 0.0, 2025-11-03 16:52:24.105
17.0, 238.6280565727502, -81.02493254002184, 229.88978032628074, -10.66058482369408, -0.04800000227987766, -0.06400000303983688, 1.0400000493973494, 0.0, 0.0, 0.0, 0.0, 0.0, 1.762206744105098E9, 0.0, 2025-11-03 16:52:24.105
18.0, 297.4753823755309, -30.491404338739812, 272.8574909172021, 24.236421662848443, -0.04800000227987766, -0.06400000303983688, 1.0400000493973494, 0.0, 0.0, 0.0, 0.0, 0.0, 1.7622067441058905E9, 0.0, 2025-11-03 16:52:24.105
18.0, 222.04908006917685, -88.34391675330698, 212.99665222642943, -27.355498225893825, -0.04800000227987766, -0.06400000303983688, 1.0400000493973494, 0.0, 0.0, 0.0, 0.0, 0.0, 1.7622067441058905E9, 0.0, 2025-11-03 16:52:24.105
19.0, 226.04329322185367, -90.59159662667662, 214.1223621130921, -21.371658296789974, -0.04800000227987766, -0.06400000303983688, 1.0400000493973494, 0.0, 0.0, 0.0, 0.0, 0.0, 1.7622067441193383E9, 0.0, 2025-11-03 16:52:24.119
19.0, 274.00751015357673, -49.00764901936054, 264.8578449119814, 22.72550208074972, -0.04800000227987766, -0.06400000303983688, 1.0400000493973494, 0.0, 0.0, 0.0, 0.0, 0.0, 1.7622067441193383E9, 0.0, 2025-11-03 16:52:24.119
20.0, 252.76861830521375, -64.13554434012622, 241.34135399060324, -5.82489418098703, -0.04800000227987766, -0.06400000303983688, 1.0400000493973494, 0.0, 0.0, 0.0, 0.0, 0.0, 1.7622067441350567E9, 0.0, 2025-11-03 16:52:24.135
20.0, 217.79681381955743, -94.81768357660621, 208.72942637698725, -34.973674435634166, -0.04800000227987766, -0.06400000303983688, 1.0400000493973494, 0.0, 0.0, 0.0, 0.0, 0.0, 1.7622067441350567E9, 0.0, 2025-11-03 16:52:24.135
21.0, 252.7499188054353, -69.09091178141534, 239.26944941515103, -6.887025768402964, -0.04800000227987766, -0.06400000303983688, 1.0400000493973494, 0.0, 0.0, 0.0, 0.0, 0.0, 1.7622067441357868E9, 0.0, 2025-11-03 16:52:24.135
21.0, 283.9893031353131, -30.895313533954322, 282.1586221070029, 38.87065018946305, -0.04800000227987766, -0.06400000303983688, 1.0400000493973494, 0.0, 0.0, 0.0, 0.0, 0.0, 1.7622067441357868E9, 0.0, 2025-11-03 16:52:24.135
22.0, 245.0419849967584, -63.19682945124805, 238.4990300242789, -6.6626317710615695, -0.04800000227987766, -0.06400000303983688, 1.0400000493973494, 0.0, 0.0, 0.0, 0.0, 0.0, 1.7622067441493473E9, 0.0, 2025-11-03 16:52:24.149
22.0, 245.01580569706857, -66.53282021172345, 235.41735246079043, -16.921177349518985, -0.04800000227987766, -0.06400000303983688, 1.0400000493973494, 0.0, 0.0, 0.0, 0.0, 0.0, 1.7622067441493473E9, 0.0, 2025-11-03 16:52:24.149
23.0, 286.6259326040745, -25.259284300729632, 281.98284680908546, 30.04074639407918, -0.04800000227987766, -0.06400000303983688, 1.0400000493973494, 0.0, 0.0, 0.0, 0.0, 0.0, 1.7622067441650965E9, 0.0, 2025-11-03 16:52:24.165
23.0, 232.01965335104614, -72.97292793542147, 229.98701772512868, -14.359345879871398, -0.04800000227987766, -0.06400000303983688, 1.0400000493973494, 0.0, 0.0, 0.0, 0.0, 0.0, 1.7622067441650965E9, 0.0, 2025-11-03 16:52:24.165
24.0, 222.79706006031483, -85.46793368738145, 221.95371262030676, -18.016968036536127, -0.04800000227987766, -0.06400000303983688, 1.0400000493973494, 0.0, 0.0, 0.0, 0.0, 0.0, 1.7622067441657665E9, 0.0, 2025-11-03 16:52:24.165
24.0, 302.74864131305367, -18.714459378272295, 290.7416925053112, 38.01421309961006, -0.04800000227987766, -0.06400000303983688, 1.0400000493973494, 0.0, 0.0, 0.0, 0.0, 0.0, 1.7622067441657665E9, 0.0, 2025-11-03 16:52:24.165
25.0, 254.16734088864177, -51.04589449521154, 256.7422620081343, 5.9744901792146266, -0.04800000227987766, -0.06400000303983688, 1.0400000493973494, 0.0, 0.0, 0.0, 0.0, 0.0, 1.7622067441794202E9, 0.0, 2025-11-03 16:52:24.179
25.0, 224.09854524489492, -90.4868794279173, 218.84585575712845, -20.496521707158536, -0.04800000227987766, -0.06400000303983688, 1.0400000493973494, 0.0, 0.0, 0.0, 0.0, 0.0, 1.7622067441794202E9, 0.0, 2025-11-03 16:52:24.179
26.0, 243.05609812028706, -78.38082327134907, 231.25858371006325, -17.07825314765796, -0.04800000227987766, -0.06400000303983688, 1.0400000493973494, 0.0, 0.0, 0.0, 0.0, 0.0, 1.7622067441950736E9, 0.0, 2025-11-03 16:52:24.195
26.0, 253.4118810975924, -66.2560676150024, 241.0608614939265, -15.967502860818058, -0.04800000227987766, -0.06400000303983688, 1.0400000493973494, 0.0, 0.0, 0.0, 0.0, 0.0, 1.7622067441950736E9, 0.0, 2025-11-03 16:52:24.195
27.0, 217.19468992669135, -104.59752196073532, 200.31091157672927, -51.088903344701976, -0.04800000227987766, -0.06400000303983688, 1.0400000493973494, 0.0, 0.0, 0.0, 0.0, 0.0, 1.7622067441957748E9, 0.0, 2025-11-03 16:52:24.195
27.0, 237.2929122885689, -90.20638693124056, 214.4589531091042, -31.402069977950305, -0.04800000227987766, -0.06400000303983688, 1.0400000493973494, 0.0, 0.0, 0.0, 0.0, 0.0, 1.7622067441957748E9, 0.0, 2025-11-03 16:52:24.195
28.0, 285.8330738134682, -42.92657169140875, 262.61390493856743, 12.107926106546074, -0.04800000227987766, -0.06400000303983688, 1.0400000493973494, 0.0, 0.0, 0.0, 0.0, 0.0, 1.7622067442094212E9, 0.0, 2025-11-03 16:52:24.209
28.0, 237.76787958294153, -82.93976131733507, 216.81882998114452, -29.13195070484653, -0.04800000227987766, -0.06400000303983688, 1.0400000493973494, 0.0, 0.0, 0.0, 0.0, 0.0, 1.7622067442094212E9, 0.0, 2025-11-03 16:52:24.209
29.0, 244.76523240003735, -85.07150429207832, 213.9017080157064, -32.606317763682455, -0.04800000227987766, -0.06400000303983688, 1.0400000493973494, 0.0, 0.0, 0.0, 0.0, 0.0, 1.7622067442251208E9, 0.0, 2025-11-03 16:52:24.225
29.0, 279.96891068294644, -53.5441476656124, 243.11406656960025, -4.863739892374724, -0.04800000227987766, -0.06400000303983688, 1.0400000493973494, 0.0, 0.0, 0.0, 0.0, 0.0, 1.7622067442251208E9, 0.0, 2025-11-03 16:52:24.225
30.0, 241.6012770375237, -87.16958816722035, 204.49211972719058, -52.12859553238377, -0.04800000227987766, -0.06400000303983688, 1.0400000493973494, 0.0, 0.0, 0.0, 0.0, 0.0, 1.7622067442257733E9, 0.0, 2025-11-03 16:52:24.225
30.0, 219.0309808049351, -114.84110793936998, 183.72071537328884, -69.18627923028544, -0.04800000227987766, -0.06400000303983688, 1.0400000493973494, 0.0, 0.0, 0.0, 0.0, 0.0, 1.7622067442257733E9, 0.0, 2025-11-03 16:52:24.225
31.0, 253.6026159953326, -88.31025765370578, 208.21706008305773, -51.130042244214565, -0.04800000227987766, -0.04800000227987766, 1.0400000493973494, 0.0, 0.0, 0.0, 0.0, 0.0, 1.762206744239441E9, 0.0, 2025-11-03 16:52:24.239
31.0, 265.40200035553426, -72.42690254189074, 220.72702543484047, -41.103370463009924, -0.04800000227987766, -0.04800000227987766, 1.0400000493973494, 0.0, 0.0, 0.0, 0.0, 0.0, 1.762206744239441E9, 0.0, 2025-11-03 16:52:24.239
32.0, 228.99033438693732, -104.85557505767792, 184.9960212581791, -77.25698333466426, -0.04800000227987766, -0.04800000227987766, 1.0400000493973494, 0.0, 0.0, 0.0, 0.0, 0.0, 1.7622067442551143E9, 0.0, 2025-11-03 16:52:24.255
32.0, 248.6360288541764, -96.66519415471703, 197.64810280827805, -69.6051480253227, -0.04800000227987766, -0.04800000227987766, 1.0400000493973494, 0.0, 0.0, 0.0, 0.0, 0.0, 1.7622067442551143E9, 0.0, 2025-11-03 16:52:24.255
33.0, 301.6528506260365, -43.19958438817412, 248.75009580282494, -11.816213910002261, -0.04800000227987766, -0.04800000227987766, 1.0400000493973494, 0.0, 0.0, 0.0, 0.0, 0.0, 1.762206744255768E9, 0.0, 2025-11-03 16:52:24.255
33.0, 244.57449750229716, -89.0806770445779, 196.8851632173173, -62.0468102148734, -0.04800000227987766, -0.04800000227987766, 1.0400000493973494, 0.0, 0.0, 0.0, 0.0, 0.0, 1.762206744255768E9, 0.0, 2025-11-03 16:52:24.255
34.0, 247.8581296633929, -92.53260470367968, 194.89553644089028, -70.6448402130045, -0.04800000227987766, -0.04800000227987766, 1.0400000493973494, 0.0, 0.0, 0.0, 0.0, 0.0, 1.7622067442694232E9, 0.0, 2025-11-03 16:52:24.269
34.0, 290.6463250564411, -54.67733735218644, 237.82210813229904, -19.86073871469125, -0.04800000227987766, -0.04800000227987766, 1.0400000493973494, 0.0, 0.0, 0.0, 0.0, 0.0, 1.7622067442694232E9, 0.0, 2025-11-03 16:52:24.269
35.0, 261.0824159067124, -75.4038629066199, 215.2705113994889, -42.640469344798476, -0.04800000227987766, -0.04800000227987766, 1.0400000493973494, 0.0, 0.0, 0.0, 0.0, 0.0, 1.7622067442851412E9, 0.0, 2025-11-03 16:52:24.285
35.0, 227.34103850647807, -114.81492863968015, 176.8766984543763, -81.45689098490402, -0.04800000227987766, -0.04800000227987766, 1.0400000493973494, 0.0, 0.0, 0.0, 0.0, 0.0, 1.7622067442851412E9, 0.0, 2025-11-03 16:52:24.285
36.0, 261.1908730054274, -78.62017686851323, 207.5289184912108, -47.20688719069585, -0.04800000227987766, -0.04800000227987766, 1.0400000493973494, 0.0, 0.0, 0.0, 0.0, 0.0, 1.7622067442858083E9, 0.0, 2025-11-03 16:52:24.285
36.0, 286.1659249095246, -59.916937190108, 230.73125781631097, -31.854597872588784, -0.04800000227987766, -0.04800000227987766, 1.0400000493973494, 0.0, 0.0, 0.0, 0.0, 0.0, 1.7622067442858083E9, 0.0, 2025-11-03 16:52:24.285
37.0, 233.82976492960006, -101.69161969516426, 190.26928019570187, -63.606348496396095, -0.04800000227987766, -0.04800000227987766, 1.0400000493973494, 0.0, 0.0, 0.0, 0.0, 0.0, 1.7622067442993631E9, 0.0, 2025-11-03 16:52:24.299
37.0, 249.83653673995286, -90.61403602641076, 200.1912347781472, -52.66340122604743, -0.04800000227987766, -0.04800000227987766, 1.0400000493973494, 0.0, 0.0, 0.0, 0.0, 0.0, 1.7622067442993631E9, 0.0, 2025-11-03 16:52:24.299
38.0, 303.5564597034827, -42.72087719384581, 251.15485147433355, -7.111419765744358, -0.04800000227987766, -0.04800000227987766, 1.0400000493973494, 0.0, 0.0, 0.0, 0.0, 0.0, 1.7622067443150387E9, 0.0, 2025-11-03 16:52:24.315
38.0, 249.8552362397313, -80.15727575030178, 208.4900727798231, -54.338876406196505, -0.04800000227987766, -0.04800000227987766, 1.0400000493973494, 0.0, 0.0, 0.0, 0.0, 0.0, 1.7622067443150387E9, 0.0, 2025-11-03 16:52:24.315
39.0, 258.1129353418946, -75.6656559035182, 218.82715625735, -38.253566696774215, -0.04800000227987766, -0.04800000227987766, 1.0400000493973494, 0.0, 0.0, 0.0, 0.0, 0.0, 1.7622067443157656E9, 0.0, 2025-11-03 16:52:24.315
39.0, 282.0146359587088, -60.07027308829129, 238.0539819295518, -19.785940715577453, -0.04800000227987766, -0.04800000227987766, 1.0400000493973494, 0.0, 0.0, 0.0, 0.0, 0.0, 1.7622067443157656E9, 0.0, 2025-11-03 16:52:24.315
40.0, 257.77634434588253, -73.26838003192097, 223.26267760479823, -42.292658648919314, -0.04800000227987766, -0.04800000227987766, 1.0400000493973494, 0.0, 0.0, 0.0, 0.0, 0.0, 1.762206744329482E9, 0.0, 2025-11-03 16:52:24.329
40.0, 234.035459427163, -100.05728341452777, 196.02498622750863, -58.785617453511804, -0.04800000227987766, -0.04800000227987766, 1.0400000493973494, 0.0, 0.0, 0.0, 0.0, 0.0, 1.762206744329482E9, 0.0, 2025-11-03 16:52:24.329
41.0, 275.0247629415244, -67.4752750005573, 227.63836055295542, -26.622477834578604, -0.04800000227987766, -0.04800000227987766, 1.0400000493973494, 0.0, 0.0, 0.0, 0.0, 0.0, 1.76220674434503E9, 0.0, 2025-11-03 16:52:24.345
41.0, 277.14902611635625, -61.745748268440366, 235.13685996411368, -22.28045398602262, -0.04800000227987766, -0.04800000227987766, 1.0400000493973494, 0.0, 0.0, 0.0, 0.0, 0.0, 1.76220674434503E9, 0.0, 2025-11-03 16:52:24.345
42.0, 233.8933432288468, -98.73335883021355, 189.75691390177235, -57.32331657083705, -0.04800000227987766, -0.04800000227987766, 1.0400000493973494, 0.0, 0.0, 0.0, 0.0, 0.0, 1.7622067443457687E9, 0.0, 2025-11-03 16:52:24.345
42.0, 252.33105001039803, -90.73371282499284, 201.0775910676457, -55.4533665929921, -0.04800000227987766, -0.04800000227987766, 1.0400000493973494, 0.0, 0.0, 0.0, 0.0, 0.0, 1.7622067443457687E9, 0.0, 2025-11-03 16:52:24.345
43.0, 300.9572292342782, -40.35726042184979, 255.624031921383, 7.45923046162352, -0.04800000227987766, -0.04800000227987766, 1.0400000493973494, 0.0, 0.0, 0.0, 0.0, 0.0, 1.7622067443758607E9, 0.0, 2025-11-03 16:52:24.375
43.0, 246.58656367845833, -83.73636000789702, 208.53495157929137, -39.401715983171016, -0.04800000227987766, -0.04800000227987766, 1.0400000493973494, 0.0, 0.0, 0.0, 0.0, 0.0, 1.7622067443758607E9, 0.0, 2025-11-03 16:52:24.375
44.0, 239.2264405656606, -92.3044708063826, 195.8118119300343, -56.23874558368698, -0.04800000227987766, -0.04800000227987766, 1.0400000493973494, 0.0, 0.0, 0.0, 0.0, 0.0, 1.7622067443766105E9, 0.0, 2025-11-03 16:52:24.376
44.0, 293.7242627199739, -50.75792219862342, 246.132165833842, -10.073420530650765, -0.04800000227987766, -0.04800000227987766, 1.0400000493973494, 0.0, 0.0, 0.0, 0.0, 0.0, 1.7622067443766105E9, 0.0, 2025-11-03 16:52:24.376
45.0, 258.3148899395019, -74.74938041437417, 219.0814694543369, -34.71188143873587, -0.04800000227987766, -0.04800000227987766, 1.0400000493973494, 0.0, 0.0, 0.0, 0.0, 0.0, 1.7622067443772254E9, 0.0, 2025-11-03 16:52:24.377
45.0, 219.7378218965605, -115.36095403321087, 181.13644450390711, -66.82266245828941, -0.04800000227987766, -0.04800000227987766, 1.0400000493973494, 0.0, 0.0, 0.0, 0.0, 0.0, 1.7622067443772254E9, 0.0, 2025-11-03 16:52:24.377
46.0, 251.05948402546346, -86.9676335696131, 211.21645984752104, -39.17732198582962, -0.04800000227987766, -0.04800000227987766, 1.0400000493973494, 0.0, 0.0, 0.0, 0.0, 0.0, 1.7622067443895352E9, 0.0, 2025-11-03 16:52:24.389
46.0, 291.01283525209874, -42.32818769849837, 256.2523351139389, 7.956637155730277, -0.04800000227987766, -0.04800000227987766, 1.0400000493973494, 0.0, 0.0, 0.0, 0.0, 0.0, 1.7622067443895352E9, 0.0, 2025-11-03 16:52:24.389
47.0, 241.21980724204332, -91.16754121985286, 205.0381451207213, -42.221600549761206, -0.04800000227987766, -0.04800000227987766, 1.0400000493973494, 0.0, 0.0, 0.0, 0.0, 0.0, 1.762206744405014E9, 0.0, 2025-11-03 16:52:24.405
47.0, 245.4496340919286, -91.54901101533324, 205.03440522076562, -42.97332044085488, -0.04800000227987766, -0.04800000227987766, 1.0400000493973494, 0.0, 0.0, 0.0, 0.0, 0.0, 1.762206744405014E9, 0.0, 2025-11-03 16:52:24.405
48.0, 290.4256709590554, -47.713643634691834, 259.01986108114943, 0.5927741429768503, -0.04800000227987766, -0.04800000227987766, 1.0400000493973494, 0.0, 0.0, 0.0, 0.0, 0.0, 1.7622067444057844E9, 0.0, 2025-11-03 16:52:24.405
48.0, 232.1430700495839, -98.06017683818936, 204.1106499317102, -38.620076892431825, -0.04800000227987766, -0.04800000227987766, 1.0400000493973494, 0.0, 0.0, 0.0, 0.0, 0.0, 1.7622067444057844E9, 0.0, 2025-11-03 16:52:24.405
49.0, 233.97936092782766, -101.62056159600616, 206.06661760853603, -48.46349357580766, -0.04800000227987766, -0.04800000227987766, 1.0400000493973494, 0.0, 0.0, 0.0, 0.0, 0.0, 1.7622067444194243E9, 0.0, 2025-11-03 16:52:24.419
49.0, 277.6426929105073, -64.71522883325815, 239.04505541780964, -14.557560577522963, -0.04800000227987766, -0.04800000227987766, 1.0400000493973494, 0.0, 0.0, 0.0, 0.0, 0.0, 1.7622067444194243E9, 0.0, 2025-11-03 16:52:24.419
50.0, 238.60561717301607, -88.82636384759098, 210.70035365363583, -36.51077331742272, -0.04800000227987766, -0.04800000227987766, 1.0400000493973494, 0.0, 0.0, 0.0, 0.0, 0.0, 1.7622067444351337E9, 0.0, 2025-11-03 16:52:24.435
50.0, 220.68775648530573, -113.18059235904366, 187.2586607313715, -54.686687102075666, -0.04800000227987766, -0.04800000227987766, 1.0400000493973494, 0.0, 0.0, 0.0, 0.0, 0.0, 1.7622067444351337E9, 0.0, 2025-11-03 16:52:24.435
51.0, 258.84969563316554, -85.78582518361509, 216.96468607941642, -30.930842583533376, -0.04800000227987766, -0.04800000227987766, 1.0400000493973494, 0.0, 0.0, 0.0, 0.0, 0.0, 1.7622067444358215E9, 0.0, 2025-11-03 16:52:24.435
51.0, 276.6590992221609, -59.64392449334264, 240.4624775010161, -2.335567522328347, -0.04800000227987766, -0.04800000227987766, 1.0400000493973494, 0.0, 0.0, 0.0, 0.0, 0.0, 1.7622067444358215E9, 0.0, 2025-11-03 16:52:24.435
52.0, 241.95282763335854, -89.37238924112171, 204.1106499317102, -30.287579791154712, -0.04800000227987766, -0.04800000227987766, 1.0400000493973494, 0.0, 0.0, 0.0, 0.0, 0.0, 1.7622067444495275E9, 0.0, 2025-11-03 16:52:24.449
52.0, 250.20678683556616, -85.75964588392526, 211.2351593472995, -36.985740611795336, -0.04800000227987766, -0.04800000227987766, 1.0400000493973494, 0.0, 0.0, 0.0, 0.0, 0.0, 1.7622067444495275E9, 0.0, 2025-11-03 16:52:24.449
53.0, 300.7328352369368, -40.57791451923549, 266.31640589470044, 15.006348572205752, -0.04800000227987766, -0.04800000227987766, 1.0400000493973494, 0.0, 0.0, 0.0, 0.0, 0.0, 1.762206744465089E9, 0.0, 2025-11-03 16:52:24.465
53.0, 251.02582492586225, -81.69811453204602, 221.73679842287675, -23.17055017547682, -0.04800000227987766, -0.04800000227987766, 1.0400000493973494, 0.0, 0.0, 0.0, 0.0, 0.0, 1.762206744465089E9, 0.0, 2025-11-03 16:52:24.465
54.0, 250.58077683113515, -81.36152353603393, 220.491411737632, -25.324732549954206, -0.04800000227987766, -0.04800000227987766, 1.0400000493973494, 0.0, 0.0, 0.0, 0.0, 0.0, 1.7622067444657867E9, 0.0, 2025-11-03 16:52:24.465
54.0, 289.71135006751865, -52.38477867934853, 250.6163058807142, -1.9428780269809067, -0.04800000227987766, -0.04800000227987766, 1.0400000493973494, 0.0, 0.0, 0.0, 0.0, 0.0, 1.7622067444657867E9, 0.0, 2025-11-03 16:52:24.465
55.0, 266.116321247071, -65.59410532284528, 232.54884919477627, -15.327979968395084, -0.04800000227987766, -0.04800000227987766, 1.0400000493973494, 0.0, 0.0, 0.0, 0.0, 0.0, 1.7622067444794743E9, 0.0, 2025-11-03 16:52:24.479
55.0, 215.03676765225828, -114.29508254583925, 180.8858712068759, -62.91820690454915, -0.04800000227987766, -0.04800000227987766, 1.0400000493973494, 0.0, 0.0, 0.0, 0.0, 0.0, 1.7622067444794743E9, 0.0, 2025-11-03 16:52:24.479
56.0, 261.7929968982935, -74.11359742190689, 231.78216970385984, -10.017322031315416, -0.04800000227987766, -0.04800000227987766, 1.0400000493973494, 0.0, 0.0, 0.0, 0.0, 0.0, 1.7622067444950728E9, 0.0, 2025-11-03 16:52:24.495
56.0, 270.0207768008113, -61.54379367083311, 241.11322009330615, -13.813320486340672, -0.04800000227987766, -0.04800000227987766, 1.0400000493973494, 0.0, 0.0, 0.0, 0.0, 0.0, 1.7622067444950728E9, 0.0, 2025-11-03 16:52:24.495
57.0, 229.90660987608135, -96.44454005733132, 205.87588271079585, -40.49002687027678, -0.04800000227987766, -0.04800000227987766, 1.0400000493973494, 0.0, 0.0, 0.0, 0.0, 0.0, 1.762206744495777E9, 0.0, 2025-11-03 16:52:24.495
57.0, 256.9647860554978, -76.30891869589686, 226.69216586416587, -20.859292002860457, -0.04800000227987766, -0.04800000227987766, 1.0400000493973494, 0.0, 0.0, 0.0, 0.0, 0.0, 1.762206744495777E9, 0.0, 2025-11-03 16:52:24.495
58.0, 307.6703496547416, -33.88723349850625, 273.485794109758, 26.244747939053923, -0.04800000227987766, -0.04800000227987766, 1.0400000493973494, 0.0, 0.0, 0.0, 0.0, 0.0, 1.7622067445093448E9, 0.0, 2025-11-03 16:52:24.509
58.0, 248.81180415209383, -84.19636770244688, 217.86974186869338, -21.237021898385137, -0.04800000227987766, -0.04800000227987766, 1.0400000493973494, 0.0, 0.0, 0.0, 0.0, 0.0, 1.7622067445093448E9, 0.0, 2025-11-03 16:52:24.509
59.0, 231.95607505179942, -101.87113489303738, 193.76234675431624, -45.30327811324969, -0.04800000227987766, -0.04800000227987766, 1.0400000493973494, 0.0, 0.0, 0.0, 0.0, 0.0, 1.762206744525112E9, 0.0, 2025-11-03 16:52:24.525
59.0, 296.8395993830636, -44.57212767191231, 257.7744743959047, 7.403131962288171, -0.04800000227987766, -0.04800000227987766, 1.0400000493973494, 0.0, 0.0, 0.0, 0.0, 0.0, 1.762206744525112E9, 0.0, 2025-11-03 16:52:24.525
60.0, 252.379668709822, -78.05545197520405, 222.05842981906608, -13.929257384967059, -0.04800000227987766, -0.04800000227987766, 1.0400000493973494, 0.0, 0.0, 0.0, 0.0, 0.0, 1.7622067445258083E9, 0.0, 2025-11-03 16:52:24.525
60.0, 227.04184651002288, -100.12460161373019, 199.71626748377457, -41.62695645680651, -0.04800000227987766, -0.04800000227987766, 1.0400000493973494, 0.0, 0.0, 0.0, 0.0, 0.0, 1.7622067445258083E9, 0.0, 2025-11-03 16:52:24.525
61.0, 281.85382026061416, -50.107179606333375, 256.1401381152682, 9.45259713800624, -0.04800000227987766, -0.04800000227987766, 1.0400000493973494, 0.0, 0.0, 0.0, 0.0, 0.0, 1.762206744539461E9, 0.0, 2025-11-03 16:52:24.539
61.0, 308.38467054627836, -19.028610974550247, 286.2725120582618, 43.867156530264765, -0.04800000227987766, -0.04800000227987766, 1.0400000493973494, 0.0, 0.0, 0.0, 0.0, 0.0, 1.762206744539461E9, 0.0, 2025-11-03 16:52:24.539
62.0, 242.9700804213062, -78.72863396722823, 226.47151176678017, -13.271034992765635, -0.04800000227987766, -0.04800000227987766, 1.0400000493973494, 0.0, 0.0, 0.0, 0.0, 0.0, 1.762206744555091E9, 0.0, 2025-11-03 16:52:24.555
62.0, 250.76777182891965, -72.61763743963093, 234.69555176934227, 1.486610232386738, -0.04800000227987766, -0.04800000227987766, 1.0400000493973494, 0.0, 0.0, 0.0, 0.0, 0.0, 1.762206744555091E9, 0.0, 2025-11-03 16:52:24.555
63.0, 305.93877597525716, -19.892527864314616, 289.35418962175027, 50.82337044784799, -0.04800000227987766, -0.04800000227987766, 1.0400000493973494, 0.0, 0.0, 0.0, 0.0, 0.0, 1.7622067445557845E9, 0.0, 2025-11-03 16:52:24.555
63.0, 256.8638087566942, -59.50554819498211, 249.57287379307672, 18.78364752745256, -0.04800000227987766, -0.04800000227987766, 1.0400000493973494, 0.0, 0.0, 0.0, 0.0, 0.0, 1.7622067445557845E9, 0.0, 2025-11-03 16:52:24.555
64.0, 257.9446398438886, -60.608818681910634, 253.6605844446458, 23.58193917060271, -0.04800000227987766, -0.04800000227987766, 1.0400000493973494, 0.0, 0.0, 0.0, 0.0, 0.0, 1.7622067445693734E9, 0.0, 2025-11-03 16:52:24.569
