%OpenBCI Raw EXG Data
%Number of channels = 4
%Sample Rate = 200 Hz
%Board = OpenBCI_GUI$BoardGanglionBLE
Sample Index, EXG Channel 0, EXG Channel 1, EXG Channel 2, EXG Channel 3, Accel Channel 0, Accel Channel 1, Accel Channel 2, Other, Other, Other, Other, Other, Timestamp, Marker Channel, Timestamp (Formatted)
34.0, -30.917752933688462, -32.54460941441357, -36.30694876983762, -31.220684830099344, 0.0, 0.0, 0.0, 0.0, 0.0, 0.0, 0.0, 0.0, 1.7622067334756143E9, 0.0, 2025-11-03 16:52:13.475
34.0, -246.20883378293365, 66.98534810636193, -248.98757945001125, -9.514305487275124, 0.0, 0.0, 0.0, 0.0, 0.0, 0.0, 0.0, 0.0, 1.7622067334756143E9, 0.0, 2025-11-03 16:52:13.475
0.0, 291.39991489751264, -30.77750668535009, 279.0975139932707, 31.106617881450802, 0.0, 0.0, 0.0, 0.0, 0.0, 0.0, 0.0, 0.0, 1.7622067335008361E9, 0.0, 2025-11-03 16:52:13.500
1.0, 242.40722547797486, -69.39197372784838, 237.4799072863534, -3.9661639030091465, 0.0, 0.0800000037997961, 0.0, 0.0, 0.0, 0.0, 0.0, 0.0, 1.762206733514194E9, 0.0, 2025-11-03 16:52:13.514
1.0, 234.43749867239967, -87.12283941777423, 220.68027668539435, -19.57650631805882, 0.0, 0.0800000037997961, 0.0, 0.0, 0.0, 0.0, 0.0, 0.0, 1.762206733514194E9, 0.0, 2025-11-03 16:52:13.514
2.0, 269.4467021576129, -53.4151211171411, 260.0876025184989, 21.323039597366005, -0.06400000303983688, 0.0800000037997961, 0.0, 0.0, 0.0, 0.0, 0.0, 0.0, 1.7622067335309064E9, 0.0, 2025-11-03 16:52:13.530
2.0, 273.6765290074982, -42.666648644488305, 271.9393454780802, 35.388803330715746, -0.06400000303983688, 0.0800000037997961, 0.0, 0.0, 0.0, 0.0, 0.0, 0.0, 1.7622067335309064E9, 0.0, 2025-11-03 16:52:13.530
3.0, 227.1596533586271, -91.56958046508953, 221.13654447998852, -13.757221987005323, -0.06400000303983688, 0.0800000037997961, 0.0, 0.0, 0.0, 0.0, 0.0, 0.0, 1.762206733531662E9, 0.0, 2025-11-03 16:52:13.531
3.0, 244.99523624731228, -75.45809145597741, 239.933281657286, -5.054474790114909, -0.06400000303983688, 0.0800000037997961, 0.0, 0.0, 0.0, 0.0, 0.0, 0.0, 1.762206733531662E9, 0.0, 2025-11-03 16:52:13.531
4.0, 281.0329122203402, -35.055952234659344, 278.8693800959736, 34.7006617388688, -0.06400000303983688, 0.0800000037997961, 0.0, 0.0, 0.0, 0.0, 0.0, 0.0, 1.762206733543978E9, 0.0, 2025-11-03 16:52:13.543
4.0, 228.06470914790407, -84.34409375069663, 225.05221973359585, -16.74166215164587, -0.06400000303983688, 0.0800000037997961, 0.0, 0.0, 0.0, 0.0, 0.0, 0.0, 1.762206733543978E9, 0.0, 2025-11-03 16:52:13.543
5.0, 227.00257756048813, -90.0960598825477, 220.1080719921738, -17.05581374792382, -0.06400000303983688, 0.0800000037997961, 0.0, 0.0, 0.0, 0.0, 0.0, 0.0, 1.7622067335598087E9, 0.0, 2025-11-03 16:52:13.559
5.0, 288.4977525318973, -37.12037701020017, 275.499730235897, 26.525240435730666, -0.06400000303983688, 0.0800000037997961, 0.0, 0.0, 0.0, 0.0, 0.0, 0.0, 1.7622067335598087E9, 0.0, 2025-11-03 16:52:13.559
6.0, 251.065093875397, -65.54735657339916, 240.5167060503736, -1.7409234293736517, -0.06400000303983688, 0.0800000037997961, 0.0, 0.0, 0.0, 0.0, 0.0, 0.0, 1.7622067335604153E9, 0.0, 2025-11-03 16:52:13.560
6.0, 227.29428975703195, -88.39066550275311, 217.59859912190586, -27.707048821728677, -0.06400000303983688, 0.0800000037997961, 0.0, 0.0, 0.0, 0.0, 0.0, 0.0, 1.7622067335604153E9, 0.0, 2025-11-03 16:52:13.560
7.0, 271.94869522796944, -55.7488186894916, 256.4898187611252, 9.86772603308782, -0.06400000303983688, 0.0800000037997961, 0.0, 0.0, 0.0, 0.0, 0.0, 0.0, 1.7622067335740364E9, 0.0, 2025-11-03 16:52:13.574
7.0, 255.5118349227123, -58.60984215559438, 252.9032547036186, 6.296121575403959, -0.06400000303983688, 0.0800000037997961, 0.0, 0.0, 0.0, 0.0, 0.0, 0.0, 1.7622067335740364E9, 0.0, 2025-11-03 16:52:13.574
8.0, 218.17267376510426, -92.5793534531258, 216.85809893067926, -34.640823339577764, -0.06400000303983688, 0.0800000037997961, 0.0, 0.0, 0.0, 0.0, 0.0, 0.0, 1.7622067335899003E9, 0.0, 2025-11-03 16:52:13.589
8.0, 241.15061909286305, -76.17241234751418, 234.56652522087097, -8.469003449659795, -0.06400000303983688, 0.0800000037997961, 0.0, 0.0, 0.0, 0.0, 0.0, 0.0, 1.7622067335899003E9, 0.0, 2025-11-03 16:52:13.589
9.0, 297.4585528257303, -23.264047674369067, 290.6500649563968, 49.495705963578075, -0.06400000303983688, 0.0800000037997961, 0.0, 0.0, 0.0, 0.0, 0.0, 0.0, 1.7622067335904205E9, 0.0, 2025-11-03 16:52:13.590
9.0, 260.4073639647104, -55.20653319591656, 254.81060368102044, 21.386617896612734, -0.06400000303983688, 0.0800000037997961, 0.0, 0.0, 0.0, 0.0, 0.0, 0.0, 1.7622067335904205E9, 0.0, 2025-11-03 16:52:13.590
10.0, 284.1220695837401, -41.35768365999684, 274.37028044927865, 30.986941082868725, -0.06400000303983688, 0.0800000037997961, 1.0400000493973494, 0.0, 0.0, 0.0, 0.0, 0.0, 1.7622067336039877E9, 0.0, 2025-11-03 16:52:13.603
10.0, 337.01173475710675, 7.04036166658625, 330.749272281304, 89.53133498923853, -0.06400000303983688, 0.0800000037997961, 1.0400000493973494, 0.0, 0.0, 0.0, 0.0, 0.0, 1.7622067336039877E9, 0.0, 2025-11-03 16:52:13.603
11.0, 264.3604382178746, -46.02881870465353, 267.2420311337337, 27.710788721684366, -0.06400000303983688, -0.03200000151991844, 1.0400000493973494, 0.0, 0.0, 0.0, 0.0, 0.0, 1.7622067336196966E9, 0.0, 2025-11-03 16:52:13.619
11.0, 236.56550174718723, -73.55822227848694, 233.4482951341197, -6.23254327615723, -0.06400000303983688, -0.03200000151991844, 1.0400000493973494, 0.0, 0.0, 0.0, 0.0, 0.0, 1.7622067336196966E9, 0.0, 2025-11-03 16:52:13.619
12.0, 285.8536432632245, -42.715267343912274, 275.66428583394736, 38.00673329969868, -0.03200000151991844, -0.03200000151991844, 1.0400000493973494, 0.0, 0.0, 0.0, 0.0, 0.0, 1.7622067336207333E9, 0.0, 2025-11-03 16:52:13.620
12.0, 266.39120389381424, -50.42320115258917, 261.1646937057376, 23.88861096696928, -0.03200000151991844, -0.03200000151991844, 1.0400000493973494, 0.0, 0.0, 0.0, 0.0, 0.0, 1.7622067336207333E9, 0.0, 2025-11-03 16:52:13.620
13.0, 214.65716780675575, -97.25796829769388, 214.34862606041133, -22.878837978933007, -0.03200000151991844, -0.03200000151991844, 1.0400000493973494, 0.0, 0.0, 0.0, 0.0, 0.0, 1.7622067336504588E9, 0.0, 2025-11-03 16:52:13.650
13.0, 238.23349712742493, -75.9442784502171, 234.9966137157753, -2.2345902235247195, -0.03200000151991844, -0.03200000151991844, 1.0400000493973494, 0.0, 0.0, 0.0, 0.0, 0.0, 1.7622067336504588E9, 0.0, 2025-11-03 16:52:13.650
14.0, 277.4164289631881, -45.40799531200901, 270.0506960004568, 31.847118072677404, -0.03200000151991844, -0.03200000151991844, 1.0400000493973494, 0.0, 0.0, 0.0, 0.0, 0.0, 1.762206733651062E9, 0.0, 2025-11-03 16:52:13.651
14.0, 232.44787189597264, -77.11486713634804, 230.86776416469365, -2.945171215105802, -0.03200000151991844, -0.03200000151991844, 1.0400000493973494, 0.0, 0.0, 0.0, 0.0, 0.0, 1.762206733651062E9, 0.0, 2025-11-03 16:52:13.651
15.0, 231.82704850332811, -84.92377824382856, 227.30363950692117, -5.82489418098703, -0.03200000151991844, -0.03200000151991844, 1.0400000493973494, 0.0, 0.0, 0.0, 0.0, 0.0, 1.7622067336518028E9, 0.0, 2025-11-03 16:52:13.651
15.0, 293.77475136937574, -29.868710996117443, 282.97579024732113, 46.16719500301406, -0.03200000151991844, -0.03200000151991844, 1.0400000493973494, 0.0, 0.0, 0.0, 0.0, 0.0, 1.7622067336518028E9, 0.0, 2025-11-03 16:52:13.651
16.0, 235.99703695392236, -73.55074247857556, 235.9989069039002, 5.312527887057513, -0.03200000151991844, -0.03200000151991844, 1.0400000493973494, 0.0, 0.0, 0.0, 0.0, 0.0, 1.7622067336641407E9, 0.0, 2025-11-03 16:52:13.664
16.0, 201.53011896228418, -117.54692555731162, 188.71161186415702, -49.155375067610294, -0.03200000151991844, -0.03200000151991844, 1.0400000493973494, 0.0, 0.0, 0.0, 0.0, 0.0, 1.7622067336641407E9, 0.0, 2025-11-03 16:52:13.664
17.0, 269.72719465428963, -60.59572903206572, 251.10436282493174, 17.328826444689184, -0.03200000151991844, -0.03200000151991844, 1.0400000493973494, 0.0, 0.0, 0.0, 0.0, 0.0, 1.7622067336798196E9, 0.0, 2025-11-03 16:52:13.679
17.0, 259.4723889757879, -65.11726807849482, 244.64555560145527, 9.366579439025372, -0.03200000151991844, -0.03200000151991844, 1.0400000493973494, 0.0, 0.0, 0.0, 0.0, 0.0, 1.7622067336798196E9, 0.0, 2025-11-03 16:52:13.679
18.0, 218.84585575712845, -100.37704486073926, 205.97499005962163, -30.624170787166804, -0.03200000151991844, -0.03200000151991844, 1.0400000493973494, 0.0, 0.0, 0.0, 0.0, 0.0, 1.76220673368041E9, 0.0, 2025-11-03 16:52:13.680
18.0, 257.41170410020277, -74.8709271629341, 238.45976107474416, 0.42821854492649436, -0.03200000151991844, -0.03200000151991844, 1.0400000493973494, 0.0, 0.0, 0.0, 0.0, 0.0, 1.76220673368041E9, 0.0, 2025-11-03 16:52:13.680
19.0, 305.96682522492483, -29.375044201966375, 285.67599801532924, 46.38784910039976, -0.03200000151991844, -0.03200000151991844, 1.0400000493973494, 0.0, 0.0, 0.0, 0.0, 0.0, 1.7622067336940317E9, 0.0, 2025-11-03 16:52:13.694
19.0, 198.13428980251774, -115.60217758035287, 189.17535945866257, -45.086363915819675, -0.03200000151991844, -0.03200000151991844, 1.0400000493973494, 0.0, 0.0, 0.0, 0.0, 0.0, 1.7622067336940317E9, 0.0, 2025-11-03 16:52:13.694
20.0, 215.83897619275376, -104.39743731310591, 204.18731788080186, -26.71223543351516, -0.03200000151991844, -0.03200000151991844, 0.5280000250786543, 0.0, 0.0, 0.0, 0.0, 0.0, 1.7622067337096643E9, 0.0, 2025-11-03 16:52:13.709
20.0, 331.55896062171087, -1.931658327113837, 313.5606920849532, 67.22283175354823, -0.03200000151991844, -0.03200000151991844, 0.5280000250786543, 0.0, 0.0, 0.0, 0.0, 0.0, 1.7622067337096643E9, 0.0, 2025-11-03 16:52:13.709
21.0, 221.30297002801672, -94.9130510254763, 216.22605583816767, -24.516914159525186, -0.03200000151991844, -0.04800000227987766, 0.5280000250786543, 0.0, 0.0, 0.0, 0.0, 0.0, 1.762206733710372E9, 0.0, 2025-11-03 16:52:13.710
21.0, 202.64460914907977, -117.29261236032471, 188.00851067248732, -53.074790221173316, -0.03200000151991844, -0.04800000227987766, 0.5280000250786543, 0.0, 0.0, 0.0, 0.0, 0.0, 1.762206733710372E9, 0.0, 2025-11-03 16:52:13.710
22.0, 307.2683104095049, -29.105771405156702, 287.0635008988902, 48.92724117031321, -0.03200000151991844, -0.04800000227987766, 0.5280000250786543, 0.0, 0.0, 0.0, 0.0, 0.0, 1.7622067337241044E9, 0.0, 2025-11-03 16:52:13.724
22.0, 257.83431279519573, -63.87562129320577, 249.91507463902235, 8.210950352717191, -0.03200000151991844, -0.04800000227987766, 0.5280000250786543, 0.0, 0.0, 0.0, 0.0, 0.0, 1.7622067337241044E9, 0.0, 2025-11-03 16:52:13.724
23.0, 175.21618287405, -138.35946881072596, 166.7097804248333, -69.05912263179198, -0.03200000151991844, -0.04800000227987766, 0.5280000250786543, 0.0, 0.0, 0.0, 0.0, 0.0, 1.762206733739714E9, 0.0, 2025-11-03 16:52:13.739
23.0, 250.78834127867594, -75.25239695841447, 229.98888767510653, -5.174151588696986, -0.03200000151991844, -0.04800000227987766, 0.5280000250786543, 0.0, 0.0, 0.0, 0.0, 0.0, 1.762206733739714E9, 0.0, 2025-11-03 16:52:13.739
24.0, 298.1279949177988, -26.932889530900866, 282.25772945582867, 51.63118883827701, -0.03200000151991844, -0.04800000227987766, 0.5280000250786543, 0.0, 0.0, 0.0, 0.0, 0.0, 1.7622067337404E9, 0.0, 2025-11-03 16:52:13.740
24.0, 179.96959571773186, -127.73067313665524, 174.69072693027556, -56.1190687851049, -0.03200000151991844, -0.04800000227987766, 0.5280000250786543, 0.0, 0.0, 0.0, 0.0, 0.0, 1.7622067337404E9, 0.0, 2025-11-03 16:52:13.740
25.0, 203.94235443370417, -111.38357043033466, 194.32146179769188, -36.01710652327165, -0.03200000151991844, -0.04800000227987766, 0.5280000250786543, 0.0, 0.0, 0.0, 0.0, 0.0, 1.762206733754022E9, 0.0, 2025-11-03 16:52:13.754
25.0, 324.8458402012475, -3.2107041119597852, 310.57251202035695, 82.578860971611, -0.03200000151991844, -0.04800000227987766, 0.5280000250786543, 0.0, 0.0, 0.0, 0.0, 0.0, 1.762206733754022E9, 0.0, 2025-11-03 16:52:13.754
26.0, 205.14660221943632, -104.19922261545435, 200.05098852980882, -44.01301262853667, -0.03200000151991844, -0.04800000227987766, 0.5280000250786543, 0.0, 0.0, 0.0, 0.0, 0.0, 1.7622067337696736E9, 0.0, 2025-11-03 16:52:13.769
26.0, 177.53118094662204, -135.70413984218612, 175.6780605185777, -68.37098103994504, -0.03200000151991844, -0.04800000227987766, 0.5280000250786543, 0.0, 0.0, 0.0, 0.0, 0.0, 1.7622067337696736E9, 0.0, 2025-11-03 16:52:13.769
27.0, 315.1258402164094, -13.009241995867342, 302.7673408128321, 60.16938043711707, -0.03200000151991844, -0.04800000227987766, 0.5280000250786543, 0.0, 0.0, 0.0, 0.0, 0.0, 1.7622067337703834E9, 0.0, 2025-11-03 16:52:13.770
27.0, 256.2111962144263, -57.532750968355685, 258.3485490391031, 18.832266226876527, -0.03200000151991844, -0.04800000227987766, 0.5280000250786543, 0.0, 0.0, 0.0, 0.0, 0.0, 1.7622067337703834E9, 0.0, 2025-11-03 16:52:13.770
28.0, 192.24020747235045, -116.40999597078189, 190.51424364279956, -45.7071873084642, -0.03200000151991844, -0.04800000227987766, 0.5280000250786543, 0.0, 0.0, 0.0, 0.0, 0.0, 1.7622067337839997E9, 0.0, 2025-11-03 16:52:13.783
28.0, 250.09271988691762, -71.02631000848487, 238.72903387155384, -5.204070788342506, -0.03200000151991844, -0.04800000227987766, 0.5280000250786543, 0.0, 0.0, 0.0, 0.0, 0.0, 1.7622067337839997E9, 0.0, 2025-11-03 16:52:13.783
29.0, 307.7993762032129, -10.888718720991164, 306.6568367667496, 62.26746431225911, -0.03200000151991844, -0.04800000227987766, 0.5280000250786543, 0.0, 0.0, 0.0, 0.0, 0.0, 1.762206733799745E9, 0.0, 2025-11-03 16:52:13.799
29.0, 175.88562496611848, -133.34800287010148, 174.87772192806005, -58.85667555266991, -0.03200000151991844, -0.04800000227987766, 0.5280000250786543, 0.0, 0.0, 0.0, 0.0, 0.0, 1.762206733799745E9, 0.0, 2025-11-03 16:52:13.799
30.0, 210.18424745975062, -107.71846847375855, 198.1324198525399, -41.36142355995253, -0.03200000151991844, -0.04800000227987766, 0.7840000372380018, 0.0, 0.0, 0.0, 0.0, 0.0, 1.7622067338003924E9, 0.0, 2025-11-03 16:52:13.800
30.0, 334.20306989038363, 8.566240848507732, 325.05714454874396, 74.19400527095422, -0.03200000151991844, -0.04800000227987766, 0.7840000372380018, 0.0, 0.0, 0.0, 0.0, 0.0, 1.7622067338003924E9, 0.0, 2025-11-03 16:52:13.800
31.0, 203.9311347338371, -101.89544424274936, 204.08260068204254, -36.3312581195496, -0.03200000151991844, -0.04800000227987766, 0.7840000372380018, 0.0, 0.0, 0.0, 0.0, 0.0, 1.7622067338139799E9, 0.0, 2025-11-03 16:52:13.813
31.0, 193.75486695440486, -121.73187360772863, 191.17620593495667, -46.93761439388618, -0.03200000151991844, -0.04800000227987766, 0.7840000372380018, 0.0, 0.0, 0.0, 0.0, 0.0, 1.7622067338139799E9, 0.0, 2025-11-03 16:52:13.813
32.0, 309.5459094825201, -20.601238905917853, 292.31058053672314, 45.781985307578, -0.04800000227987766, -0.04800000227987766, 0.7840000372380018, 0.0, 0.0, 0.0, 0.0, 0.0, 1.7622067338297656E9, 0.0, 2025-11-03 16:52:13.829
32.0, 257.4678025995381, -54.791404300834984, 257.65292764734477, 17.220369345974177, -0.04800000227987766, -0.04800000227987766, 0.7840000372380018, 0.0, 0.0, 0.0, 0.0, 0.0, 1.7622067338297656E9, 0.0, 2025-11-03 16:52:13.829
33.0, 185.87115784781054, -129.12939572008327, 176.42230060976, -60.4910118333064, -0.04800000227987766, -0.04800000227987766, 0.7840000372380018, 0.0, 0.0, 0.0, 0.0, 0.0, 1.7622067338304524E9, 0.0, 2025-11-03 16:52:13.830
33.0, 278.31026505259797, -46.61224309774116, 255.43516697362065, 11.46466331416741, -0.04800000227987766, -0.04800000227987766, 0.7840000372380018, 0.0, 0.0, 0.0, 0.0, 0.0, 1.7622067338304524E9, 0.0, 2025-11-03 16:52:13.830
34.0, 308.7941895914264, -21.237021898385137, 285.425424718298, 36.4808541177772, -0.04800000227987766, -0.04800000227987766, 0.7840000372380018, 0.0, 0.0, 0.0, 0.0, 0.0, 1.762206733843996E9, 0.0, 2025-11-03 16:52:13.843
34.0, 179.22535562654957, -138.23979201214388, 165.93936103396118, -76.18737194733694, -0.04800000227987766, -0.04800000227987766, 0.7840000372380018, 0.0, 0.0, 0.0, 0.0, 0.0, 1.762206733843996E9, 0.0, 2025-11-03 16:52:13.843
35.0, 206.24613280640915, -111.90341652417555, 191.93166572600603, -47.3003846895881, -0.04800000227987766, -0.04800000227987766, 0.7840000372380018, 0.0, 0.0, 0.0, 0.0, 0.0, 1.7622067338596513E9, 0.0, 2025-11-03 16:52:13.859
35.0, 333.48500909889117, 5.6565986829809844, 317.4053092394024, 73.41610608017072, -0.04800000227987766, -0.04800000227987766, 0.7840000372380018, 0.0, 0.0, 0.0, 0.0, 0.0, 1.7622067338596513E9, 0.0, 2025-11-03 16:52:13.859
36.0, 196.48873382201418, -111.09933803370222, 191.19490543473512, -42.79006534302607, -0.04800000227987766, -0.04800000227987766, 0.7840000372380018, 0.0, 0.0, 0.0, 0.0, 0.0, 1.7622067338603709E9, 0.0, 2025-11-03 16:52:13.860
36.0, 191.14067688537762, -124.43582127569243, 178.36330868676305, -54.365055705886334, -0.04800000227987766, -0.04800000227987766, 0.7840000372380018, 0.0, 0.0, 0.0, 0.0, 0.0, 1.7622067338603709E9, 0.0, 2025-11-03 16:52:13.860
37.0, 304.99445123644546, -23.854951867368072, 286.9438241003081, 42.9658406409435, -0.04800000227987766, -0.04800000227987766, 0.7840000372380018, 0.0, 0.0, 0.0, 0.0, 0.0, 1.7622067338740785E9, 0.0, 2025-11-03 16:52:13.874
37.0, 247.7665021144785, -63.33707569958642, 245.94704078603536, 1.3033551345579326, -0.04800000227987766, -0.04800000227987766, 0.7840000372380018, 0.0, 0.0, 0.0, 0.0, 0.0, 1.7622067338740785E9, 0.0, 2025-11-03 16:52:13.874
38.0, 194.5888646445237, -114.52882629306987, 191.71475152857602, -48.687887573149055, -0.04800000227987766, -0.04800000227987766, 0.7840000372380018, 0.0, 0.0, 0.0, 0.0, 0.0, 1.7622067338897078E9, 0.0, 2025-11-03 16:52:13.889
38.0, 268.6725428667851, -53.01869172183797, 259.06286993063986, 21.715729092713445, -0.04800000227987766, -0.04800000227987766, 0.7840000372380018, 0.0, 0.0, 0.0, 0.0, 0.0, 1.7622067338897078E9, 0.0, 2025-11-03 16:52:13.889
39.0, 323.6191530157812, 2.8404540163464844, 314.79111917037517, 61.594282320234925, -0.04800000227987766, -0.04800000227987766, 0.7840000372380018, 0.0, 0.0, 0.0, 0.0, 0.0, 1.762206733890371E9, 0.0, 2025-11-03 16:52:13.890
39.0, 185.84123864816502, -120.7445400194265, 189.08186195977032, -48.11942277988419, -0.04800000227987766, -0.04800000227987766, 0.7840000372380018, 0.0, 0.0, 0.0, 0.0, 0.0, 1.762206733890371E9, 0.0, 2025-11-03 16:52:13.890
40.0, 218.54292386071756, -96.29681400908157, 211.91021128930151, -28.518607112113386, -0.04800000227987766, -0.04800000227987766, 0.9120000433176756, 0.0, 0.0, 0.0, 0.0, 0.0, 1.7622067339040797E9, 0.0, 2025-11-03 16:52:13.904
40.0, 341.7763673006557, 15.223262769635767, 333.58785634767264, 84.31417455105111, -0.04800000227987766, -0.04800000227987766, 0.9120000433176756, 0.0, 0.0, 0.0, 0.0, 0.0, 1.7622067339040797E9, 0.0, 2025-11-03 16:52:13.904
41.0, 209.21187347127125, -93.54798754164949, 211.87281228974462, -26.061492841225117, -0.04800000227987766, -0.04800000227987766, 0.9120000433176756, 0.0, 0.0, 0.0, 0.0, 0.0, 1.762206733919686E9, 0.0, 2025-11-03 16:52:13.919
41.0, 193.24624056043103, -116.43243537051603, 183.05688313115388, -55.81987678864971, -0.04800000227987766, -0.04800000227987766, 0.9120000433176756, 0.0, 0.0, 0.0, 0.0, 0.0, 1.762206733919686E9, 0.0, 2025-11-03 16:52:13.919
42.0, 315.78032270865515, -7.84070025710389, 307.9246628517285, 67.10315495496616, -0.04800000227987766, -0.04800000227987766, 0.9120000433176756, 0.0, 0.0, 0.0, 0.0, 0.0, 1.7622067339209747E9, 0.0, 2025-11-03 16:52:13.920
42.0, 255.12662522727624, -53.04861092148349, 256.4598995614797, 14.789434374775738, -0.04800000227987766, -0.04800000227987766, 0.9120000433176756, 0.0, 0.0, 0.0, 0.0, 0.0, 1.7622067339209747E9, 0.0, 2025-11-03 16:52:13.920
43.0, 163.79078850941733, -140.09104249021038, 165.3334972411394, -76.59876094246283, -0.04800000227987766, -0.04800000227987766, 0.9120000433176756, 0.0, 0.0, 0.0, 0.0, 0.0, 1.7622067339342854E9, 0.0, 2025-11-03 16:52:13.934
43.0, 265.23183490755036, -58.22089256020263, 254.52263138443232, 13.330873392056674, -0.04800000227987766, -0.04800000227987766, 0.9120000433176756, 0.0, 0.0, 0.0, 0.0, 0.0, 1.7622067339342854E9, 0.0, 2025-11-03 16:52:13.934
44.0, 314.6022542226128, -4.418691797647625, 310.0302265267819, 67.05827615549788, -0.04800000227987766, -0.04800000227987766, 0.9120000433176756, 0.0, 0.0, 0.0, 0.0, 0.0, 1.762206733949711E9, 0.0, 2025-11-03 16:52:13.949
44.0, 178.04728714050725, -129.48094631591812, 176.94214670360088, -57.67860706662759, -0.04800000227987766, -0.04800000227987766, 0.9120000433176756, 0.0, 0.0, 0.0, 0.0, 0.0, 1.762206733949711E9, 0.0, 2025-11-03 16:52:13.949
45.0, 219.51529784919694, -102.01512104133144, 204.55382807645947, -37.65892260381952, -0.04800000227987766, -0.04800000227987766, 0.9120000433176756, 0.0, 0.0, 0.0, 0.0, 0.0, 1.7622067339504228E9, 0.0, 2025-11-03 16:52:13.950
45.0, 341.16302370792255, 12.956883396487683, 327.88450891524553, 86.34868012694642, -0.04800000227987766, -0.04800000227987766, 0.9120000433176756, 0.0, 0.0, 0.0, 0.0, 0.0, 1.7622067339504228E9, 0.0, 2025-11-03 16:52:13.950
46.0, 217.7837241697125, -91.56584056513384, 207.74396273866296, -27.920223119203, -0.04800000227987766, -0.04800000227987766, 0.9120000433176756, 0.0, 0.0, 0.0, 0.0, 0.0, 1.7622067339640272E9, 0.0, 2025-11-03 16:52:13.964
46.0, 199.52927248599008, -118.11539035057649, 180.55115016084164, -54.525871403981, -0.04800000227987766, -0.04800000227987766, 0.9120000433176756, 0.0, 0.0, 0.0, 0.0, 0.0, 1.7622067339640272E9, 0.0, 2025-11-03 16:52:13.964
47.0, 317.3174215904437, -16.68930355226621, 293.6195455212146, 52.05753743322566, -0.04800000227987766, -0.04800000227987766, 0.9120000433176756, 0.0, 0.0, 0.0, 0.0, 0.0, 1.7622067339797463E9, 0.0, 2025-11-03 16:52:13.979
47.0, 253.41375104757026, -62.12908801389858, 246.7137202769518, 8.67843784717843, -0.04800000227987766, -0.04800000227987766, 0.9120000433176756, 0.0, 0.0, 0.0, 0.0, 0.0, 1.7622067339797463E9, 0.0, 2025-11-03 16:52:13.979
48.0, 182.30703319003806, -125.3745361645706, 180.94757955614477, -56.769811377394944, -0.04800000227987766, -0.04800000227987766, 0.9120000433176756, 0.0, 0.0, 0.0, 0.0, 0.0, 1.762206733980445E9, 0.0, 2025-11-03 16:52:13.980
48.0, 263.1038318327628, -56.54541738005355, 255.16589417681098, 15.597252765204757, -0.04800000227987766, -0.04800000227987766, 0.9120000433176756, 0.0, 0.0, 0.0, 0.0, 0.0, 1.762206733980445E9, 0.0, 2025-11-03 16:52:13.980
49.0, 310.6155208698474, -10.66806462360546, 296.9181372821331, 47.99226618139073, -0.04800000227987766, -0.04800000227987766, 0.9120000433176756, 0.0, 0.0, 0.0, 0.0, 0.0, 1.7622067339948273E9, 0.0, 2025-11-03 16:52:13.994
49.0, 190.79286618949845, -122.52847229829058, 183.39347412716597, -59.09976904978976, -0.04800000227987766, -0.04800000227987766, 0.9120000433176756, 0.0, 0.0, 0.0, 0.0, 0.0, 1.7622067339948273E9, 0.0, 2025-11-03 16:52:13.994
50.0, 207.92160798655823, -102.35545193729922, 205.8029546616599, -39.072604787070304, -0.04800000227987766, -0.04800000227987766, 0.9760000463575125, 0.0, 0.0, 0.0, 0.0, 0.0, 1.7622067340097291E9, 0.0, 2025-11-03 16:52:14.009
50.0, 351.94141538022086, 22.00370138930157, 335.7195993224159, 96.80170050309971, -0.04800000227987766, -0.04800000227987766, 0.9760000463575125, 0.0, 0.0, 0.0, 0.0, 0.0, 1.7622067340097291E9, 0.0, 2025-11-03 16:52:14.009
51.0, 203.17193504283205, -109.17328955652192, 195.6528661819175, -41.047271963674575, -0.04800000227987766, -0.04800000227987766, 0.9760000463575125, 0.0, 0.0, 0.0, 0.0, 0.0, 1.7622067340104215E9, 0.0, 2025-11-03 16:52:14.010
51.0, 194.85813744133338, -122.49855309864506, 178.18379348888993, -60.64434773148969, -0.04800000227987766, -0.04800000227987766, 0.9760000463575125, 0.0, 0.0, 0.0, 0.0, 0.0, 1.7622067340104215E9, 0.0, 2025-11-03 16:52:14.010
52.0, 318.8470406723209, -18.020707936491817, 296.71618268452585, 57.01664477447048, -0.04800000227987766, -0.04800000227987766, 0.9760000463575125, 0.0, 0.0, 0.0, 0.0, 0.0, 1.762206734024096E9, 0.0, 2025-11-03 16:52:14.024
52.0, 246.22566333273426, -70.86175441043451, 242.58487072587013, 8.375505950767547, -0.04800000227987766, -0.04800000227987766, 0.9760000463575125, 0.0, 0.0, 0.0, 0.0, 0.0, 1.762206734024096E9, 0.0, 2025-11-03 16:52:14.024
53.0, 182.89793738303706, -130.32616370590404, 174.68698703031987, -60.315236535388976, -0.04800000227987766, -0.04800000227987766, 0.9760000463575125, 0.0, 0.0, 0.0, 0.0, 0.0, 1.762206734039708E9, 0.0, 2025-11-03 16:52:14.039
53.0, 269.0390530624427, -66.93111955700442, 242.8541435226798, -3.8390073045156896, -0.04800000227987766, -0.04800000227987766, 0.9760000463575125, 0.0, 0.0, 0.0, 0.0, 0.0, 1.762206734039708E9, 0.0, 2025-11-03 16:52:14.039
54.0, 317.19026499195024, -13.925517485011369, 297.0265943808481, 54.86620229994878, -0.04800000227987766, -0.04800000227987766, 0.9760000463575125, 0.0, 0.0, 0.0, 0.0, 0.0, 1.762206734040412E9, 0.0, 2025-11-03 16:52:14.040
54.0, 186.5518196397461, -130.68893400160596, 170.73017287719995, -63.3819544990547, -0.04800000227987766, -0.04800000227987766, 0.9760000463575125, 0.0, 0.0, 0.0, 0.0, 0.0, 1.762206734040412E9, 0.0, 2025-11-03 16:52:14.040
55.0, 226.59866836527362, -100.2124892626889, 203.45803738944232, -35.87873022491112, -0.04800000227987766, -0.04800000227987766, 0.9760000463575125, 0.0, 0.0, 0.0, 0.0, 0.0, 1.7622067340541072E9, 0.0, 2025-11-03 16:52:14.054
55.0, 346.9972676387988, 8.820554045494646, 321.0330121964216, 73.26651008194312, -0.04800000227987766, -0.04800000227987766, 0.9760000463575125, 0.0, 0.0, 0.0, 0.0, 0.0, 1.7622067340541072E9, 0.0, 2025-11-03 16:52:14.054
56.0, 198.90470919338986, -117.95831455243751, 190.99669073708355, -50.03051165724173, -0.04800000227987766, -0.04800000227987766, 0.9760000463575125, 0.0, 0.0, 0.0, 0.0, 0.0, 1.7622067340699403E9, 0.0, 2025-11-03 16:52:14.069
56.0, 205.27001891797408, -113.35823760693893, 195.357414085418, -42.644209244754165, -0.04800000227987766, -0.04800000227987766, 0.9760000463575125, 0.0, 0.0, 0.0, 0.0, 0.0, 1.7622067340699403E9, 0.0, 2025-11-03 16:52:14.069
57.0, 329.5468944455497, -5.6528587830252945, 311.8926967047155, 71.43769900361076, -0.04800000227987766, -0.04800000227987766, 0.9760000463575125, 0.0, 0.0, 0.0, 0.0, 0.0, 1.7622067340704775E9, 0.0, 2025-11-03 16:52:14.070
57.0, 253.9934355407022, -63.206179201137275, 245.66654828935862, 0.3945594453252852, -0.04800000227987766, -0.04800000227987766, 0.9760000463575125, 0.0, 0.0, 0.0, 0.0, 0.0, 1.7622067340704775E9, 0.0, 2025-11-03 16:52:14.070
58.0, 200.6662020725198, -112.21382822049782, 189.71016515232623, -53.920007611159235, -0.04800000227987766, -0.04800000227987766, 0.9760000463575125, 0.0, 0.0, 0.0, 0.0, 0.0, 1.7622067340840483E9, 0.0, 2025-11-03 16:52:14.084
58.0, 271.0361596387811, -57.75340506574139, 256.17192726489156, 12.418337802868336, -0.04800000227987766, -0.04800000227987766, 0.9760000463575125, 0.0, 0.0, 0.0, 0.0, 0.0, 1.7622067340840483E9, 0.0, 2025-11-03 16:52:14.084
59.0, 325.60503989225253, -0.5329357436858118, 315.0790914669633, 73.0533357844688, -0.04800000227987766, -0.04800000227987766, 0.9760000463575125, 0.0, 0.0, 0.0, 0.0, 0.0, 1.7622067340998728E9, 0.0, 2025-11-03 16:52:14.099
59.0, 200.8868561699055, -112.90196981234476, 196.3522274736315, -39.431635182816535, -0.04800000227987766, -0.04800000227987766, 0.9760000463575125, 0.0, 0.0, 0.0, 0.0, 0.0, 1.7622067340998728E9, 0.0, 2025-11-03 16:52:14.099
60.0, 234.36270067328587, -84.34035385074094, 222.61006506253034, -15.49627546640113, -0.04800000227987766, -0.04800000227987766, 1.008000047877431, 0.0, 0.0, 0.0, 0.0, 0.0, 1.7622067341005065E9, 0.0, 2025-11-03 16:52:14.100
60.0, 340.45244271634147, 7.803301257546991, 327.8994685150683, 79.89735270338133, -0.04800000227987766, -0.04800000227987766, 1.008000047877431, 0.0, 0.0, 0.0, 0.0, 0.0, 1.7622067341005065E9, 0.0, 2025-11-03 16:52:14.100
61.0, 202.15842215484008, -105.26883400278166, 196.9094725670293, -40.53490566974506, -0.04800000227987766, -0.06400000303983688, 1.008000047877431, 0.0, 0.0, 0.0, 0.0, 0.0, 1.7622067341140077E9, 0.0, 2025-11-03 16:52:14.114
61.0, 200.53904547402635, -113.26848000800237, 192.39541332051158, -49.28253166610375, -0.04800000227987766, -0.06400000303983688, 1.008000047877431, 0.0, 0.0, 0.0, 0.0, 0.0, 1.7622067341140077E9, 0.0, 2025-11-03 16:52:14.114
62.0, 337.01173475710675, 7.208657164592296, 316.5862711491063, 69.38075402798131, -0.04800000227987766, -0.06400000303983688, 1.008000047877431, 0.0, 0.0, 0.0, 0.0, 0.0, 1.7622067341296952E9, 0.0, 2025-11-03 16:52:14.129
62.0, 271.2493339362554, -38.283485896419734, 270.7163981925696, 21.56239319453016, -0.04800000227987766, -0.06400000303983688, 1.008000047877431, 0.0, 0.0, 0.0, 0.0, 0.0, 1.7622067341296952E9, 0.0, 2025-11-03 16:52:14.129
63.0, 192.69273536698893, -117.83115795394406, 185.55139640159905, -56.05175058590248, -0.04800000227987766, -0.06400000303983688, 1.008000047877431, 0.0, 0.0, 0.0, 0.0, 0.0, 1.762206734130424E9, 0.0, 2025-11-03 16:52:14.130
63.0, 269.20360866049305, -56.42200068151578, 252.51430510822684, 15.5074951662682, -0.04800000227987766, -0.06400000303983688, 1.008000047877431, 0.0, 0.0, 0.0, 0.0, 0.0, 1.762206734130424E9, 0.0, 2025-11-03 16:52:14.130
64.0, 311.70009185699746, -13.90307808527723, 303.87061129976064, 68.00821074424312, -0.04800000227987766, -0.06400000303983688, 1.008000047877431, 0.0, 0.0, 0.0, 0.0, 0.0, 1.7622067341439793E9, 0.0, 2025-11-03 16:52:14.143
64.0, 184.12462456850335, -127.28562504192814, 178.92055378016084, -58.722039154265076, -0.04800000227987766, -0.06400000303983688, 1.008000047877431, 0.0, 0.0, 0.0, 0.0, 0.0, 1.7622067341439793E9, 0.0, 2025-11-03 16:52:14.143
65.0, 220.89158103289083, -98.36497868457809, 210.59376650489867, -23.342585573438555, -0.04800000227987766, -0.06400000303983688, 1.008000047877431, 0.0, 0.0, 0.0, 0.0, 0.0, 1.7622067341597912E9, 0.0, 2025-11-03 16:52:14.159
65.0, 352.9362287684344, 19.621385117527097, 332.5369444601238, 87.7623623101972, -0.04800000227987766, -0.06400000303983688, 1.008000047877431, 0.0, 0.0, 0.0, 0.0, 0.0, 1.7622067341597912E9, 0.0, 2025-11-03 16:52:14.159
66.0, 204.6716349250637, -101.04648695280775, 201.315074714832, -40.15343587426469, -0.04800000227987766, -0.06400000303983688, 1.008000047877431, 0.0, 0.0, 0.0, 0.0, 0.0, 1.7622067341604288E9, 0.0, 2025-11-03 16:52:14.160
66.0, 203.90869533410296, -109.56971895182505, 197.69859145767987, -34.53984604077414, -0.04800000227987766, -0.06400000303983688, 1.008000047877431, 0.0, 0.0, 0.0, 0.0, 0.0, 1.7622067341604288E9, 0.0, 2025-11-03 16:52:14.160
67.0, 335.04454738041386, 2.6422393186949193, 314.09549777861685, 72.77658318774775, -0.04800000227987766, -0.06400000303983688, 1.008000047877431, 0.0, 0.0, 0.0, 0.0, 0.0, 1.7622067341740732E9, 0.0, 2025-11-03 16:52:14.174
67.0, 263.1000919328071, -47.461200387682766, 260.81314310990274, 17.358745644334704, -0.04800000227987766, -0.06400000303983688, 1.008000047877431, 0.0, 0.0, 0.0, 0.0, 0.0, 1.7622067341740732E9, 0.0, 2025-11-03 16:52:14.174
68.0, 196.43263532267883, -110.85998443653807, 190.8732740385458, -46.87777599459514, -0.04800000227987766, -0.06400000303983688, 1.008000047877431, 0.0, 0.0, 0.0, 0.0, 0.0, 1.7622067342060945E9, 0.0, 2025-11-03 16:52:14.206
68.0, 275.8606305816211, -46.649642097298056, 263.61806807667017, 26.248487839009613, -0.04800000227987766, -0.06400000303983688, 1.008000047877431, 0.0, 0.0, 0.0, 0.0, 0.0, 1.7622067342060945E9, 0.0, 2025-11-03 16:52:14.206
69.0, 319.00037657050416, -7.100200065877289, 319.88112301006913, 79.85247390391305, -0.04800000227987766, -0.06400000303983688, 1.008000047877431, 0.0, 0.0, 0.0, 0.0, 0.0, 1.7622067342067995E9, 0.0, 2025-11-03 16:52:14.206
69.0, 163.3158212150447, -142.4583991621621, 162.3041782770306, -72.54096949053928, -0.04800000227987766, -0.06400000303983688, 1.008000047877431, 0.0, 0.0, 0.0, 0.0, 0.0, 1.7622067342067995E9, 0.0, 2025-11-03 16:52:14.206
70.0, 219.5639165486209, -101.85056544328108, 200.21928402781487, -39.98514037625864, -0.04800000227987766, -0.06400000303983688, 1.0240000486373901, 0.0, 0.0, 0.0, 0.0, 0.0, 1.7622067342075543E9, 0.0, 2025-11-03 16:52:14.207
70.0, 339.49128842772916, 6.793528269510716, 324.13338925968856, 78.8688802155666, -0.04800000227987766, -0.06400000303983688, 1.0240000486373901, 0.0, 0.0, 0.0, 0.0, 0.0, 1.7622067342075543E9, 0.0, 2025-11-03 16:52:14.207
71.0, 206.32467070547864, -102.53870703512803, 204.16487848106772, -29.868710996117443, -0.04800000227987766, -0.06400000303983688, 1.0240000486373901, 0.0, 0.0, 0.0, 0.0, 0.0, 1.7622067342083013E9, 0.0, 2025-11-03 16:52:14.208
71.0, 198.927148593124, -120.19103482598439, 185.80944949854165, -48.298937977757305, -0.04800000227987766, -0.06400000303983688, 1.0240000486373901, 0.0, 0.0, 0.0, 0.0, 0.0, 1.7622067342083013E9, 0.0, 2025-11-03 16:52:14.208
72.0, 323.63785251555964, -9.916344732511789, 302.804739812389, 66.48607146227732, -0.04800000227987766, -0.06400000303983688, 1.0240000486373901, 0.0, 0.0, 0.0, 0.0, 0.0, 1.7622067342190764E9, 0.0, 2025-11-03 16:52:14.219
72.0, 260.773874160368, -58.52382445661351, 255.42394727375358, 15.365378967951983, -0.04800000227987766, -0.06400000303983688, 1.0240000486373901, 0.0, 0.0, 0.0, 0.0, 0.0, 1.7622067342190764E9, 0.0, 2025-11-03 16:52:14.219
73.0, 195.83425132976845, -114.76443999027833, 189.2800766574219, -46.51500569889322, -0.04800000227987766, -0.06400000303983688, 1.0240000486373901, 0.0, 0.0, 0.0, 0.0, 0.0, 1.7622067342340667E9, 0.0, 2025-11-03 16:52:14.234
73.0, 272.94724851613864, -51.85184293566272, 258.228872240521, 27.370457825716585, -0.04800000227987766, -0.06400000303983688, 1.0240000486373901, 0.0, 0.0, 0.0, 0.0, 0.0, 1.7622067342340667E9, 0.0, 2025-11-03 16:52:14.234
74.0, 315.9112192071043, -0.8695267396979034, 308.68386254273355, 62.59657550835982, -0.04800000227987766, -0.06400000303983688, 1.0240000486373901, 0.0, 0.0, 0.0, 0.0, 0.0, 1.7622067342496867E9, 0.0, 2025-11-03 16:52:14.249
74.0, 191.04343948652968, -124.70135417254642, 175.2292725238949, -68.25130424136296, -0.04800000227987766, -0.06400000303983688, 1.0240000486373901, 0.0, 0.0, 0.0, 0.0, 0.0, 1.7622067342496867E9, 0.0, 2025-11-03 16:52:14.249
75.0, 235.0209230654873, -85.53712183656171, 220.00709469337016, -20.021554412785918, -0.04800000227987766, -0.06400000303983688, 1.0240000486373901, 0.0, 0.0, 0.0, 0.0, 0.0, 1.7622067342504032E9, 0.0, 2025-11-03 16:52:14.250
75.0, 359.368856692221, 29.53212000010535, 338.9733122838661, 94.72231612773612, -0.04800000227987766, -0.06400000303983688, 1.0240000486373901, 0.0, 0.0, 0.0, 0.0, 0.0, 1.7622067342504032E9, 0.0, 2025-11-03 16:52:14.250
76.0, 196.53361262148246, -111.813658925239, 192.70582501683384, -51.76582523668185, -0.04800000227987766, -0.06400000303983688, 1.0240000486373901, 0.0, 0.0, 0.0, 0.0, 0.0, 1.762206734264026E9, 0.0, 2025-11-03 16:52:14.264
76.0, 191.98215437540784, -121.66455540852621, 184.4630855144933, -55.958253087010235, -0.04800000227987766, -0.06400000303983688, 1.0240000486373901, 0.0, 0.0, 0.0, 0.0, 0.0, 1.762206734264026E9, 0.0, 2025-11-03 16:52:14.264
77.0, 312.19001875119284, -8.67469794722274, 303.72101530153304, 68.78237003507093, -0.04800000227987766, -0.06400000303983688, 1.0240000486373901, 0.0, 0.0, 0.0, 0.0, 0.0, 1.7622067342797728E9, 0.0, 2025-11-03 16:52:14.279
77.0, 235.3911731611006, -75.60020765429363, 237.412589087151, 6.120346277486533, -0.04800000227987766, -0.06400000303983688, 1.0240000486373901, 0.0, 0.0, 0.0, 0.0, 0.0, 1.7622067342797728E9, 0.0, 2025-11-03 16:52:14.279
78.0, 176.00530176470056, -135.87991514010355, 173.62111554294825, -59.63457474345341, -0.04800000227987766, -0.06400000303983688, 1.0240000486373901, 0.0, 0.0, 0.0, 0.0, 0.0, 1.762206734280409E9, 0.0, 2025-11-03 16:52:14.280
78.0, 285.06452437257394, -44.60391682153568, 263.39741397928447, 22.287933785934, -0.04800000227987766, -0.06400000303983688, 1.0240000486373901, 0.0, 0.0, 0.0, 0.0, 0.0, 1.762206734280409E9, 0.0, 2025-11-03 16:52:14.280
79.0, 327.721823267173, -3.300461710896343, 311.8104189056903, 73.99205067334697, -0.04800000227987766, -0.06400000303983688, 1.0240000486373901, 0.0, 0.0, 0.0, 0.0, 0.0, 1.762206734294035E9, 0.0, 2025-11-03 16:52:14.294
79.0, 189.32308550691232, -125.65876856120303, 179.50023827329278, -56.25744508346543, -0.04800000227987766, -0.06400000303983688, 1.0240000486373901, 0.0, 0.0, 0.0, 0.0, 0.0, 1.762206734294035E9, 0.0, 2025-11-03 16:52:14.294
80.0, 223.37113470351323, -98.3986377841793, 208.11421283427626, -32.7372142621316, -0.04800000227987766, -0.06400000303983688, 1.0400000493973494, 0.0, 0.0, 0.0, 0.0, 0.0, 1.7622067343097804E9, 0.0, 2025-11-03 16:52:14.309
80.0, 346.69059584243223, 13.588926488999277, 332.7239394579083, 88.86937269708142, -0.04800000227987766, -0.06400000303983688, 1.0400000493973494, 0.0, 0.0, 0.0, 0.0, 0.0, 1.7622067343097804E9, 0.0, 2025-11-03 16:52:14.309
81.0, 210.1580681600608, -107.45667547686026, 199.16089234035462, -39.12122348649427, -0.04800000227987766, -0.06400000303983688, 1.0400000493973494, 0.0, 0.0, 0.0, 0.0, 0.0, 1.7622067343104477E9, 0.0, 2025-11-03 16:52:14.310
81.0, 202.56607125001028, -112.04553272249177, 188.31892236880958, -43.59788373345509, -0.04800000227987766, -0.06400000303983688, 1.0400000493973494, 0.0, 0.0, 0.0, 0.0, 0.0, 1.7622067343104477E9, 0.0, 2025-11-03 16:52:14.310
82.0, 331.57018032157794, -3.5585148078389466, 310.98016111552715, 73.48342427937314, -0.04800000227987766, -0.06400000303983688, 1.0400000493973494, 0.0, 0.0, 0.0, 0.0, 0.0, 1.7622067343240588E9, 0.0, 2025-11-03 16:52:14.324
82.0, 259.71548247290775, -57.77584446547553, 248.411634856835, 4.64308579498902, -0.04800000227987766, -0.06400000303983688, 1.0400000493973494, 0.0, 0.0, 0.0, 0.0, 0.0, 1.7622067343240588E9, 0.0, 2025-11-03 16:52:14.324
83.0, 193.95308165205643, -115.31046538380906, 182.8250093339011, -57.69356666645035, -0.04800000227987766, -0.06400000303983688, 1.0400000493973494, 0.0, 0.0, 0.0, 0.0, 0.0, 1.7622067343396907E9, 0.0, 2025-11-03 16:52:14.339
83.0, 275.7072946834378, -51.84436313575134, 257.62674834765494, 18.72754902811721, -0.04800000227987766, -0.06400000303983688, 1.0400000493973494, 0.0, 0.0, 0.0, 0.0, 0.0, 1.7622067343396907E9, 0.0, 2025-11-03 16:52:14.339
84.0, 316.37870670156553, -7.735983058344573, 306.9560287632048, 62.11038851412013, -0.04800000227987766, -0.06400000303983688, 1.0400000493973494, 0.0, 0.0, 0.0, 0.0, 0.0, 1.7622067343404057E9, 0.0, 2025-11-03 16:52:14.340
84.0, 177.01507475273684, -134.88884165184572, 174.95625982712954, -61.6391611197032, -0.04800000227987766, -0.06400000303983688, 1.0400000493973494, 0.0, 0.0, 0.0, 0.0, 0.0, 1.7622067343404057E9, 0.0, 2025-11-03 16:52:14.340
85.0, 219.1263482538052, -97.99846848892048, 212.55721398163587, -23.436083072330803, -0.04800000227987766, -0.06400000303983688, 1.0400000493973494, 0.0, 0.0, 0.0, 0.0, 0.0, 1.7622067343540127E9, 0.0, 2025-11-03 16:52:14.354
85.0, 358.46006100298837, 24.73756825691089, 339.384701278992, 92.82244695024565, -0.04800000227987766, -0.06400000303983688, 1.0400000493973494, 0.0, 0.0, 0.0, 0.0, 0.0, 1.7622067343540127E9, 0.0, 2025-11-03 16:52:14.354
86.0, 211.36605584574863, -106.6264176866971, 197.47419746033847, -39.72334737936035, -0.04800000227987766, -0.06400000303983688, 1.0400000493973494, 0.0, 0.0, 0.0, 0.0, 0.0, 1.7622067343699017E9, 0.0, 2025-11-03 16:52:14.369
86.0, 194.0727584506385, -116.09210447454825, 189.66154645290226, -37.827218101825565, -0.04800000227987766, -0.06400000303983688, 1.0400000493973494, 0.0, 0.0, 0.0, 0.0, 0.0, 1.7622067343699017E9, 0.0, 2025-11-03 16:52:14.369
87.0, 334.34518608869985, -3.2331435116939247, 308.3360518468544, 56.4145208816044, -0.04800000227987766, -0.06400000303983688, 1.0400000493973494, 0.0, 0.0, 0.0, 0.0, 0.0, 1.7622067343704407E9, 0.0, 2025-11-03 16:52:14.370
87.0, 244.6137664518319, -78.04610222531483, 233.60163103230298, -6.187664476688951, -0.04800000227987766, -0.06400000303983688, 1.0400000493973494, 0.0, 0.0, 0.0, 0.0, 0.0, 1.7622067343704407E9, 0.0, 2025-11-03 16:52:14.370
88.0, 183.19338947953656, -129.0059790215455, 173.73331254161894, -59.933766739908606, -0.04800000227987766, -0.06400000303983688, 1.0400000493973494, 0.0, 0.0, 0.0, 0.0, 0.0, 1.7622067343841252E9, 0.0, 2025-11-03 16:52:14.384
88.0, 279.9932200326584, -50.24368595471606, 260.43167331442237, 20.69847630476579, -0.04800000227987766, -0.06400000303983688, 1.0400000493973494, 0.0, 0.0, 0.0, 0.0, 0.0, 1.7622067343841252E9, 0.0, 2025-11-03 16:52:14.384
89.0, 322.33262743102387, -4.037222002167255, 312.29660589993, 69.48547122674063, -0.04800000227987766, -0.06400000303983688, 1.0400000493973494, 0.0, 0.0, 0.0, 0.0, 0.0, 1.7622067343997452E9, 0.0, 2025-11-03 16:52:14.399
89.0, 198.90470919338986, -113.41433610627428, 185.58879540115595, -48.347556677181274, -0.04800000227987766, -0.06400000303983688, 1.0400000493973494, 0.0, 0.0, 0.0, 0.0, 0.0, 1.7622067343997452E9, 0.0, 2025-11-03 16:52:14.399
90.0, 231.10150791192427, -94.01173513615504, 208.4657634301111, -20.474082307424396, -0.04800000227987766, -0.06400000303983688, 1.0400000493973494, 0.0, 0.0, 0.0, 0.0, 0.0, 1.7622067344004157E9, 0.0, 2025-11-03 16:52:14.400
90.0, 360.7413999759592, 24.666510157752782, 335.39796792622656, 93.86213913792744, -0.04800000227987766, -0.06400000303983688, 1.0400000493973494, 0.0, 0.0, 0.0, 0.0, 0.0, 1.7622067344004157E9, 0.0, 2025-11-03 16:52:14.400
91.0, 198.2240474014543, -115.67697557946667, 188.36006126832217, -46.86655629472807, -0.04800000227987766, -0.04800000227987766, 1.0400000493973494, 0.0, 0.0, 0.0, 0.0, 0.0, 1.7622067344140248E9, 0.0, 2025-11-03 16:52:14.414
91.0, 188.61998431524262, -126.1150363557972, 176.3437627106905, -64.60116188460961, -0.04800000227987766, -0.04800000227987766, 1.0400000493973494, 0.0, 0.0, 0.0, 0.0, 0.0, 1.7622067344140248E9, 0.0, 2025-11-03 16:52:14.414
92.0, 323.14792562136427, -11.019615219440311, 300.549580139108, 52.38664862932637, -0.04800000227987766, -0.04800000227987766, 1.0400000493973494, 0.0, 0.0, 0.0, 0.0, 0.0, 1.7622067344297605E9, 0.0, 2025-11-03 16:52:14.429
92.0, 257.42292380006984, -53.471219616476446, 255.64834127109498, 8.719576746691018, -0.04800000227987766, -0.04800000227987766, 1.0400000493973494, 0.0, 0.0, 0.0, 0.0, 0.0, 1.7622067344297605E9, 0.0, 2025-11-03 16:52:14.429
93.0, 202.80168494721875, -103.63075782218948, 200.23424362763762, -41.60825695702806, -0.04800000227987766, -0.04800000227987766, 1.0400000493973494, 0.0, 0.0, 0.0, 0.0, 0.0, 1.7622067344304028E9, 0.0, 2025-11-03 16:52:14.430
93.0, 295.48014574917033, -32.972827959340066, 275.92233893088996, 29.906109995674342, -0.04800000227987766, -0.04800000227987766, 1.0400000493973494, 0.0, 0.0, 0.0, 0.0, 0.0, 1.7622067344304028E9, 0.0, 2025-11-03 16:52:14.430
94.0, 321.04236194631085, -4.9721969910897315, 311.9188760044053, 63.269757500384, -0.04800000227987766, -0.04800000227987766, 1.0400000493973494, 0.0, 0.0, 0.0, 0.0, 0.0, 1.7622067344439964E9, 0.0, 2025-11-03 16:52:14.443
94.0, 177.74809514405206, -126.79569814773276, 182.07328944280744, -59.185786748770624, -0.04800000227987766, -0.04800000227987766, 1.0400000493973494, 0.0, 0.0, 0.0, 0.0, 0.0, 1.7622067344439964E9, 0.0, 2025-11-03 16:52:14.443
95.0, 242.429664877709, -71.39282020414248, 238.31390497647226, -1.931658327113837, -0.04800000227987766, -0.04800000227987766, 1.0400000493973494, 0.0, 0.0, 0.0, 0.0, 0.0, 1.7622067344597342E9, 0.0, 2025-11-03 16:52:14.459
95.0, 371.65068814670667, 42.01590605219826, 357.5493953637779, 105.33615220198408, -0.04800000227987766, -0.04800000227987766, 1.0400000493973494, 0.0, 0.0, 0.0, 0.0, 0.0, 1.7622067344597342E9, 0.0, 2025-11-03 16:52:14.459
96.0, 215.50238519674167, -93.35351274395362, 211.37914549559355, -33.391696754377335, -0.04800000227987766, -0.04800000227987766, 1.0400000493973494, 0.0, 0.0, 0.0, 0.0, 0.0, 1.7622067344604E9, 0.0, 2025-11-03 16:52:14.460
96.0, 207.10630979621783, -105.93453619489446, 197.95664455462247, -41.58581755729392, -0.04800000227987766, -0.04800000227987766, 1.0400000493973494, 0.0, 0.0, 0.0, 0.0, 0.0, 1.7622067344604E9, 0.0, 2025-11-03 16:52:14.460
97.0, 323.0319887227379, -6.898245468270034, 299.9549360461533, 56.751111877616495, -0.04800000227987766, -0.04800000227987766, 1.0400000493973494, 0.0, 0.0, 0.0, 0.0, 0.0, 1.7622067344740047E9, 0.0, 2025-11-03 16:52:14.474
97.0, 253.58952634548768, -61.75883791828528, 248.35553635749966, -0.6226933426223695, -0.04800000227987766, -0.04800000227987766, 1.0400000493973494, 0.0, 0.0, 0.0, 0.0, 0.0, 1.7622067344740047E9, 0.0, 2025-11-03 16:52:14.474
98.0, 187.445655729156, -121.35788361215964, 181.3814079510048, -56.03679098607972, -0.04800000227987766, -0.04800000227987766, 1.0400000493973494, 0.0, 0.0, 0.0, 0.0, 0.0, 1.7622067344898667E9, 0.0, 2025-11-03 16:52:14.489
98.0, 287.98164633801207, -34.27431314392015, 272.3469945732504, 24.520654059480876, -0.04800000227987766, -0.04800000227987766, 1.0400000493973494, 0.0, 0.0, 0.0, 0.0, 0.0, 1.7622067344898667E9, 0.0, 2025-11-03 16:52:14.489
99.0, 327.33661357173696, 5.675298182759434, 317.0350591437891, 59.948726339731365, -0.04800000227987766, -0.04800000227987766, 1.0400000493973494, 0.0, 0.0, 0.0, 0.0, 0.0, 1.7622067344904535E9, 0.0, 2025-11-03 16:52:14.490
99.0, 199.83968418231234, -111.96699482342228, 187.4250862793997, -59.967425839509815, -0.04800000227987766, -0.04800000227987766, 1.0400000493973494, 0.0, 0.0, 0.0, 0.0, 0.0, 1.7622067344904535E9, 0.0, 2025-11-03 16:52:14.490
100.0, 235.15555946389213, -82.5414619720541, 222.09769876860082, -21.49507499532774, -0.04800000227987766, -0.04800000227987766, 1.0400000493973494, 0.0, 0.0, 0.0, 0.0, 0.0, 1.7622067345047345E9, 0.0, 2025-11-03 16:52:14.504
100.0, 350.1051245019771, 23.93348976643756, 338.2776908921078, 89.3219005917199, -0.04800000227987766, -0.04800000227987766, 1.0400000493973494, 0.0, 0.0, 0.0, 0.0, 0.0, 1.7622067345047345E9, 0.0, 2025-11-03 16:52:14.504
0.0, 217.8660019687377, -81.69624458206818, 225.0372601337731, -17.48964214278385, -0.04800000227987766, -0.04800000227987766, 1.0400000493973494, 0.0, 0.0, 0.0, 0.0, 0.0, 1.762206734505496E9, 0.0, 2025-11-03 16:52:14.505
1.0, 188.4816080168821, -118.28742574853823, 182.73151183500886, -59.77669094176963, -0.04800000227987766, -0.04800000227987766, 1.0400000493973494, 0.0, 0.0, 0.0, 0.0, 0.0, 1.7622067345190244E9, 0.0, 2025-11-03 16:52:14.519
1.0, 329.8722657416947, 6.744909570086747, 311.7505805063993, 65.95874556852505, -0.04800000227987766, -0.04800000227987766, 1.0400000493973494, 0.0, 0.0, 0.0, 0.0, 0.0, 1.7622067345190244E9, 0.0, 2025-11-03 16:52:14.519
2.0, 255.89704461814836, -60.47979213343933, 244.8213308993727, 5.8548133806325495, -0.04800000227987766, -0.04800000227987766, 1.0400000493973494, 0.0, 0.0, 0.0, 0.0, 0.0, 1.7622067345348403E9, 0.0, 2025-11-03 16:52:14.534
2.0, 185.50090775219724, -129.17427451955155, 171.69506706576794, -72.11462089559063, -0.04800000227987766, -0.04800000227987766, 1.0400000493973494, 0.0, 0.0, 0.0, 0.0, 0.0, 1.7622067345348403E9, 0.0, 2025-11-03 16:52:14.534
3.0, 261.41339705279097, -68.40464013954625, 240.9692339450121, -7.960377055685967, -0.04800000227987766, -0.04800000227987766, 1.0400000493973494, 0.0, 0.0, 0.0, 0.0, 0.0, 1.762206734535437E9, 0.0, 2025-11-03 16:52:14.535
3.0, 307.7582373037003, -14.149911482352763, 303.50036120414734, 54.95595989888534, -0.04800000227987766, -0.04800000227987766, 1.0400000493973494, 0.0, 0.0, 0.0, 0.0, 0.0, 1.762206734535437E9, 0.0, 2025-11-03 16:52:14.535
4.0, 203.47112703928724, -106.87325108377263, 195.39481308497488, -42.704047644045204, -0.04800000227987766, -0.04800000227987766, 1.0400000493973494, 0.0, 0.0, 0.0, 0.0, 0.0, 1.7622067345490596E9, 0.0, 2025-11-03 16:52:14.549
4.0, 220.91402043262497, -92.36991905560717, 217.5836395220831, -29.51716040028259, -0.04800000227987766, -0.04800000227987766, 1.0400000493973494, 0.0, 0.0, 0.0, 0.0, 0.0, 1.7622067345490596E9, 0.0, 2025-11-03 16:52:14.549
5.0, 344.3942972696386, 21.06872640037909, 334.72852583415806, 84.51986904861405, -0.04800000227987766, -0.04800000227987766, 1.0400000493973494, 0.0, 0.0, 0.0, 0.0, 0.0, 1.7622067345648427E9, 0.0, 2025-11-03 16:52:14.564
5.0, 210.18424745975062, -98.63051158143207, 202.19395120441914, -36.35743741923943, -0.04800000227987766, -0.04800000227987766, 1.0400000493973494, 0.0, 0.0, 0.0, 0.0, 0.0, 1.7622067345648427E9, 0.0, 2025-11-03 16:52:14.564
6.0, 206.1937742070295, -105.79615989653394, 196.26620977465063, -44.02049242844805, -0.04800000227987766, -0.04800000227987766, 1.0400000493973494, 0.0, 0.0, 0.0, 0.0, 0.0, 1.762206734565441E9, 0.0, 2025-11-03 16:52:14.565
6.0, 338.05516684474424, 11.819953809957951, 321.01805259659886, 71.47883790312335, -0.04800000227987766, -0.04800000227987766, 1.0400000493973494, 0.0, 0.0, 0.0, 0.0, 0.0, 1.762206734565441E9, 0.0, 2025-11-03 16:52:14.565
7.0, 257.74829509621486, -55.127995296847075, 254.12994188908488, 9.205763740930706, -0.04800000227987766, -0.04800000227987766, 1.0400000493973494, 0.0, 0.0, 0.0, 0.0, 0.0, 1.7622067345790253E9, 0.0, 2025-11-03 16:52:14.579
7.0, 183.0325737814419, -114.46524799382314, 180.9774987557903, -58.007718262728304, -0.04800000227987766, -0.04800000227987766, 1.0400000493973494, 0.0, 0.0, 0.0, 0.0, 0.0, 1.7622067345790253E9, 0.0, 2025-11-03 16:52:14.579
8.0, 277.42390876309946, -48.2278798785992, 256.8226698571816, 10.477329725865275, -0.04800000227987766, -0.04800000227987766, 1.0400000493973494, 0.0, 0.0, 0.0, 0.0, 0.0, 1.7622067345947585E9, 0.0, 2025-11-03 16:52:14.594
8.0, 307.978891401086, -9.04868794279173, 302.5205074157566, 58.04885716224089, -0.04800000227987766, -0.04800000227987766, 1.0400000493973494, 0.0, 0.0, 0.0, 0.0, 0.0, 1.7622067345947585E9, 0.0, 2025-11-03 16:52:14.594
9.0, 183.60103857470676, -124.27500557759777, 180.85782195720822, -56.46687948098406, -0.04800000227987766, -0.04800000227987766, 1.0400000493973494, 0.0, 0.0, 0.0, 0.0, 0.0, 1.7622067345954373E9, 0.0, 2025-11-03 16:52:14.595
9.0, 217.53689077263698, -94.74475552747026, 214.30374726094306, -19.782200815621763, -0.04800000227987766, -0.04800000227987766, 1.0400000493973494, 0.0, 0.0, 0.0, 0.0, 0.0, 1.7622067345954373E9, 0.0, 2025-11-03 16:52:14.595
10.0, 346.69059584243223, 19.228695622179657, 332.1928736642003, 84.97239694325253, -0.04800000227987766, -0.04800000227987766, 1.0400000493973494, 0.0, 0.0, 0.0, 0.0, 0.0, 1.7622067346091812E9, 0.0, 2025-11-03 16:52:14.609
10.0, 206.9342743982561, -95.07386672357097, 205.02879537083209, -45.32197761302814, -0.04800000227987766, -0.04800000227987766, 1.0400000493973494, 0.0, 0.0, 0.0, 0.0, 0.0, 1.7622067346091812E9, 0.0, 2025-11-03 16:52:14.609
11.0, 204.2265868303366, -105.93079629493877, 199.90139253158122, -45.6697883089073, -0.04800000227987766, -0.04800000227987766, 1.0400000493973494, 0.0, 0.0, 0.0, 0.0, 0.0, 1.762206734624819E9, 0.0, 2025-11-03 16:52:14.624
11.0, 323.1292261215858, -4.100800301413983, 307.64791025500745, 60.62938813166693, -0.04800000227987766, -0.04800000227987766, 1.0400000493973494, 0.0, 0.0, 0.0, 0.0, 0.0, 1.762206734624819E9, 0.0, 2025-11-03 16:52:14.624
12.0, 252.33665986033157, -58.714559354353696, 249.53360484354198, 3.7567295054905117, -0.04800000227987766, -0.04800000227987766, 1.0400000493973494, 0.0, 0.0, 0.0, 0.0, 0.0, 1.762206734625465E9, 0.0, 2025-11-03 16:52:14.625
12.0, 192.20654837274924, -122.44993439922109, 178.2324121883139, -61.3063100236468, -0.04800000227987766, -0.04800000227987766, 1.0400000493973494, 0.0, 0.0, 0.0, 0.0, 0.0, 1.762206734625465E9, 0.0, 2025-11-03 16:52:14.625
13.0, 290.9025082034059, -36.36491721915081, 270.084355100058, 21.9924816894345, -0.04800000227987766, -0.04800000227987766, 1.0400000493973494, 0.0, 0.0, 0.0, 0.0, 0.0, 1.762206734639052E9, 0.0, 2025-11-03 16:52:14.639
13.0, 322.45230422960594, -3.132166212890297, 305.7368213776499, 58.766917953733355, -0.04800000227987766, -0.04800000227987766, 1.0400000493973494, 0.0, 0.0, 0.0, 0.0, 0.0, 1.762206734639052E9, 0.0, 2025-11-03 16:52:14.639
14.0, 186.106771545019, -115.35534418327734, 181.47116554994136, -64.35806838748977, -0.04800000227987766, -0.04800000227987766, 1.0400000493973494, 0.0, 0.0, 0.0, 0.0, 0.0, 1.7622067346547425E9, 0.0, 2025-11-03 16:52:14.654
14.0, 234.5048168716021, -80.45833769673482, 217.38168492447585, -24.486994959879667, -0.04800000227987766, -0.04800000227987766, 1.0400000493973494, 0.0, 0.0, 0.0, 0.0, 0.0, 1.7622067346547425E9, 0.0, 2025-11-03 16:52:14.654
15.0, 353.0035469676368, 16.524747954215854, 328.9055016031489, 85.33142733899876, -0.04800000227987766, -0.04800000227987766, 1.0400000493973494, 0.0, 0.0, 0.0, 0.0, 0.0, 1.7622067346554248E9, 0.0, 2025-11-03 16:52:14.655
15.0, 200.19871457805857, -107.17618298018351, 194.3887799968943, -40.86027696589008, -0.04800000227987766, -0.04800000227987766, 1.0400000493973494, 0.0, 0.0, 0.0, 0.0, 0.0, 1.7622067346554248E9, 0.0, 2025-11-03 16:52:14.655
16.0, 197.2254941132851, -115.72185437893495, 187.18947258219123, -46.81419769534841, -0.04800000227987766, -0.04800000227987766, 1.0400000493973494, 0.0, 0.0, 0.0, 0.0, 0.0, 1.7622067346690965E9, 0.0, 2025-11-03 16:52:14.669
16.0, 332.46027651103213, -1.7259638295508921, 306.49228116869926, 55.38230849383399, -0.04800000227987766, -0.04800000227987766, 1.0400000493973494, 0.0, 0.0, 0.0, 0.0, 0.0, 1.7622067346690965E9, 0.0, 2025-11-03 16:52:14.669
17.0, 257.75203499617055, -54.88116189977154, 251.0856633251533, 4.766502493526787, -0.04800000227987766, -0.04800000227987766, 1.0400000493973494, 0.0, 0.0, 0.0, 0.0, 0.0, 1.7622067346853855E9, 0.0, 2025-11-03 16:52:14.685
17.0, 196.42141562281176, -112.51302021695301, 184.36584811564535, -62.31608301168308, -0.04800000227987766, -0.04800000227987766, 1.0400000493973494, 0.0, 0.0, 0.0, 0.0, 0.0, 1.7622067346853855E9, 0.0, 2025-11-03 16:52:14.685
18.0, 298.3748283148743, -28.31291261455044, 271.58779488224536, 28.900076907593757, -0.04800000227987766, -0.04800000227987766, 1.0400000493973494, 0.0, 0.0, 0.0, 0.0, 0.0, 1.7622067346861067E9, 0.0, 2025-11-03 16:52:14.686
18.0, 318.7572830733843, -13.46176989050582, 298.85914535913616, 45.32197761302814, -0.04800000227987766, -0.04800000227987766, 1.0400000493973494, 0.0, 0.0, 0.0, 0.0, 0.0, 1.7622067346861067E9, 0.0, 2025-11-03 16:52:14.686
19.0, 204.60805662581697, -107.16496328031644, 193.22567111067474, -48.351296577136964, -0.04800000227987766, -0.04800000227987766, 1.0400000493973494, 0.0, 0.0, 0.0, 0.0, 0.0, 1.762206734699116E9, 0.0, 2025-11-03 16:52:14.699
19.0, 233.4987837835215, -88.67863779934123, 212.75168877933174, -32.946648659650236, -0.04800000227987766, -0.04800000227987766, 1.0400000493973494, 0.0, 0.0, 0.0, 0.0, 0.0, 1.762206734699116E9, 0.0, 2025-11-03 16:52:14.699
20.0, 362.68988785287365, 24.617891458328813, 339.77739077433944, 91.12453237036243, -0.04800000227987766, -0.04800000227987766, 1.0400000493973494, 0.0, 0.0, 0.0, 0.0, 0.0, 1.7622067347147915E9, 0.0, 2025-11-03 16:52:14.714
20.0, 215.95491309138015, -91.69673706358299, 207.33257374353707, -31.443208877462894, -0.04800000227987766, -0.04800000227987766, 1.0400000493973494, 0.0, 0.0, 0.0, 0.0, 0.0, 1.7622067347147915E9, 0.0, 2025-11-03 16:52:14.714
21.0, 214.5599304079078, -105.7737204967998, 196.70003816951066, -43.74747973168269, -0.04800000227987766, -0.06400000303983688, 1.0400000493973494, 0.0, 0.0, 0.0, 0.0, 0.0, 1.7622067347154598E9, 0.0, 2025-11-03 16:52:14.715
21.0, 328.01353546371683, -10.29407462803647, 299.68192334938794, 52.20713343145326, -0.04800000227987766, -0.06400000303983688, 1.0400000493973494, 0.0, 0.0, 0.0, 0.0, 0.0, 1.7622067347154598E9, 0.0, 2025-11-03 16:52:14.715
22.0, 242.36608657846227, -79.01099641388282, 228.49666759278625, -10.798961122054607, -0.04800000227987766, -0.06400000303983688, 1.0400000493973494, 0.0, 0.0, 0.0, 0.0, 0.0, 1.7622067347290728E9, 0.0, 2025-11-03 16:52:14.729
22.0, 192.00833367509767, -123.44474778743461, 179.75829137023538, -59.36156204668805, -0.04800000227987766, -0.06400000303983688, 1.0400000493973494, 0.0, 0.0, 0.0, 0.0, 0.0, 1.7622067347290728E9, 0.0, 2025-11-03 16:52:14.729
23.0, 277.09479756699875, -49.03569826902822, 262.0921888947487, 20.25342821003869, -0.04800000227987766, -0.06400000303983688, 1.0400000493973494, 0.0, 0.0, 0.0, 0.0, 0.0, 1.7622067347611704E9, 0.0, 2025-11-03 16:52:14.761
23.0, 327.3665327713825, 4.340153898578137, 323.0076793730259, 74.93824536213651, -0.04800000227987766, -0.06400000303983688, 1.0400000493973494, 0.0, 0.0, 0.0, 0.0, 0.0, 1.7622067347611704E9, 0.0, 2025-11-03 16:52:14.761
24.0, 198.336244400125, -112.64017681544647, 197.03662916552275, -43.822277730796486, -0.04800000227987766, -0.06400000303983688, 1.0400000493973494, 0.0, 0.0, 0.0, 0.0, 0.0, 1.7622067347618167E9, 0.0, 2025-11-03 16:52:14.761
24.0, 235.29019586229697, -88.0989533062093, 220.51946098729968, -18.592912629712373, -0.04800000227987766, -0.06400000303983688, 1.0400000493973494, 0.0, 0.0, 0.0, 0.0, 0.0, 1.7622067347618167E9, 0.0, 2025-11-03 16:52:14.761
25.0, 357.1585758184083, 27.50509422412142, 341.6735200518742, 96.15469781076536, -0.04800000227987766, -0.06400000303983688, 1.0400000493973494, 0.0, 0.0, 0.0, 0.0, 0.0, 1.7622067347625537E9, 0.0, 2025-11-03 16:52:14.762
25.0, 228.55463604209945, -78.24431692296639, 223.35804505366832, -14.968949572648853, -0.04800000227987766, -0.06400000303983688, 1.0400000493973494, 0.0, 0.0, 0.0, 0.0, 0.0, 1.7622067347625537E9, 0.0, 2025-11-03 16:52:14.762
26.0, 233.8353747795336, -83.14358586492017, 223.35430515371263, -19.5839861179702, -0.04800000227987766, -0.06400000303983688, 1.0400000493973494, 0.0, 0.0, 0.0, 0.0, 0.0, 1.7622067347633014E9, 0.0, 2025-11-03 16:52:14.763
26.0, 350.95034189196303, 14.961469772737473, 326.3324504336342, 66.84510185802355, -0.04800000227987766, -0.06400000303983688, 1.0400000493973494, 0.0, 0.0, 0.0, 0.0, 0.0, 1.7622067347633014E9, 0.0, 2025-11-03 16:52:14.763
27.0, 285.31509766960517, -33.56373215233907, 278.88807959575206, 30.75880718557164, -0.04800000227987766, -0.06400000303983688, 1.0400000493973494, 0.0, 0.0, 0.0, 0.0, 0.0, 1.762206734774012E9, 0.0, 2025-11-03 16:52:14.774
27.0, 217.6790069709532, -100.37704486073926, 201.9508577072993, -48.92350127035752, -0.04800000227987766, -0.06400000303983688, 1.0400000493973494, 0.0, 0.0, 0.0, 0.0, 0.0, 1.762206734774012E9, 0.0, 2025-11-03 16:52:14.774
28.0, 288.91662132693455, -39.080084586981684, 268.47245821915567, 12.889565197285265, -0.04800000227987766, -0.06400000303983688, 1.0400000493973494, 0.0, 0.0, 0.0, 0.0, 0.0, 1.7622067347891023E9, 0.0, 2025-11-03 16:52:14.789
28.0, 331.49164242250845, 1.5202693319879472, 314.92575556878, 58.1573142609559, -0.04800000227987766, -0.06400000303983688, 1.0400000493973494, 0.0, 0.0, 0.0, 0.0, 0.0, 1.7622067347891023E9, 0.0, 2025-11-03 16:52:14.789
29.0, 203.47486693924293, -109.22938805585727, 194.26162339840084, -59.90758744021878, -0.04800000227987766, -0.06400000303983688, 1.0400000493973494, 0.0, 0.0, 0.0, 0.0, 0.0, 1.7622067348047347E9, 0.0, 2025-11-03 16:52:14.804
29.0, 240.70931089809164, -84.41889174981043, 216.1811770386994, -36.31629851972684, -0.04800000227987766, -0.06400000303983688, 1.0400000493973494, 0.0, 0.0, 0.0, 0.0, 0.0, 1.7622067348047347E9, 0.0, 2025-11-03 16:52:14.804
30.0, 362.6674484531395, 24.251381262671202, 332.7837778571993, 68.00447084428743, -0.04800000227987766, -0.06400000303983688, 1.0400000493973494, 0.0, 0.0, 0.0, 0.0, 0.0, 1.7622067348054092E9, 0.0, 2025-11-03 16:52:14.805
30.0, 227.83657525060698, -90.61216607643291, 205.86653296090662, -47.068510892335325, -0.04800000227987766, -0.06400000303983688, 1.0400000493973494, 0.0, 0.0, 0.0, 0.0, 0.0, 1.7622067348054092E9, 0.0, 2025-11-03 16:52:14.805
31.0, 241.0982604934834, -83.05008836602792, 209.2137434212491, -48.90106187062338, -0.04800000227987766, -0.06400000303983688, 1.0400000493973494, 0.0, 0.0, 0.0, 0.0, 0.0, 1.7622067348190706E9, 0.0, 2025-11-03 16:52:14.819
31.0, 344.75706756534055, 7.691104258876294, 315.09405106678605, 56.10784908523783, -0.04800000227987766, -0.06400000303983688, 1.0400000493973494, 0.0, 0.0, 0.0, 0.0, 0.0, 1.7622067348190706E9, 0.0, 2025-11-03 16:52:14.819
32.0, 276.9377217688598, -43.885856030043215, 255.37532857432961, -4.586987295653671, -0.04800000227987766, -0.06400000303983688, 1.0400000493973494, 0.0, 0.0, 0.0, 0.0, 0.0, 1.7622067348346932E9, 0.0, 2025-11-03 16:52:14.834
32.0, 223.26267760479823, -99.57670627022162, 197.22736406326294, -58.18723346060142, -0.04800000227987766, -0.06400000303983688, 1.0400000493973494, 0.0, 0.0, 0.0, 0.0, 0.0, 1.7622067348346932E9, 0.0, 2025-11-03 16:52:14.834
33.0, 306.097721723374, -31.716221574228257, 266.00038434844464, 11.786294710356742, -0.04800000227987766, -0.06400000303983688, 1.0400000493973494, 0.0, 0.0, 0.0, 0.0, 0.0, 1.7622067348354285E9, 0.0, 2025-11-03 16:52:14.835
33.0, 338.1898032431491, 1.8381608282215893, 302.1352977203205, 37.872096901293844, -0.04800000227987766, -0.06400000303983688, 1.0400000493973494, 0.0, 0.0, 0.0, 0.0, 0.0, 1.7622067348354285E9, 0.0, 2025-11-03 16:52:14.835
34.0, 223.70398579956964, -105.54558659950271, 187.98607127275318, -68.94692563312128, -0.04800000227987766, -0.06400000303983688, 1.0400000493973494, 0.0, 0.0, 0.0, 0.0, 0.0, 1.762206734849049E9, 0.0, 2025-11-03 16:52:14.849
34.0, 256.3308730130084, -75.18133885925636, 215.05920705199242, -40.81913806637749, -0.04800000227987766, -0.06400000303983688, 1.0400000493973494, 0.0, 0.0, 0.0, 0.0, 0.0, 1.762206734849049E9, 0.0, 2025-11-03 16:52:14.849
35.0, 377.51859117718413, 30.605471287388355, 328.39687520917505, 62.04307031491771, -0.04800000227987766, -0.06400000303983688, 1.0400000493973494, 0.0, 0.0, 0.0, 0.0, 0.0, 1.7622067348647077E9, 0.0, 2025-11-03 16:52:14.864
35.0, 228.3452016445808, -91.99592906003818, 199.25438983924687, -60.06840313831344, -0.04800000227987766, -0.06400000303983688, 1.0400000493973494, 0.0, 0.0, 0.0, 0.0, 0.0, 1.7622067348647077E9, 0.0, 2025-11-03 16:52:14.864
36.0, 224.73245828738436, -105.21273550344631, 186.0862020952627, -78.2031780234538, -0.04800000227987766, -0.06400000303983688, 1.0400000493973494, 0.0, 0.0, 0.0, 0.0, 0.0, 1.7622067348654106E9, 0.0, 2025-11-03 16:52:14.865
36.0, 340.94236961053684, -3.386479409877211, 291.3195070484653, 21.09864560002461, -0.04800000227987766, -0.06400000303983688, 1.0400000493973494, 0.0, 0.0, 0.0, 0.0, 0.0, 1.7622067348654106E9, 0.0, 2025-11-03 16:52:14.865
37.0, 278.13074985472485, -53.05609072139487, 238.54203887376934, -26.614998034667224, -0.04800000227987766, -0.06400000303983688, 1.0400000493973494, 0.0, 0.0, 0.0, 0.0, 0.0, 1.7622067348790395E9, 0.0, 2025-11-03 16:52:14.879
37.0, 232.33193499734625, -102.98749502981082, 189.4633317552507, -73.35252778092399, -0.04800000227987766, -0.06400000303983688, 1.0400000493973494, 0.0, 0.0, 0.0, 0.0, 0.0, 1.7622067348790395E9, 0.0, 2025-11-03 16:52:14.879
38.0, 312.59018804645166, -37.397129606921226, 251.66160791832954, -13.278514792677015, -0.04800000227987766, -0.06400000303983688, 1.0400000493973494, 0.0, 0.0, 0.0, 0.0, 0.0, 1.762206734894716E9, 0.0, 2025-11-03 16:52:14.894
38.0, 333.294274201151, -12.130365506280214, 285.3132277196273, 18.787387427408248, -0.04800000227987766, -0.06400000303983688, 1.0400000493973494, 0.0, 0.0, 0.0, 0.0, 0.0, 1.762206734894716E9, 0.0, 2025-11-03 16:52:14.894
39.0, 226.28077686903998, -105.90087709529325, 178.38948798645288, -84.96865704329684, -0.04800000227987766, -0.06400000303983688, 1.0400000493973494, 0.0, 0.0, 0.0, 0.0, 0.0, 1.7622067348954203E9, 0.0, 2025-11-03 16:52:14.895
39.0, 228.96602503722534, -115.2955057839863, 177.73126559425145, -94.96914952481166, -0.04800000227987766, -0.06400000303983688, 1.0400000493973494, 0.0, 0.0, 0.0, 0.0, 0.0, 1.7622067348954203E9, 0.0, 2025-11-03 16:52:14.895
40.0, 289.8927352153696, -58.10495566157624, 238.91228896938264, -24.460815660189837, -0.04800000227987766, -0.06400000303983688, 1.0400000493973494, 0.0, 0.0, 0.0, 0.0, 0.0, 1.7622067349090147E9, 0.0, 2025-11-03 16:52:14.909
40.0, 252.68447055621073, -76.57632154272869, 215.75108854379505, -44.16260862676427, -0.04800000227987766, -0.06400000303983688, 1.0400000493973494, 0.0, 0.0, 0.0, 0.0, 0.0, 1.7622067349090147E9, 0.0, 2025-11-03 16:52:14.909
41.0, 238.38309312565252, -93.63400524063036, 201.21409741602838, -59.118468549568206, -0.04800000227987766, -0.06400000303983688, 1.0400000493973494, 0.0, 0.0, 0.0, 0.0, 0.0, 1.762206734941079E9, 0.0, 2025-11-03 16:52:14.941
41.0, 300.57388948882, -41.836390854325145, 259.3807614268735, -3.4799769087694585, -0.04800000227987766, -0.06400000303983688, 1.0400000493973494, 0.0, 0.0, 0.0, 0.0, 0.0, 1.762206734941079E9, 0.0, 2025-11-03 16:52:14.941
42.0, 292.5966828833334, -36.634190015960485, 264.66524006426334, 7.328333963174373, -0.04800000227987766, -0.06400000303983688, 1.0400000493973494, 0.0, 0.0, 0.0, 0.0, 0.0, 1.76220673494178E9, 0.0, 2025-11-03 16:52:14.941
42.0, 245.82923393743113, -81.02306259004399, 216.45792963542044, -43.16779523855075, -0.04800000227987766, -0.06400000303983688, 1.0400000493973494, 0.0, 0.0, 0.0, 0.0, 0.0, 1.76220673494178E9, 0.0, 2025-11-03 16:52:14.941
43.0, 277.39024966349825, -55.47954589268193, 248.60610965453088, -0.4992766440846026, -0.04800000227987766, -0.06400000303983688, 1.0400000493973494, 0.0, 0.0, 0.0, 0.0, 0.0, 1.7622067349425492E9, 0.0, 2025-11-03 16:52:14.942
43.0, 312.8744204430841, -23.5856790705584, 283.5891338400543, 16.76410155138001, -0.04800000227987766, -0.06400000303983688, 1.0400000493973494, 0.0, 0.0, 0.0, 0.0, 0.0, 1.7622067349425492E9, 0.0, 2025-11-03 16:52:14.942
44.0, 263.6648168261163, -64.0850556907244, 232.8162520416081, -32.643716763239354, -0.04800000227987766, -0.06400000303983688, 1.0400000493973494, 0.0, 0.0, 0.0, 0.0, 0.0, 1.762206734943278E9, 0.0, 2025-11-03 16:52:14.943
44.0, 276.5525120734237, -63.194959501270205, 236.84412429388613, -30.197822192218155, -0.04800000227987766, -0.06400000303983688, 1.0400000493973494, 0.0, 0.0, 0.0, 0.0, 0.0, 1.762206734943278E9, 0.0, 2025-11-03 16:52:14.943
45.0, 325.6985373911448, -9.961223531980067, 294.4311038115993, 26.603778334800154, -0.04800000227987766, -0.06400000303983688, 1.0400000493973494, 0.0, 0.0, 0.0, 0.0, 0.0, 1.762206734954054E9, 0.0, 2025-11-03 16:52:14.954
45.0, 251.79063446680084, -68.00073094433174, 227.76364720147103, -35.788972625974566, -0.04800000227987766, -0.06400000303983688, 1.0400000493973494, 0.0, 0.0, 0.0, 0.0, 0.0, 1.762206734954054E9, 0.0, 2025-11-03 16:52:14.954
46.0, 239.99125010659918, -84.81906104506925, 212.92372417729348, -52.0425778334029, -0.04800000227987766, -0.06400000303983688, 1.0400000493973494, 0.0, 0.0, 0.0, 0.0, 0.0, 1.762206734969135E9, 0.0, 2025-11-03 16:52:14.969
46.0, 300.6000687885098, -33.51137355295941, 267.0251169363037, 1.8568603280000389, -0.04800000227987766, -0.06400000303983688, 1.0400000493973494, 0.0, 0.0, 0.0, 0.0, 0.0, 1.762206734969135E9, 0.0, 2025-11-03 16:52:14.969
47.0, 284.2941049817018, -35.53839932894334, 261.92389339674264, -0.6937514417804778, -0.04800000227987766, -0.06400000303983688, 1.0400000493973494, 0.0, 0.0, 0.0, 0.0, 0.0, 1.7622067349848504E9, 0.0, 2025-11-03 16:52:14.984
47.0, 244.2435163562186, -69.81832232279703, 223.57495925109833, -33.64974985131994, -0.04800000227987766, -0.06400000303983688, 1.0400000493973494, 0.0, 0.0, 0.0, 0.0, 0.0, 1.7622067349848504E9, 0.0, 2025-11-03 16:52:14.984
48.0, 277.9213154572062, -51.82940353592858, 241.8219311349094, -28.937475907150656, -0.04800000227987766, -0.06400000303983688, 1.0400000493973494, 0.0, 0.0, 0.0, 0.0, 0.0, 1.7622067349854653E9, 0.0, 2025-11-03 16:52:14.985
48.0, 298.5019849133678, -35.29156593186781, 263.6367675764486, 0.15894574811682105, -0.04800000227987766, -0.06400000303983688, 1.0400000493973494, 0.0, 0.0, 0.0, 0.0, 0.0, 1.7622067349854653E9, 0.0, 2025-11-03 16:52:14.985
49.0, 237.5004767361097, -84.3927124501206, 213.2902343729511, -49.069357368629426, -0.04800000227987766, -0.06400000303983688, 1.0400000493973494, 0.0, 0.0, 0.0, 0.0, 0.0, 1.762206734999071E9, 0.0, 2025-11-03 16:52:14.999
49.0, 246.68193112732843, -80.87720649177209, 212.1420850865543, -42.88730274187401, -0.04800000227987766, -0.06400000303983688, 1.0400000493973494, 0.0, 0.0, 0.0, 0.0, 0.0, 1.762206734999071E9, 0.0, 2025-11-03 16:52:14.999
50.0, 293.35588257433847, -43.96065402915701, 251.42973412107676, -8.136152353603393, -0.04800000227987766, -0.06400000303983688, 1.0240000486373901, 0.0, 0.0, 0.0, 0.0, 0.0, 1.762206735014744E9, 0.0, 2025-11-03 16:52:15.014
50.0, 246.22566333273426, -87.24999601626769, 207.7626622384414, -45.7071873084642, -0.04800000227987766, -0.06400000303983688, 1.0240000486373901, 0.0, 0.0, 0.0, 0.0, 0.0, 1.762206735014744E9, 0.0, 2025-11-03 16:52:15.014
51.0, 225.70109237590805, -116.08088477468118, 179.32820287533104, -69.17131963046268, -0.04800000227987766, -0.06400000303983688, 1.0240000486373901, 0.0, 0.0, 0.0, 0.0, 0.0, 1.7622067350154407E9, 0.0, 2025-11-03 16:52:15.015
51.0, 266.9297494874336, -77.41031923284754, 227.63649060297757, -21.96256248978898, -0.04800000227987766, -0.06400000303983688, 1.0240000486373901, 0.0, 0.0, 0.0, 0.0, 0.0, 1.7622067350154407E9, 0.0, 2025-11-03 16:52:15.015
52.0, 262.12771794432774, -75.43191215628758, 226.78005351312459, -28.499907612334937, -0.04800000227987766, -0.06400000303983688, 1.0240000486373901, 0.0, 0.0, 0.0, 0.0, 0.0, 1.7622067350290449E9, 0.0, 2025-11-03 16:52:15.029
52.0, 226.48273146664724, -102.97627532994375, 192.1672794232145, -53.40764131722972, -0.04800000227987766, -0.06400000303983688, 1.0240000486373901, 0.0, 0.0, 0.0, 0.0, 0.0, 1.7622067350290449E9, 0.0, 2025-11-03 16:52:15.029
53.0, 263.4329430288635, -68.87960743391886, 228.49666759278625, -23.350065373349935, -0.04800000227987766, -0.06400000303983688, 1.0240000486373901, 0.0, 0.0, 0.0, 0.0, 0.0, 1.762206735044756E9, 0.0, 2025-11-03 16:52:15.044
53.0, 299.3359826034866, -37.70754130324349, 266.06396264769137, 10.069680630695075, -0.04800000227987766, -0.06400000303983688, 1.0240000486373901, 0.0, 0.0, 0.0, 0.0, 0.0, 1.762206735044756E9, 0.0, 2025-11-03 16:52:15.044
54.0, 246.77542862622067, -82.99024996673688, 214.34862606041133, -34.9250557362102, -0.04800000227987766, -0.06400000303983688, 1.0240000486373901, 0.0, 0.0, 0.0, 0.0, 0.0, 1.762206735045426E9, 0.0, 2025-11-03 16:52:15.045
54.0, 251.82055366644636, -77.02884943736717, 219.176836903207, -32.247287367936224, -0.04800000227987766, -0.06400000303983688, 1.0240000486373901, 0.0, 0.0, 0.0, 0.0, 0.0, 1.762206735045426E9, 0.0, 2025-11-03 16:52:15.045
55.0, 297.73904532240704, -29.001054206397384, 270.8285951912403, 11.819953809957951, -0.04800000227987766, -0.06400000303983688, 1.0240000486373901, 0.0, 0.0, 0.0, 0.0, 0.0, 1.762206735059106E9, 0.0, 2025-11-03 16:52:15.059
55.0, 246.59217352839187, -72.65690638916567, 228.30219279509038, -26.592558634933084, -0.04800000227987766, -0.06400000303983688, 1.0240000486373901, 0.0, 0.0, 0.0, 0.0, 0.0, 1.762206735059106E9, 0.0, 2025-11-03 16:52:15.059
56.0, 228.02731014834717, -93.30489404452965, 203.79462838545442, -40.37408997165039, -0.04800000227987766, -0.06400000303983688, 1.0240000486373901, 0.0, 0.0, 0.0, 0.0, 0.0, 1.7622067350747447E9, 0.0, 2025-11-03 16:52:15.074
56.0, 280.2550130295567, -53.579676715191454, 251.35493612196296, -8.035175054799765, -0.04800000227987766, -0.06400000303983688, 1.0240000486373901, 0.0, 0.0, 0.0, 0.0, 0.0, 1.7622067350747447E9, 0.0, 2025-11-03 16:52:15.074
57.0, 270.8790838406421, -53.62081561470404, 253.83074989262968, -4.927318191621453, -0.04800000227987766, -0.06400000303983688, 1.0240000486373901, 0.0, 0.0, 0.0, 0.0, 0.0, 1.762206735075455E9, 0.0, 2025-11-03 16:52:15.075
57.0, 229.0483028362505, -92.36243925569579, 209.08658682275563, -40.58352436916903, -0.04800000227987766, -0.06400000303983688, 1.0240000486373901, 0.0, 0.0, 0.0, 0.0, 0.0, 1.762206735075455E9, 0.0, 2025-11-03 16:52:15.075
58.0, 253.68676374433562, -75.81712185172364, 229.88043057639152, -21.57361289439723, -0.04800000227987766, -0.06400000303983688, 1.0240000486373901, 0.0, 0.0, 0.0, 0.0, 0.0, 1.7622067350890715E9, 0.0, 2025-11-03 16:52:15.089
58.0, 293.0417309780605, -37.030619411263615, 272.06650207657367, 22.987295077648014, -0.04800000227987766, -0.06400000303983688, 1.0240000486373901, 0.0, 0.0, 0.0, 0.0, 0.0, 1.7622067350890715E9, 0.0, 2025-11-03 16:52:15.089
59.0, 234.7628699685447, -88.31586750363931, 214.77497465535998, -28.499907612334937, -0.04800000227987766, -0.06400000303983688, 1.0240000486373901, 0.0, 0.0, 0.0, 0.0, 0.0, 1.7622067351047318E9, 0.0, 2025-11-03 16:52:15.104
59.0, 236.77119624475017, -88.58514030044898, 211.48012279439718, -30.175382792484015, -0.04800000227987766, -0.06400000303983688, 1.0240000486373901, 0.0, 0.0, 0.0, 0.0, 0.0, 1.7622067351047318E9, 0.0, 2025-11-03 16:52:15.104
60.0, 305.96308532496914, -27.793066520709544, 278.37945320177823, 39.35309728374705, -0.04800000227987766, -0.06400000303983688, 1.0400000493973494, 0.0, 0.0, 0.0, 0.0, 0.0, 1.762206735105445E9, 0.0, 2025-11-03 16:52:15.105
60.0, 248.11057291040197, -75.19255855912343, 223.3243859540671, -23.675436669494957, -0.04800000227987766, -0.06400000303983688, 1.0400000493973494, 0.0, 0.0, 0.0, 0.0, 0.0, 1.762206735105445E9, 0.0, 2025-11-03 16:52:15.105
61.0, 233.36788728507236, -96.74186210380867, 202.33232750277966, -43.18275483837351, -0.04800000227987766, -0.06400000303983688, 1.0400000493973494, 0.0, 0.0, 0.0, 0.0, 0.0, 1.7622067351191304E9, 0.0, 2025-11-03 16:52:15.119
61.0, 280.0792377316393, -64.0102576916106, 236.52997269760817, -9.344140039291233, -0.04800000227987766, -0.06400000303983688, 1.0400000493973494, 0.0, 0.0, 0.0, 0.0, 0.0, 1.7622067351191304E9, 0.0, 2025-11-03 16:52:15.119
62.0, 255.0256479284726, -76.14249314786866, 228.35455139447004, -19.606425517704338, -0.04800000227987766, -0.06400000303983688, 1.0400000493973494, 0.0, 0.0, 0.0, 0.0, 0.0, 1.7622067351347852E9, 0.0, 2025-11-03 16:52:15.134
62.0, 228.95480533735827, -97.42252389574423, 202.9082720959559, -44.38326272414997, -0.04800000227987766, -0.06400000303983688, 1.0400000493973494, 0.0, 0.0, 0.0, 0.0, 0.0, 1.7622067351347852E9, 0.0, 2025-11-03 16:52:15.134
63.0, 262.50170793989673, -75.64134655380622, 223.844232047908, -23.656737169716507, -0.04800000227987766, -0.06400000303983688, 1.0400000493973494, 0.0, 0.0, 0.0, 0.0, 0.0, 1.7622067351354413E9, 0.0, 2025-11-03 16:52:15.135
63.0, 296.29170403955504, -35.766533226240426, 263.4946513781324, 15.428957267198712, -0.04800000227987766, -0.06400000303983688, 1.0400000493973494, 0.0, 0.0, 0.0, 0.0, 0.0, 1.7622067351354413E9, 0.0, 2025-11-03 16:52:15.135
64.0, 243.768549061846, -82.77707566926256, 216.3270331369713, -30.235221191775054, -0.04800000227987766, -0.06400000303983688, 1.0400000493973494, 0.0, 0.0, 0.0, 0.0, 0.0, 1.7622067351492178E9, 0.0, 2025-11-03 16:52:15.149
64.0, 242.18657138058916, -85.32768743904307, 215.6987299444154, -30.246440891642123, -0.04800000227987766, -0.06400000303983688, 1.0400000493973494, 0.0, 0.0, 0.0, 0.0, 0.0, 1.7622067351492178E9, 0.0, 2025-11-03 16:52:15.149
65.0, 294.7172061582096, -44.323424324858934, 255.76053826976568, 2.9152520154602826, -0.04800000227987766, -0.06400000303983688, 1.0400000493973494, 0.0, 0.0, 0.0, 0.0, 0.0, 1.7622067351647525E9, 0.0, 2025-11-03 16:52:15.164
65.0, 243.6152131636627, -79.40368590923026, 217.3966445242986, -33.047625958453864, -0.04800000227987766, -0.06400000303983688, 1.0400000493973494, 0.0, 0.0, 0.0, 0.0, 0.0, 1.7622067351647525E9, 0.0, 2025-11-03 16:52:15.164
66.0, 230.11043442366645, -96.45388980722055, 207.6542051397264, -40.635882968548685, -0.04800000227987766, -0.06400000303983688, 1.0400000493973494, 0.0, 0.0, 0.0, 0.0, 0.0, 1.7622067351654787E9, 0.0, 2025-11-03 16:52:15.165
66.0, 293.3708421741612, -36.581831416580826, 268.4911577189341, 17.10817234730348, -0.04800000227987766, -0.06400000303983688, 1.0400000493973494, 0.0, 0.0, 0.0, 0.0, 0.0, 1.7622067351654787E9, 0.0, 2025-11-03 16:52:15.165
67.0, 282.977660197299, -39.31569828419015, 265.9854247486219, 13.802100786473602, -0.04800000227987766, -0.06400000303983688, 1.0400000493973494, 0.0, 0.0, 0.0, 0.0, 0.0, 1.762206735179077E9, 0.0, 2025-11-03 16:52:15.179
67.0, 234.0186298773624, -85.34264703886583, 216.7309423321858, -28.03989991778508, -0.04800000227987766, -0.06400000303983688, 1.0400000493973494, 0.0, 0.0, 0.0, 0.0, 0.0, 1.762206735179077E9, 0.0, 2025-11-03 16:52:15.179
68.0, 263.53018042771146, -63.79334349418059, 241.31704464089125, -14.871712173800915, -0.04800000227987766, -0.06400000303983688, 1.0400000493973494, 0.0, 0.0, 0.0, 0.0, 0.0, 1.762206735194743E9, 0.0, 2025-11-03 16:52:15.194
68.0, 292.4171676854603, -26.880530931521207, 278.89555939566344, 26.82443243218586, -0.04800000227987766, -0.06400000303983688, 1.0400000493973494, 0.0, 0.0, 0.0, 0.0, 0.0, 1.762206735194743E9, 0.0, 2025-11-03 16:52:15.194
69.0, 243.26366256782785, -71.67331270081922, 229.49522088095546, -19.008041524793953, -0.04800000227987766, -0.06400000303983688, 1.0400000493973494, 0.0, 0.0, 0.0, 0.0, 0.0, 1.7622067351954343E9, 0.0, 2025-11-03 16:52:15.195
69.0, 239.9463713071309, -83.55123496009037, 217.3592455247417, -31.61898417538032, -0.04800000227987766, -0.06400000303983688, 1.0400000493973494, 0.0, 0.0, 0.0, 0.0, 0.0, 1.7622067351954343E9, 0.0, 2025-11-03 16:52:15.195
70.0, 288.65856822999194, -42.31883794860914, 269.1232008114457, 18.218922634143382, -0.04800000227987766, -0.06400000303983688, 1.0400000493973494, 0.0, 0.0, 0.0, 0.0, 0.0, 1.7622067352090683E9, 0.0, 2025-11-03 16:52:15.209
70.0, 230.0580758242868, -84.75922264577821, 218.07730631623417, -29.11699110502377, -0.04800000227987766, -0.06400000303983688, 1.0400000493973494, 0.0, 0.0, 0.0, 0.0, 0.0, 1.7622067352090683E9, 0.0, 2025-11-03 16:52:15.209
71.0, 231.66997270518914, -90.9898959719576, 208.89585192501545, -35.33644473133609, -0.04800000227987766, -0.06400000303983688, 1.0400000493973494, 0.0, 0.0, 0.0, 0.0, 0.0, 1.7622067352249255E9, 0.0, 2025-11-03 16:52:15.224
71.0, 288.1162827364169, -42.75640624342486, 264.1940126698464, 19.804640215355903, -0.04800000227987766, -0.06400000303983688, 1.0400000493973494, 0.0, 0.0, 0.0, 0.0, 0.0, 1.7622067352249255E9, 0.0, 2025-11-03 16:52:15.224
72.0, 279.45841433899477, -47.27420538989827, 249.61588264256716, -5.140492489095777, -0.04800000227987766, -0.06400000303983688, 1.0400000493973494, 0.0, 0.0, 0.0, 0.0, 0.0, 1.762206735225459E9, 0.0, 2025-11-03 16:52:15.225
72.0, 224.8259557862766, -96.68202370451763, 199.34040753822774, -50.16888795560226, -0.04800000227987766, -0.06400000303983688, 1.0400000493973494, 0.0, 0.0, 0.0, 0.0, 0.0, 1.762206735225459E9, 0.0, 2025-11-03 16:52:15.225
73.0, 243.05422817030922, -82.76585596939549, 218.4737357115373, -30.80368598503992, -0.04800000227987766, -0.06400000303983688, 1.0400000493973494, 0.0, 0.0, 0.0, 0.0, 0.0, 1.7622067352390776E9, 0.0, 2025-11-03 16:52:15.239
73.0, 265.4375294051133, -61.84859551722184, 244.20050750672817, -6.165225076954812, -0.04800000227987766, -0.06400000303983688, 1.0400000493973494, 0.0, 0.0, 0.0, 0.0, 0.0, 1.7622067352390776E9, 0.0, 2025-11-03 16:52:15.239
74.0, 214.92644060356542, -104.6629702099599, 196.67759876977652, -49.3386301654391, -0.04800000227987766, -0.06400000303983688, 1.0400000493973494, 0.0, 0.0, 0.0, 0.0, 0.0, 1.762206735254729E9, 0.0, 2025-11-03 16:52:15.254
74.0, 235.23035746300593, -94.0266947359778, 206.10962645802647, -41.75037315534428, -0.04800000227987766, -0.06400000303983688, 1.0400000493973494, 0.0, 0.0, 0.0, 0.0, 0.0, 1.762206735254729E9, 0.0, 2025-11-03 16:52:15.254
75.0, 290.0049322140403, -39.76822617882863, 262.61951478850096, 13.663724488113075, -0.04800000227987766, -0.06400000303983688, 1.0400000493973494, 0.0, 0.0, 0.0, 0.0, 0.0, 1.7622067352554307E9, 0.0, 2025-11-03 16:52:15.255
75.0, 252.74430895550177, -67.98951124446467, 229.5513193802908, -12.564193901140243, -0.04800000227987766, -0.06400000303983688, 1.0400000493973494, 0.0, 0.0, 0.0, 0.0, 0.0, 1.7622067352554307E9, 0.0, 2025-11-03 16:52:15.255
76.0, 237.78844903269783, -83.15480556478724, 214.57302005775273, -28.615844510961324, -0.04800000227987766, -0.06400000303983688, 1.0400000493973494, 0.0, 0.0, 0.0, 0.0, 0.0, 1.7622067352692883E9, 0.0, 2025-11-03 16:52:15.269
76.0, 283.88271598657593, -42.73396684369072, 259.77345092222095, 10.611966124270111, -0.04800000227987766, -0.06400000303983688, 1.0400000493973494, 0.0, 0.0, 0.0, 0.0, 0.0, 1.7622067352692883E9, 0.0, 2025-11-03 16:52:15.269
77.0, 304.00337774818763, -20.186110010836273, 289.2102034734562, 43.39218923589215, -0.04800000227987766, -0.06400000303983688, 1.0400000493973494, 0.0, 0.0, 0.0, 0.0, 0.0, 1.7622067352847311E9, 0.0, 2025-11-03 16:52:15.284
77.0, 269.83565175300464, -55.8236166886054, 248.0114655615762, -5.03577529033646, -0.04800000227987766, -0.06400000303983688, 1.0400000493973494, 0.0, 0.0, 0.0, 0.0, 0.0, 1.7622067352847311E9, 0.0, 2025-11-03 16:52:15.284
78.0, 281.530318914447, -51.103862944524735, 252.91821430344135, 3.8539669043384492, -0.04800000227987766, -0.06400000303983688, 1.0400000493973494, 0.0, 0.0, 0.0, 0.0, 0.0, 1.7622067352854328E9, 0.0, 2025-11-03 16:52:15.285
78.0, 305.33104223245755, -29.19178910413757, 277.85212730802596, 28.84023850830272, -0.04800000227987766, -0.06400000303983688, 1.0400000493973494, 0.0, 0.0, 0.0, 0.0, 0.0, 1.7622067352854328E9, 0.0, 2025-11-03 16:52:15.285
79.0, 234.0971677764319, -79.88239310355857, 219.11699850391597, -21.296860297676176, -0.04800000227987766, -0.06400000303983688, 1.0400000493973494, 0.0, 0.0, 0.0, 0.0, 0.0, 1.7622067352990277E9, 0.0, 2025-11-03 16:52:15.299
79.0, 233.3491877852939, -89.35181979136541, 209.86074611358345, -27.692089221905917, -0.04800000227987766, -0.06400000303983688, 1.0400000493973494, 0.0, 0.0, 0.0, 0.0, 0.0, 1.7622067352990277E9, 0.0, 2025-11-03 16:52:15.299
80.0, 300.6412076880224, -30.77002688543871, 271.7149514807388, 21.300600197631866, -0.04800000227987766, -0.06400000303983688, 1.0400000493973494, 0.0, 0.0, 0.0, 0.0, 0.0, 1.7622067353147926E9, 0.0, 2025-11-03 16:52:15.314
80.0, 253.33521314850077, -66.51973056187853, 233.57545173261315, -17.95712963724509, -0.04800000227987766, -0.06400000303983688, 1.0400000493973494, 0.0, 0.0, 0.0, 0.0, 0.0, 1.7622067353147926E9, 0.0, 2025-11-03 16:52:15.314
81.0, 231.44183880789205, -88.95913029601797, 208.0581143349409, -34.88017693674192, -0.04800000227987766, -0.04800000227987766, 1.0400000493973494, 0.0, 0.0, 0.0, 0.0, 0.0, 1.762206735315442E9, 0.0, 2025-11-03 16:52:15.315
81.0, 282.61488990159705, -46.08117730403319, 252.73869910556823, 3.984863402787596, -0.04800000227987766, -0.04800000227987766, 1.0400000493973494, 0.0, 0.0, 0.0, 0.0, 0.0, 1.762206735315442E9, 0.0, 2025-11-03 16:52:15.315
82.0, 276.6609691721387, -42.90226234169677, 256.2616848638281, 9.561054236721247, -0.04800000227987766, -0.04800000227987766, 1.0400000493973494, 0.0, 0.0, 0.0, 0.0, 0.0, 1.7622067353454864E9, 0.0, 2025-11-03 16:52:15.345
82.0, 222.5333971134387, -94.22116953367367, 202.18273150455207, -40.90515576535836, -0.04800000227987766, -0.04800000227987766, 1.0400000493973494, 0.0, 0.0, 0.0, 0.0, 0.0, 1.7622067353454864E9, 0.0, 2025-11-03 16:52:15.345
83.0, 265.9685951988213, -64.32814918784425, 236.62347019650042, -4.411211997736245, -0.04800000227987766, -0.04800000227987766, 1.0400000493973494, 0.0, 0.0, 0.0, 0.0, 0.0, 1.7622067353461497E9, 0.0, 2025-11-03 16:52:15.346
83.0, 320.6870714505203, -10.64562522387132, 297.9279102701694, 54.6380684026517, -0.04800000227987766, -0.04800000227987766, 1.0400000493973494, 0.0, 0.0, 0.0, 0.0, 0.0, 1.7622067353461497E9, 0.0, 2025-11-03 16:52:15.346
84.0, 242.5044628768228, -80.43589829700068, 219.8088799957186, -19.08657942386344, -0.04800000227987766, -0.04800000227987766, 1.0400000493973494, 0.0, 0.0, 0.0, 0.0, 0.0, 1.7622067353469408E9, 0.0, 2025-11-03 16:52:15.346
84.0, 233.4613847839646, -92.01088865986094, 205.3205075673759, -36.00214692344889, -0.04800000227987766, -0.04800000227987766, 1.0400000493973494, 0.0, 0.0, 0.0, 0.0, 0.0, 1.7622067353469408E9, 0.0, 2025-11-03 16:52:15.346
85.0, 301.1722734817304, -35.32148513151333, 274.19076525140554, 27.52379372389987, -0.04800000227987766, -0.04800000227987766, 1.0400000493973494, 0.0, 0.0, 0.0, 0.0, 0.0, 1.7622067353590283E9, 0.0, 2025-11-03 16:52:15.359
85.0, 249.41953789489344, -70.61492101335898, 231.43248905800283, -10.843839921522886, -0.04800000227987766, -0.04800000227987766, 1.0400000493973494, 0.0, 0.0, 0.0, 0.0, 0.0, 1.7622067353590283E9, 0.0, 2025-11-03 16:52:15.359
86.0, 216.4523197854869, -104.13190441625193, 199.37032673787326, -48.729026472661644, -0.04800000227987766, -0.04800000227987766, 1.0400000493973494, 0.0, 0.0, 0.0, 0.0, 0.0, 1.7622067353916764E9, 0.0, 2025-11-03 16:52:15.391
86.0, 270.05630585039034, -62.764871006365865, 250.32646363414824, 4.519669096451253, -0.04800000227987766, -0.04800000227987766, 1.0400000493973494, 0.0, 0.0, 0.0, 0.0, 0.0, 1.7622067353916764E9, 0.0, 2025-11-03 16:52:15.391
87.0, 263.4479026286863, -62.69007300725207, 246.46314697992057, 4.852520192507654, -0.04800000227987766, -0.04800000227987766, 1.0400000493973494, 0.0, 0.0, 0.0, 0.0, 0.0, 1.7622067353922236E9, 0.0, 2025-11-03 16:52:15.392
87.0, 218.07917626621202, -98.94840307766572, 207.8374602375552, -35.49352052947506, -0.04800000227987766, -0.04800000227987766, 1.0400000493973494, 0.0, 0.0, 0.0, 0.0, 0.0, 1.7622067353922236E9, 0.0, 2025-11-03 16:52:15.392
88.0, 239.62847981089726, -83.85790675645694, 229.53261988051236, -10.881238921079785, -0.04800000227987766, -0.04800000227987766, 1.0400000493973494, 0.0, 0.0, 0.0, 0.0, 0.0, 1.7622067353930695E9, 0.0, 2025-11-03 16:52:15.393
88.0, 297.039684030693, -29.745294297579676, 283.5479949405417, 37.92071560071781, -0.04800000227987766, -0.04800000227987766, 1.0400000493973494, 0.0, 0.0, 0.0, 0.0, 0.0, 1.7622067353930695E9, 0.0, 2025-11-03 16:52:15.393
89.0, 234.00367027753964, -85.18183134077117, 220.51946098729968, -22.29167368588969, -0.04800000227987766, -0.04800000227987766, 1.0400000493973494, 0.0, 0.0, 0.0, 0.0, 0.0, 1.7622067354049904E9, 0.0, 2025-11-03 16:52:15.404
89.0, 231.25484381010756, -92.53821455361322, 214.23642906174064, -23.623078070115298, -0.04800000227987766, -0.04800000227987766, 1.0400000493973494, 0.0, 0.0, 0.0, 0.0, 0.0, 1.7622067354049904E9, 0.0, 2025-11-03 16:52:15.404
90.0, 304.3586682439782, -35.13075023377314, 275.7203843332827, 19.97293571336195, -0.04800000227987766, -0.04800000227987766, 1.0400000493973494, 0.0, 0.0, 0.0, 0.0, 0.0, 1.7622067354054687E9, 0.0, 2025-11-03 16:52:15.405
90.0, 236.4981835479848, -81.0567216896452, 222.01916086953133, -19.95049631362781, -0.04800000227987766, -0.04800000227987766, 1.0400000493973494, 0.0, 0.0, 0.0, 0.0, 0.0, 1.7622067354054687E9, 0.0, 2025-11-03 16:52:15.405
91.0, 219.66489384742454, -98.70904948050156, 203.5739742880687, -36.88102341303602, -0.04800000227987766, -0.04800000227987766, 1.0400000493973494, 0.0, 0.0, 0.0, 0.0, 0.0, 1.762206735419184E9, 0.0, 2025-11-03 16:52:15.419
91.0, 290.6369753065519, -40.13473637448624, 268.0087106246501, 20.27586760977283, -0.04800000227987766, -0.04800000227987766, 1.0400000493973494, 0.0, 0.0, 0.0, 0.0, 0.0, 1.762206735419184E9, 0.0, 2025-11-03 16:52:15.419
92.0, 270.09370484994724, -54.51091180415824, 253.827009992674, 13.970396284479648, -0.04800000227987766, -0.04800000227987766, 1.0400000493973494, 0.0, 0.0, 0.0, 0.0, 0.0, 1.762206735434852E9, 0.0, 2025-11-03 16:52:15.434
92.0, 217.39103467436507, -105.50444769999012, 196.98801046609879, -46.57110419822857, -0.04800000227987766, -0.04800000227987766, 1.0400000493973494, 0.0, 0.0, 0.0, 0.0, 0.0, 1.762206735434852E9, 0.0, 2025-11-03 16:52:15.434
93.0, 248.97822970012203, -79.70287790568545, 228.53032669238746, -14.27332818089053, -0.04800000227987766, -0.04800000227987766, 1.0400000493973494, 0.0, 0.0, 0.0, 0.0, 0.0, 1.762206735435478E9, 0.0, 2025-11-03 16:52:15.435
93.0, 300.4878717898391, -27.793066520709544, 277.863347007893, 31.910696371924132, -0.04800000227987766, -0.04800000227987766, 1.0400000493973494, 0.0, 0.0, 0.0, 0.0, 0.0, 1.762206735435478E9, 0.0, 2025-11-03 16:52:15.435
94.0, 210.24408585904166, -107.15374358044937, 203.92178498394787, -39.73830697918311, -0.04800000227987766, -0.04800000227987766, 1.0400000493973494, 0.0, 0.0, 0.0, 0.0, 0.0, 1.762206735449248E9, 0.0, 2025-11-03 16:52:15.449
94.0, 221.1608538297005, -101.83934574341401, 197.2797226626426, -53.123408920597285, -0.04800000227987766, -0.04800000227987766, 1.0400000493973494, 0.0, 0.0, 0.0, 0.0, 0.0, 1.762206735449248E9, 0.0, 2025-11-03 16:52:15.449
95.0, 296.7517117341049, -34.68570213904604, 271.10534778796136, 21.633451293688267, -0.04800000227987766, -0.04800000227987766, 1.0400000493973494, 0.0, 0.0, 0.0, 0.0, 0.0, 1.7622067354648185E9, 0.0, 2025-11-03 16:52:15.464
95.0, 224.66140018822625, -91.48730266606435, 211.27442829683423, -38.37324349535629, -0.04800000227987766, -0.04800000227987766, 1.0400000493973494, 0.0, 0.0, 0.0, 0.0, 0.0, 1.7622067354648185E9, 0.0, 2025-11-03 16:52:15.464
96.0, 203.2280335421674, -120.06761812744662, 183.7562444228679, -59.43262014584616, -0.04800000227987766, -0.04800000227987766, 1.0400000493973494, 0.0, 0.0, 0.0, 0.0, 0.0, 1.7622067354654517E9, 0.0, 2025-11-03 16:52:15.465
96.0, 271.67942243115976, -54.86620229994878, 252.48064600862563, 14.748295475263149, -0.04800000227987766, -0.04800000227987766, 1.0400000493973494, 0.0, 0.0, 0.0, 0.0, 0.0, 1.7622067354654517E9, 0.0, 2025-11-03 16:52:15.465
97.0, 262.3969907411374, -56.05923038581386, 247.10266987234354, 1.6773451301269233, -0.04800000227987766, -0.04800000227987766, 1.0400000493973494, 0.0, 0.0, 0.0, 0.0, 0.0, 1.7622067354791849E9, 0.0, 2025-11-03 16:52:15.479
97.0, 213.7820312171243, -101.18486325116828, 199.45634443685412, -49.02447856916115, -0.04800000227987766, -0.04800000227987766, 1.0400000493973494, 0.0, 0.0, 0.0, 0.0, 0.0, 1.7622067354791849E9, 0.0, 2025-11-03 16:52:15.479
98.0, 255.0667868279852, -75.17759895930067, 233.8933432288468, -14.890411673579365, -0.04800000227987766, -0.04800000227987766, 1.0400000493973494, 0.0, 0.0, 0.0, 0.0, 0.0, 1.7622067354948733E9, 0.0, 2025-11-03 16:52:15.494
98.0, 299.69875289918855, -34.95123503590003, 275.18931853957474, 36.985740611795336, -0.04800000227987766, -0.04800000227987766, 1.0400000493973494, 0.0, 0.0, 0.0, 0.0, 0.0, 1.7622067354948733E9, 0.0, 2025-11-03 16:52:15.494
99.0, 219.9416464441456, -100.77721415599808, 199.5386222358793, -46.328010701108724, -0.04800000227987766, -0.04800000227987766, 1.0400000493973494, 0.0, 0.0, 0.0, 0.0, 0.0, 1.762206735495461E9, 0.0, 2025-11-03 16:52:15.495
99.0, 213.75959181739017, -108.24205446755514, 194.40373959671706, -44.74603301985189, -0.04800000227987766, -0.04800000227987766, 1.0400000493973494, 0.0, 0.0, 0.0, 0.0, 0.0, 1.762206735495461E9, 0.0, 2025-11-03 16:52:15.495
100.0, 312.863200743217, -15.840346262324601, 289.16158477403224, 40.254413173068315, -0.04800000227987766, -0.04800000227987766, 1.0400000493973494, 0.0, 0.0, 0.0, 0.0, 0.0, 1.7622067355097835E9, 0.0, 2025-11-03 16:52:15.509
100.0, 240.06604810571298, -76.090134548489, 229.37928398232907, -13.08403999498114, -0.04800000227987766, -0.04800000227987766, 1.0400000493973494, 0.0, 0.0, 0.0, 0.0, 0.0, 1.7622067355097835E9, 0.0, 2025-11-03 16:52:15.509
0.0, 211.79427439067513, -110.25038074376062, 190.41326634399593, -52.956983372569084, -0.04800000227987766, -0.04800000227987766, 1.0400000493973494, 0.0, 0.0, 0.0, 0.0, 0.0, 1.7622067355104537E9, 0.0, 2025-11-03 16:52:15.510
1.0, 294.15435121487826, -37.16525580966845, 275.4324120366946, 29.620007649064064, -0.04800000227987766, -0.06400000303983688, 1.0400000493973494, 0.0, 0.0, 0.0, 0.0, 0.0, 1.7622067355241308E9, 0.0, 2025-11-03 16:52:15.524
1.0, 270.77997649181634, -50.688734049443156, 257.0844628540799, 12.281831454485655, -0.04800000227987766, -0.06400000303983688, 1.0400000493973494, 0.0, 0.0, 0.0, 0.0, 0.0, 1.7622067355241308E9, 0.0, 2025-11-03 16:52:15.524
2.0, 211.26320859696716, -107.31081937858835, 191.29962263349444, -51.49468248989433, -0.04800000227987766, -0.06400000303983688, 1.0400000493973494, 0.0, 0.0, 0.0, 0.0, 0.0, 1.7622067355396366E9, 0.0, 2025-11-03 16:52:15.539
2.0, 250.98094612639397, -75.2374373585917, 227.87584420014173, -8.792504795826972, -0.04800000227987766, -0.06400000303983688, 1.0400000493973494, 0.0, 0.0, 0.0, 0.0, 0.0, 1.7622067355396366E9, 0.0, 2025-11-03 16:52:15.539
3.0, 301.0021080337465, -32.621277363505214, 275.56330853514373, 33.49080410320312, -0.04800000227987766, -0.06400000303983688, 1.0400000493973494, 0.0, 0.0, 0.0, 0.0, 0.0, 1.762206735554766E9, 0.0, 2025-11-03 16:52:15.554
3.0, 216.0278411405161, -104.68914950964972, 196.2400304749608, -48.75333582237363, -0.04800000227987766, -0.06400000303983688, 1.0400000493973494, 0.0, 0.0, 0.0, 0.0, 0.0, 1.762206735554766E9, 0.0, 2025-11-03 16:52:15.554
4.0, 227.82722550071776, -95.7657482153736, 208.6228392282501, -26.669226584024727, -0.04800000227987766, -0.06400000303983688, 1.0400000493973494, 0.0, 0.0, 0.0, 0.0, 0.0, 1.762206735555476E9, 0.0, 2025-11-03 16:52:15.555
4.0, 319.46225421503186, -19.774721015710384, 288.8810922773555, 45.245309663936496, -0.04800000227987766, -0.06400000303983688, 1.0400000493973494, 0.0, 0.0, 0.0, 0.0, 0.0, 1.762206735555476E9, 0.0, 2025-11-03 16:52:15.555
5.0, 250.1880873357877, -73.49090407928452, 226.74639441352338, -16.223686007782817, -0.04800000227987766, -0.06400000303983688, 1.0400000493973494, 0.0, 0.0, 0.0, 0.0, 0.0, 1.7622067355699613E9, 0.0, 2025-11-03 16:52:15.569
5.0, 201.71898391004652, -119.74598673125729, 185.15122710634023, -50.492389301769435, -0.04800000227987766, -0.06400000303983688, 1.0400000493973494, 0.0, 0.0, 0.0, 0.0, 0.0, 1.7622067355699613E9, 0.0, 2025-11-03 16:52:15.569
6.0, 276.07193492911756, -54.03220460982993, 253.44554019719362, 11.043924569152296, -0.04800000227987766, -0.06400000303983688, 1.0400000493973494, 0.0, 0.0, 0.0, 0.0, 0.0, 1.7622067355706525E9, 0.0, 2025-11-03 16:52:15.570
6.0, 270.8697340907529, -52.62974212644622, 253.46797959692776, 7.614436309784651, -0.04800000227987766, -0.06400000303983688, 1.0400000493973494, 0.0, 0.0, 0.0, 0.0, 0.0, 1.7622067355706525E9, 0.0, 2025-11-03 16:52:15.570
7.0, 221.58159257471561, -96.4351903074421, 203.2822620915249, -39.34374753385782, -0.04800000227987766, -0.06400000303983688, 1.0400000493973494, 0.0, 0.0, 0.0, 0.0, 0.0, 1.762206735584134E9, 0.0, 2025-11-03 16:52:15.584
7.0, 247.72349326498806, -78.27423612261191, 220.97572878189385, -30.267010341398418, -0.04800000227987766, -0.06400000303983688, 1.0400000493973494, 0.0, 0.0, 0.0, 0.0, 0.0, 1.762206735584134E9, 0.0, 2025-11-03 16:52:15.584
8.0, 307.786286553368, -23.15559057565406, 284.62882602773607, 41.640046106651425, -0.04800000227987766, -0.06400000303983688, 1.0400000493973494, 0.0, 0.0, 0.0, 0.0, 0.0, 1.762206735600236E9, 0.0, 2025-11-03 16:52:15.600
8.0, 220.41100388858467, -98.82872627908364, 205.92263146024197, -36.50890336744487, -0.04800000227987766, -0.06400000303983688, 1.0400000493973494, 0.0, 0.0, 0.0, 0.0, 0.0, 1.762206735600236E9, 0.0, 2025-11-03 16:52:15.600
9.0, 205.9076718604192, -114.86167738912627, 180.9400997562334, -63.58951894659549, -0.04800000227987766, -0.06400000303983688, 1.0400000493973494, 0.0, 0.0, 0.0, 0.0, 0.0, 1.762206735614787E9, 0.0, 2025-11-03 16:52:15.614
9.0, 297.7708344720304, -32.572658664081246, 278.7983219968155, 34.414559392258525, -0.04800000227987766, -0.06400000303983688, 1.0400000493973494, 0.0, 0.0, 0.0, 0.0, 0.0, 1.762206735614787E9, 0.0, 2025-11-03 16:52:15.614
10.0, 254.73580568190664, -64.0850556907244, 238.47472067456692, -2.662808768451214, -0.04800000227987766, -0.06400000303983688, 1.0400000493973494, 0.0, 0.0, 0.0, 0.0, 0.0, 1.7622067356154575E9, 0.0, 2025-11-03 16:52:15.615
10.0, 218.76544790808111, -102.8079798319377, 200.5371755240485, -39.197891435585916, -0.04800000227987766, -0.06400000303983688, 1.0400000493973494, 0.0, 0.0, 0.0, 0.0, 0.0, 1.7622067356154575E9, 0.0, 2025-11-03 16:52:15.615
11.0, 291.2970676487312, -38.982847188133746, 274.3889799490571, 29.182439354248345, -0.04800000227987766, -0.04800000227987766, 1.0400000493973494, 0.0, 0.0, 0.0, 0.0, 0.0, 1.762206735629848E9, 0.0, 2025-11-03 16:52:15.629
11.0, 278.93669829517603, -46.60850319778547, 262.9486259846017, 18.609742179512978, -0.04800000227987766, -0.04800000227987766, 1.0400000493973494, 0.0, 0.0, 0.0, 0.0, 0.0, 1.762206735629848E9, 0.0, 2025-11-03 16:52:15.629
12.0, 209.1015464225784, -104.37499791337177, 205.18213126901537, -34.29114269372076, -0.04800000227987766, -0.04800000227987766, 1.0400000493973494, 0.0, 0.0, 0.0, 0.0, 0.0, 1.7622067356304803E9, 0.0, 2025-11-03 16:52:15.630
12.0, 265.7273716516793, -57.955359663348645, 249.24937244690955, 6.473766823299229, -0.04800000227987766, -0.04800000227987766, 1.0400000493973494, 0.0, 0.0, 0.0, 0.0, 0.0, 1.7622067356304803E9, 0.0, 2025-11-03 16:52:15.630
13.0, 315.64755626022816, -11.980769508052617, 301.79122692439705, 52.04818768333644, -0.04800000227987766, -0.04800000227987766, 1.0400000493973494, 0.0, 0.0, 0.0, 0.0, 0.0, 1.7622067356441236E9, 0.0, 2025-11-03 16:52:15.644
13.0, 221.27118087839335, -96.58852620562539, 207.6916041392833, -38.57706804294139, -0.04800000227987766, -0.04800000227987766, 1.0400000493973494, 0.0, 0.0, 0.0, 0.0, 0.0, 1.7622067356441236E9, 0.0, 2025-11-03 16:52:15.644
14.0, 211.6596379922703, -109.61833765124902, 197.02540946565568, -45.630519359372556, -0.04800000227987766, -0.04800000227987766, 1.0400000493973494, 0.0, 0.0, 0.0, 0.0, 0.0, 1.7622067356598876E9, 0.0, 2025-11-03 16:52:15.659
14.0, 309.6225774316117, -29.58447859948501, 288.2939279843122, 38.049742149189115, -0.04800000227987766, -0.04800000227987766, 1.0400000493973494, 0.0, 0.0, 0.0, 0.0, 0.0, 1.7622067356598876E9, 0.0, 2025-11-03 16:52:15.659
15.0, 246.90445517469198, -65.58101567300037, 241.62745633721352, 6.290511725470424, -0.04800000227987766, -0.04800000227987766, 1.0400000493973494, 0.0, 0.0, 0.0, 0.0, 0.0, 1.762206735660615E9, 0.0, 2025-11-03 16:52:15.660
15.0, 206.6556518515572, -112.79351271362975, 192.11866072379053, -52.30998068023473, -0.04800000227987766, -0.04800000227987766, 1.0400000493973494, 0.0, 0.0, 0.0, 0.0, 0.0, 1.762206735660615E9, 0.0, 2025-11-03 16:52:15.660
16.0, 293.85515921842307, -31.65264327498153, 276.44218502473086, 33.5356829026714, -0.04800000227987766, -0.04800000227987766, 1.0400000493973494, 0.0, 0.0, 0.0, 0.0, 0.0, 1.7622067356742082E9, 0.0, 2025-11-03 16:52:15.674
16.0, 277.0181296179071, -40.35165057191625, 267.1260942351073, 17.173620596528053, -0.04800000227987766, -0.04800000227987766, 1.0400000493973494, 0.0, 0.0, 0.0, 0.0, 0.0, 1.7622067356742082E9, 0.0, 2025-11-03 16:52:15.674
17.0, 202.14533250499517, -112.67009601509199, 192.3131355214864, -58.33869940880686, -0.04800000227987766, -0.04800000227987766, 1.0400000493973494, 0.0, 0.0, 0.0, 0.0, 0.0, 1.7622067356899447E9, 0.0, 2025-11-03 16:52:15.689
17.0, 243.3777295164764, -83.0949671654962, 226.01711392216384, -21.77369754202664, -0.04800000227987766, -0.04800000227987766, 1.0400000493973494, 0.0, 0.0, 0.0, 0.0, 0.0, 1.7622067356899447E9, 0.0, 2025-11-03 16:52:15.689
18.0, 312.0460326028988, -16.838899550493807, 297.2135893786326, 49.247002616524696, -0.04800000227987766, -0.04800000227987766, 1.0400000493973494, 0.0, 0.0, 0.0, 0.0, 0.0, 1.7622067356905613E9, 0.0, 2025-11-03 16:52:15.690
18.0, 234.00554022751749, -75.0541822607629, 225.400030429475, -13.100869544781744, -0.04800000227987766, -0.04800000227987766, 1.0400000493973494, 0.0, 0.0, 0.0, 0.0, 0.0, 1.7622067356905613E9, 0.0, 2025-11-03 16:52:15.690
19.0, 234.05789882689714, -84.66572514688596, 221.09914548043162, -17.603709091432393, -0.04800000227987766, -0.04800000227987766, 1.0400000493973494, 0.0, 0.0, 0.0, 0.0, 0.0, 1.762206735704108E9, 0.0, 2025-11-03 16:52:15.704
19.0, 322.9254015740007, -11.44970371434465, 299.64078444987535, 52.85226617380977, -0.04800000227987766, -0.04800000227987766, 1.0400000493973494, 0.0, 0.0, 0.0, 0.0, 0.0, 1.762206735704108E9, 0.0, 2025-11-03 16:52:15.704
20.0, 231.86631745286286, -79.84125420404598, 224.4052170412615, -20.0832627620548, -0.04800000227987766, -0.04800000227987766, 1.0400000493973494, 0.0, 0.0, 0.0, 0.0, 0.0, 1.7622067357198436E9, 0.0, 2025-11-03 16:52:15.719
20.0, 215.97922244109213, -106.68999598594382, 197.30590196233243, -50.19693720526993, -0.04800000227987766, -0.04800000227987766, 1.0400000493973494, 0.0, 0.0, 0.0, 0.0, 0.0, 1.7622067357198436E9, 0.0, 2025-11-03 16:52:15.719
21.0, 283.70133083872497, -46.260692501906306, 264.00327777210623, 13.800230836495757, -0.04800000227987766, -0.04800000227987766, 1.0400000493973494, 0.0, 0.0, 0.0, 0.0, 0.0, 1.7622067357205389E9, 0.0, 2025-11-03 16:52:15.720
21.0, 283.2001842446625, -33.66096955118701, 272.7209845688194, 33.67405920103192, -0.04800000227987766, -0.04800000227987766, 1.0400000493973494, 0.0, 0.0, 0.0, 0.0, 0.0, 1.7622067357205389E9, 0.0, 2025-11-03 16:52:15.720
22.0, 219.04594040475786, -91.62193906446919, 209.10902622248977, -31.39272022806108, -0.04800000227987766, -0.04800000227987766, 1.0400000493973494, 0.0, 0.0, 0.0, 0.0, 0.0, 1.7622067357340968E9, 0.0, 2025-11-03 16:52:15.734
22.0, 247.95536706224084, -76.88673323905095, 229.41294308193028, -15.561723715625703, -0.04800000227987766, -0.04800000227987766, 1.0400000493973494, 0.0, 0.0, 0.0, 0.0, 0.0, 1.7622067357340968E9, 0.0, 2025-11-03 16:52:15.734
23.0, 302.7336817132309, -25.687502845656127, 285.6198995159939, 38.476090744137764, -0.04800000227987766, -0.04800000227987766, 1.0400000493973494, 0.0, 0.0, 0.0, 0.0, 0.0, 1.7622067357499058E9, 0.0, 2025-11-03 16:52:15.749
23.0, 216.9927353290841, -97.30284709716216, 205.63839906360954, -26.17555978987366, -0.04800000227987766, -0.04800000227987766, 1.0400000493973494, 0.0, 0.0, 0.0, 0.0, 0.0, 1.7622067357499058E9, 0.0, 2025-11-03 16:52:15.749
24.0, 227.61031130328774, -93.82100023841485, 207.2802151441574, -37.219484359025955, -0.04800000227987766, -0.04800000227987766, 1.0400000493973494, 0.0, 0.0, 0.0, 0.0, 0.0, 1.762206735750524E9, 0.0, 2025-11-03 16:52:15.750
24.0, 321.2200071942061, -11.49084261385724, 302.4494493165985, 51.307687492109835, -0.04800000227987766, -0.04800000227987766, 1.0400000493973494, 0.0, 0.0, 0.0, 0.0, 0.0, 1.762206735750524E9, 0.0, 2025-11-03 16:52:15.750
25.0, 240.97671374492347, -70.91411300981417, 240.8944359458983, -2.1018237750977278, -0.04800000227987766, -0.04800000227987766, 1.0400000493973494, 0.0, 0.0, 0.0, 0.0, 0.0, 1.7622067357641404E9, 0.0, 2025-11-03 16:52:15.764
25.0, 205.63839906360954, -103.06229302892461, 203.66747178696096, -40.55547511950135, -0.04800000227987766, -0.04800000227987766, 1.0400000493973494, 0.0, 0.0, 0.0, 0.0, 0.0, 1.7622067357641404E9, 0.0, 2025-11-03 16:52:15.764
26.0, 285.6647783154622, -41.27540586097166, 269.0858018118888, 23.7521046185866, -0.04800000227987766, -0.04800000227987766, 1.0400000493973494, 0.0, 0.0, 0.0, 0.0, 0.0, 1.76220673577983E9, 0.0, 2025-11-03 16:52:15.779
26.0, 285.7283566147089, -36.073205022607, 276.1018541287631, 33.0906348079443, -0.04800000227987766, -0.04800000227987766, 1.0400000493973494, 0.0, 0.0, 0.0, 0.0, 0.0, 1.76220673577983E9, 0.0, 2025-11-03 16:52:15.779
27.0, 212.55721398163587, -101.74210834456608, 197.75095005705953, -42.56006149575114, -0.04800000227987766, -0.04800000227987766, 1.0400000493973494, 0.0, 0.0, 0.0, 0.0, 0.0, 1.7622067357805233E9, 0.0, 2025-11-03 16:52:15.780
27.0, 256.18314696475863, -68.54675633786246, 234.10277762636542, -7.206787214614451, -0.04800000227987766, -0.04800000227987766, 1.0400000493973494, 0.0, 0.0, 0.0, 0.0, 0.0, 1.7622067357805233E9, 0.0, 2025-11-03 16:52:15.780
28.0, 314.1104573784396, -16.34149285638705, 292.6546513326466, 52.42591757886112, -0.04800000227987766, -0.04800000227987766, 1.0400000493973494, 0.0, 0.0, 0.0, 0.0, 0.0, 1.7622067357942233E9, 0.0, 2025-11-03 16:52:15.794
28.0, 214.5804998576641, -100.74729495635256, 201.22157721593976, -40.95564441476017, -0.04800000227987766, -0.04800000227987766, 1.0400000493973494, 0.0, 0.0, 0.0, 0.0, 0.0, 1.7622067357942233E9, 0.0, 2025-11-03 16:52:15.794
29.0, 213.51836827024817, -102.28439383814111, 202.3211078029126, -32.63062711339444, -0.04800000227987766, -0.04800000227987766, 1.0400000493973494, 0.0, 0.0, 0.0, 0.0, 0.0, 1.7622067358098376E9, 0.0, 2025-11-03 16:52:15.809
29.0, 307.09066516160965, -21.12856479967013, 291.2521888492629, 40.77238931693137, -0.04800000227987766, -0.04800000227987766, 1.0400000493973494, 0.0, 0.0, 0.0, 0.0, 0.0, 1.7622067358098376E9, 0.0, 2025-11-03 16:52:15.809
30.0, 243.3739896165207, -73.21789138251916, 229.51018048077822, -14.664147726260126, -0.04800000227987766, -0.04800000227987766, 1.0400000493973494, 0.0, 0.0, 0.0, 0.0, 0.0, 1.7622067358104987E9, 0.0, 2025-11-03 16:52:15.810
30.0, 209.37081921938807, -106.94430918293074, 199.5760212354362, -40.93320501502603, -0.04800000227987766, -0.04800000227987766, 1.0400000493973494, 0.0, 0.0, 0.0, 0.0, 0.0, 1.7622067358104987E9, 0.0, 2025-11-03 16:52:15.810
31.0, 292.8379064304754, -35.63937662774697, 275.6455863341689, 31.549796026200056, -0.04800000227987766, -0.06400000303983688, 1.0400000493973494, 0.0, 0.0, 0.0, 0.0, 0.0, 1.7622067358241389E9, 0.0, 2025-11-03 16:52:15.824
31.0, 264.11173487082124, -53.542277715634555, 259.14888762962073, 18.998691774904728, -0.04800000227987766, -0.06400000303983688, 1.0400000493973494, 0.0, 0.0, 0.0, 0.0, 0.0, 1.7622067358241389E9, 0.0, 2025-11-03 16:52:15.824
32.0, 209.40447831898928, -109.3303653546609, 196.4270254727453, -45.98954975511879, -0.04800000227987766, -0.06400000303983688, 1.0400000493973494, 0.0, 0.0, 0.0, 0.0, 0.0, 1.762206735839831E9, 0.0, 2025-11-03 16:52:15.839
32.0, 251.1903805239126, -76.6473796418868, 229.28204658348113, -6.675721420906484, -0.04800000227987766, -0.06400000303983688, 1.0400000493973494, 0.0, 0.0, 0.0, 0.0, 0.0, 1.762206735839831E9, 0.0, 2025-11-03 16:52:15.839
33.0, 292.70700993202627, -33.4777144533582, 277.272442814894, 32.29403611738235, -0.04800000227987766, -0.06400000303983688, 1.0400000493973494, 0.0, 0.0, 0.0, 0.0, 0.0, 1.7622067358405285E9, 0.0, 2025-11-03 16:52:15.840
33.0, 218.30544021353126, -93.19643694581464, 209.18756412155926, -31.02621003240347, -0.04800000227987766, -0.06400000303983688, 1.0400000493973494, 0.0, 0.0, 0.0, 0.0, 0.0, 1.7622067358405285E9, 0.0, 2025-11-03 16:52:15.840
34.0, 219.9958749935031, -101.94406294217333, 203.01298929471523, -36.2396305706352, -0.04800000227987766, -0.06400000303983688, 1.0400000493973494, 0.0, 0.0, 0.0, 0.0, 0.0, 1.7622067358540907E9, 0.0, 2025-11-03 16:52:15.854
34.0, 319.8512038104236, -14.68097727606073, 298.30938006564975, 50.918737896718085, -0.04800000227987766, -0.06400000303983688, 1.0400000493973494, 0.0, 0.0, 0.0, 0.0, 0.0, 1.7622067358540907E9, 0.0, 2025-11-03 16:52:15.854
35.0, 251.75884531717747, -68.19146584207192, 236.84786419384181, -6.9823932172730565, -0.04800000227987766, -0.06400000303983688, 1.0400000493973494, 0.0, 0.0, 0.0, 0.0, 0.0, 1.7622067358701437E9, 0.0, 2025-11-03 16:52:15.870
35.0, 219.29651370178908, -103.64945732196793, 200.10708702914417, -39.04455553740263, -0.04800000227987766, -0.06400000303983688, 1.0400000493973494, 0.0, 0.0, 0.0, 0.0, 0.0, 1.7622067358701437E9, 0.0, 2025-11-03 16:52:15.870
36.0, 283.9855632353574, -41.97476715268567, 267.9488722253591, 37.87770675122738, -0.04800000227987766, -0.06400000303983688, 1.0400000493973494, 0.0, 0.0, 0.0, 0.0, 0.0, 1.7622067358705008E9, 0.0, 2025-11-03 16:52:15.870
36.0, 276.1691723279655, -44.52537892246619, 269.1381604112685, 25.41262019891292, -0.04800000227987766, -0.06400000303983688, 1.0400000493973494, 0.0, 0.0, 0.0, 0.0, 0.0, 1.7622067358705008E9, 0.0, 2025-11-03 16:52:15.870
37.0, 213.76146176736802, -93.0281414478086, 208.40592503082007, -33.73389760032296, -0.04800000227987766, -0.06400000303983688, 1.0400000493973494, 0.0, 0.0, 0.0, 0.0, 0.0, 1.762206735884134E9, 0.0, 2025-11-03 16:52:15.884
37.0, 239.72384725976735, -81.5391687839292, 227.0343667101115, -19.997245063073933, -0.04800000227987766, -0.06400000303983688, 1.0400000493973494, 0.0, 0.0, 0.0, 0.0, 0.0, 1.762206735884134E9, 0.0, 2025-11-03 16:52:15.884
38.0, 314.24135387688875, -8.966410143766552, 297.8792915707454, 48.8019545217976, -0.04800000227987766, -0.06400000303983688, 1.0400000493973494, 0.0, 0.0, 0.0, 0.0, 0.0, 1.7622067358997982E9, 0.0, 2025-11-03 16:52:15.899
38.0, 222.86811815947294, -82.50780287245288, 215.51921474654227, -29.03658325597644, -0.04800000227987766, -0.06400000303983688, 1.0400000493973494, 0.0, 0.0, 0.0, 0.0, 0.0, 1.7622067358997982E9, 0.0, 2025-11-03 16:52:15.899
39.0, 229.61863757949322, -86.00086943106726, 214.42342405952513, -27.989411268383265, -0.04800000227987766, -0.06400000303983688, 1.0400000493973494, 0.0, 0.0, 0.0, 0.0, 0.0, 1.762206735900488E9, 0.0, 2025-11-03 16:52:15.900
39.0, 305.0262403860688, -22.848918779287487, 287.8040010901168, 43.08364748954773, -0.04800000227987766, -0.06400000303983688, 1.0400000493973494, 0.0, 0.0, 0.0, 0.0, 0.0, 1.762206735900488E9, 0.0, 2025-11-03 16:52:15.900
40.0, 231.04353946261108, -87.13031921768561, 220.8784913830459, -18.85283567663282, -0.04800000227987766, -0.06400000303983688, 1.0400000493973494, 0.0, 0.0, 0.0, 0.0, 0.0, 1.7622067359141607E9, 0.0, 2025-11-03 16:52:15.914
40.0, 211.52500159386545, -104.19548271549866, 197.25728326290846, -43.708210782147944, -0.04800000227987766, -0.06400000303983688, 1.0400000493973494, 0.0, 0.0, 0.0, 0.0, 0.0, 1.7622067359141607E9, 0.0, 2025-11-03 16:52:15.914
41.0, 286.33422040753067, -41.25296646123752, 266.55388954188675, 14.731465925462544, -0.04800000227987766, -0.06400000303983688, 1.0400000493973494, 0.0, 0.0, 0.0, 0.0, 0.0, 1.7622067359299867E9, 0.0, 2025-11-03 16:52:15.929
41.0, 281.3227544669062, -33.425355853978544, 268.3939203200862, 22.020530939102173, -0.04800000227987766, -0.06400000303983688, 1.0400000493973494, 0.0, 0.0, 0.0, 0.0, 0.0, 1.7622067359299867E9, 0.0, 2025-11-03 16:52:15.929
42.0, 219.04594040475786, -99.12417837558314, 201.49458991270512, -38.3152750460431, -0.04800000227987766, -0.06400000303983688, 1.0400000493973494, 0.0, 0.0, 0.0, 0.0, 0.0, 1.7622067359304829E9, 0.0, 2025-11-03 16:52:15.930
42.0, 272.37691377289593, -55.516944892238826, 243.21317391842604, -2.3112581726163626, -0.04800000227987766, -0.06400000303983688, 1.0400000493973494, 0.0, 0.0, 0.0, 0.0, 0.0, 1.7622067359304829E9, 0.0, 2025-11-03 16:52:15.930
43.0, 315.9729275563732, -6.591573671903461, 300.15689064376056, 50.32783370371908, -0.04800000227987766, -0.06400000303983688, 1.0400000493973494, 0.0, 0.0, 0.0, 0.0, 0.0, 1.7622067359604428E9, 0.0, 2025-11-03 16:52:15.960
43.0, 230.7780065657571, -89.89784518489614, 220.78499388415366, -25.80904959421605, -0.04800000227987766, -0.06400000303983688, 1.0400000493973494, 0.0, 0.0, 0.0, 0.0, 0.0, 1.7622067359604428E9, 0.0, 2025-11-03 16:52:15.960
44.0, 228.668702990748, -93.56294714147225, 214.30748716089875, -25.053589803166687, -0.04800000227987766, -0.06400000303983688, 1.0400000493973494, 0.0, 0.0, 0.0, 0.0, 0.0, 1.7622067359611447E9, 0.0, 2025-11-03 16:52:15.961
44.0, 312.3414846993983, -14.598699477035552, 292.721969531849, 57.48600221890956, -0.04800000227987766, -0.06400000303983688, 1.0400000493973494, 0.0, 0.0, 0.0, 0.0, 0.0, 1.7622067359611447E9, 0.0, 2025-11-03 16:52:15.961
45.0, 237.4425082867965, -75.27109645819291, 230.6658095670864, -12.150934956036508, -0.04800000227987766, -0.06400000303983688, 1.0400000493973494, 0.0, 0.0, 0.0, 0.0, 0.0, 1.7622067359618995E9, 0.0, 2025-11-03 16:52:15.961
45.0, 212.5459942817688, -100.33590596122667, 204.89041907247156, -44.19813767634332, -0.04800000227987766, -0.06400000303983688, 1.0400000493973494, 0.0, 0.0, 0.0, 0.0, 0.0, 1.7622067359618995E9, 0.0, 2025-11-03 16:52:15.961
46.0, 283.3123812433332, -44.02797222835943, 265.51419735420495, 24.60106190852821, -0.04800000227987766, -0.06400000303983688, 1.0400000493973494, 0.0, 0.0, 0.0, 0.0, 0.0, 1.7622067359741206E9, 0.0, 2025-11-03 16:52:15.974
46.0, 278.71230429783463, -42.232820249628276, 265.5777756534517, 21.68393994309008, -0.04800000227987766, -0.06400000303983688, 1.0400000493973494, 0.0, 0.0, 0.0, 0.0, 0.0, 1.7622067359741206E9, 0.0, 2025-11-03 16:52:15.974
47.0, 215.09660605154932, -98.02090788865462, 207.07078074663877, -39.7588764289394, -0.04800000227987766, -0.06400000303983688, 1.0400000493973494, 0.0, 0.0, 0.0, 0.0, 0.0, 1.7622067359898524E9, 0.0, 2025-11-03 16:52:15.989
47.0, 254.7881642812863, -65.30426307627931, 240.2623928533867, -7.902408606372774, -0.04800000227987766, -0.06400000303983688, 1.0400000493973494, 0.0, 0.0, 0.0, 0.0, 0.0, 1.7622067359898524E9, 0.0, 2025-11-03 16:52:15.989
48.0, 315.3633238635957, -12.788587898481637, 297.15749087929726, 52.534374677576125, -0.04800000227987766, -0.06400000303983688, 1.0400000493973494, 0.0, 0.0, 0.0, 0.0, 0.0, 1.762206735990524E9, 0.0, 2025-11-03 16:52:15.990
48.0, 215.54165414627641, -96.30429380899295, 205.44766416586936, -38.22177754715085, -0.04800000227987766, -0.06400000303983688, 1.0400000493973494, 0.0, 0.0, 0.0, 0.0, 0.0, 1.762206735990524E9, 0.0, 2025-11-03 16:52:15.990
49.0, 240.3708499521017, -79.70661780564114, 226.15549022052437, -21.582962644286454, -0.04800000227987766, -0.06400000303983688, 1.0400000493973494, 0.0, 0.0, 0.0, 0.0, 0.0, 1.7622067360041173E9, 0.0, 2025-11-03 16:52:16.004
49.0, 312.5546589968726, -16.988495548721403, 289.75622886698693, 42.833074192516506, -0.04800000227987766, -0.06400000303983688, 1.0400000493973494, 0.0, 0.0, 0.0, 0.0, 0.0, 1.7622067360041173E9, 0.0, 2025-11-03 16:52:16.004
50.0, 245.99565948545933, -72.1258405954577, 238.54577877372503, -6.335390524938703, -0.04800000227987766, -0.06400000303983688, 1.0400000493973494, 0.0, 0.0, 0.0, 0.0, 0.0, 1.762206736019764E9, 0.0, 2025-11-03 16:52:16.019
50.0, 221.34971877746284, -92.29512105649337, 213.3612924721092, -23.052743326872587, -0.04800000227987766, -0.06400000303983688, 1.0400000493973494, 0.0, 0.0, 0.0, 0.0, 0.0, 1.762206736019764E9, 0.0, 2025-11-03 16:52:16.019
51.0, 287.74416269082576, -33.810565549414605, 279.6061403872445, 36.32938816957176, -0.04800000227987766, -0.06400000303983688, 1.0400000493973494, 0.0, 0.0, 0.0, 0.0, 0.0, 1.762206736020452E9, 0.0, 2025-11-03 16:52:16.020
51.0, 281.9061788599938, -28.477468212600797, 281.6817848626524, 43.82414768077433, -0.04800000227987766, -0.06400000303983688, 1.0400000493973494, 0.0, 0.0, 0.0, 0.0, 0.0, 1.762206736020452E9, 0.0, 2025-11-03 16:52:16.020
52.0, 232.5507191447541, -81.71868398180231, 228.63878379110247, -3.698761056177318, -0.04800000227987766, -0.06400000303983688, 1.0400000493973494, 0.0, 0.0, 0.0, 0.0, 0.0, 1.762206736034133E9, 0.0, 2025-11-03 16:52:16.034
52.0, 264.36978796776384, -57.3794150701724, 260.4129738146439, 32.63062711339444, -0.04800000227987766, -0.06400000303983688, 1.0400000493973494, 0.0, 0.0, 0.0, 0.0, 0.0, 1.762206736034133E9, 0.0, 2025-11-03 16:52:16.034
53.0, 316.17488215398043, -6.905725268181413, 316.3319579521194, 80.68460164405406, -0.04800000227987766, -0.06400000303983688, 1.0400000493973494, 0.0, 0.0, 0.0, 0.0, 0.0, 1.762206736049784E9, 0.0, 2025-11-03 16:52:16.049
53.0, 221.30857987795025, -83.53253546031192, 231.89623665250838, -5.819284331053495, -0.04800000227987766, -0.06400000303983688, 1.0400000493973494, 0.0, 0.0, 0.0, 0.0, 0.0, 1.762206736049784E9, 0.0, 2025-11-03 16:52:16.049
54.0, 224.30423974245787, -84.91629844391719, 232.74519394245, -3.8520969543606043, -0.04800000227987766, -0.06400000303983688, 1.0400000493973494, 0.0, 0.0, 0.0, 0.0, 0.0, 1.7622067360504436E9, 0.0, 2025-11-03 16:52:16.050
54.0, 314.9220156688243, -5.01333589060232, 324.851450051181, 96.27624455932528, -0.04800000227987766, -0.06400000303983688, 1.0400000493973494, 0.0, 0.0, 0.0, 0.0, 0.0, 1.7622067360504436E9, 0.0, 2025-11-03 16:52:16.050
55.0, 229.74579417798668, -72.47365129133686, 250.71541322954, 19.129588273353875, -0.04800000227987766, -0.06400000303983688, 1.0400000493973494, 0.0, 0.0, 0.0, 0.0, 0.0, 1.7622067360641158E9, 0.0, 2025-11-03 16:52:16.064
55.0, 207.2091570449993, -94.23238923354074, 230.7032085666433, 3.7324201557785273, -0.04800000227987766, -0.06400000303983688, 1.0400000493973494, 0.0, 0.0, 0.0, 0.0, 0.0, 1.7622067360641158E9, 0.0, 2025-11-03 16:52:16.064
56.0, 278.0989607051015, -29.404963401611894, 298.7731276601553, 79.31205836031586, -0.04800000227987766, -0.06400000303983688, 1.0400000493973494, 0.0, 0.0, 0.0, 0.0, 0.0, 1.7622067360797985E9, 0.0, 2025-11-03 16:52:16.079
56.0, 269.7141050044447, -35.13449013372883, 294.2515886137262, 66.5515197115019, -0.04800000227987766, -0.06400000303983688, 1.0400000493973494, 0.0, 0.0, 0.0, 0.0, 0.0, 1.7622067360797985E9, 0.0, 2025-11-03 16:52:16.079
57.0, 204.00032288301736, -98.993281877134, 223.5151208518073, -8.620469397865236, -0.04800000227987766, -0.06400000303983688, 1.0400000493973494, 0.0, 0.0, 0.0, 0.0, 0.0, 1.76220673608046E9, 0.0, 2025-11-03 16:52:16.080
57.0, 240.4867868507281, -63.91676019271836, 262.0136509956792, 29.37317425198853, -0.04800000227987766, -0.06400000303983688, 1.0400000493973494, 0.0, 0.0, 0.0, 0.0, 0.0, 1.76220673608046E9, 0.0, 2025-11-03 16:52:16.080
58.0, 312.1844089012593, 1.8867795276455581, 330.39024188555777, 98.83433612901717, -0.04800000227987766, -0.06400000303983688, 1.0400000493973494, 0.0, 0.0, 0.0, 0.0, 0.0, 1.7622067360940719E9, 0.0, 2025-11-03 16:52:16.094
58.0, 234.34587112348527, -70.33816841663793, 249.82905694004148, 21.414667146280408, -0.04800000227987766, -0.06400000303983688, 1.0400000493973494, 0.0, 0.0, 0.0, 0.0, 0.0, 1.7622067360940719E9, 0.0, 2025-11-03 16:52:16.094
59.0, 221.1402843799442, -81.78600218100473, 245.59175029024482, 22.50297803338617, -0.04800000227987766, -0.06400000303983688, 1.0400000493973494, 0.0, 0.0, 0.0, 0.0, 0.0, 1.7622067361098275E9, 0.0, 2025-11-03 16:52:16.109
59.0, 299.259314654395, -7.167518265079707, 327.24872592277825, 106.0149440439418, -0.04800000227987766, -0.06400000303983688, 1.0400000493973494, 0.0, 0.0, 0.0, 0.0, 0.0, 1.7622067361098275E9, 0.0, 2025-11-03 16:52:16.109
60.0, 223.4777218522504, -71.84160819882527, 252.96309310290962, 23.172420125454664, -0.04800000227987766, -0.06400000303983688, 1.0400000493973494, 0.0, 0.0, 0.0, 0.0, 0.0, 1.762206736110472E9, 0.0, 2025-11-03 16:52:16.110
60.0, 207.23907624464482, -95.33565972046927, 232.71153484284878, 6.372789524495602, -0.04800000227987766, -0.06400000303983688, 1.0400000493973494, 0.0, 0.0, 0.0, 0.0, 0.0, 1.762206736110472E9, 0.0, 2025-11-03 16:52:16.110
61.0, 281.0160826705396, -25.17513655172661, 302.04554012138397, 77.27381288446486, -0.04800000227987766, -0.04800000227987766, 1.0400000493973494, 0.0, 0.0, 0.0, 0.0, 0.0, 1.7622067361242447E9, 0.0, 2025-11-03 16:52:16.124
61.0, 271.5653554825112, -31.304832579102367, 297.5501803746447, 66.11395141668618, -0.04800000227987766, -0.04800000227987766, 1.0400000493973494, 0.0, 0.0, 0.0, 0.0, 0.0, 1.7622067361242447E9, 0.0, 2025-11-03 16:52:16.124
62.0, 209.83456681389362, -86.55063472455367, 236.01760640367866, 15.124155420809984, -0.04800000227987766, -0.04800000227987766, 1.0400000493973494, 0.0, 0.0, 0.0, 0.0, 0.0, 1.7622067361397316E9, 0.0, 2025-11-03 16:52:16.139
62.0, 259.14888762962073, -53.104709420818835, 270.0880950000137, 49.710750211030245, -0.04800000227987766, -0.04800000227987766, 1.0400000493973494, 0.0, 0.0, 0.0, 0.0, 0.0, 1.7622067361397316E9, 0.0, 2025-11-03 16:52:16.139
63.0, 291.962769840844, -19.340892620850354, 311.16715611331165, 90.21012683119625, -0.04800000227987766, -0.04800000227987766, 1.0400000493973494, 0.0, 0.0, 0.0, 0.0, 0.0, 1.7622067361404395E9, 0.0, 2025-11-03 16:52:16.140
63.0, 205.982469859533, -89.44157739030197, 231.54468605667353, 10.681154273450375, -0.04800000227987766, -0.04800000227987766, 1.0400000493973494, 0.0, 0.0, 0.0, 0.0, 0.0, 1.7622067361404395E9, 0.0, 2025-11-03 16:52:16.140
64.0, 207.40737174265087, -91.68177746376023, 227.86462450027466, 6.260592525824904, -0.04800000227987766, -0.04800000227987766, 1.0400000493973494, 0.0, 0.0, 0.0, 0.0, 0.0, 1.7622067361540813E9, 0.0, 2025-11-03 16:52:16.154
