%OpenBCI Raw EXG Data
%Number of channels = 4
%Sample Rate = 200 Hz
%Board = OpenBCI_GUI$BoardGanglionBLE
Sample Index, EXG Channel 0, EXG Channel 1, EXG Channel 2, EXG Channel 3, Accel Channel 0, Accel Channel 1, Accel Channel 2, Other, Other, Other, Other, Other, Timestamp, Marker Channel, Timestamp (Formatted)
73.0, 22.016791039146483, 19.110888773575425, 2.655328968539834, 6.376529424451292, 0.0, 0.0, 0.0, 0.0, 0.0, 0.0, 0.0, 0.0, 1.7622074565661843E9, 0.0, 2025-11-03 17:04:16.566
73.0, -202.4333048015833, 88.91986134648323, -197.22736406326294, 12.49874565191567, 0.0, 0.0, 0.0, 0.0, 0.0, 0.0, 0.0, 0.0, 1.7622074565661843E9, 0.0, 2025-11-03 17:04:16.566
0.0, 188.1824160204269, -97.15699099889025, 177.98370884126052, -31.94809537148103, 0.0, 0.0, 0.0, 0.0, 0.0, 0.0, 0.0, 0.0, 1.7622074565859776E9, 0.0, 2025-11-03 17:04:16.585
1.0, 214.8217234048061, -76.4267255445011, 201.56751796184108, -8.356806450989097, 0.0, 0.03200000151991844, 0.0, 0.0, 0.0, 0.0, 0.0, 0.0, 1.7622074565994453E9, 0.0, 2025-11-03 17:04:16.599
1.0, 197.72664070734754, -87.48186981352046, 187.50549412844703, -14.931550573091954, 0.0, 0.03200000151991844, 0.0, 0.0, 0.0, 0.0, 0.0, 0.0, 1.7622074565994453E9, 0.0, 2025-11-03 17:04:16.599
2.0, 197.39752951124683, -96.32673320872709, 179.62926482176408, -26.902970331255347, -0.03200000151991844, 0.03200000151991844, 0.0, 0.0, 0.0, 0.0, 0.0, 0.0, 1.7622074566161177E9, 0.0, 2025-11-03 17:04:16.616
2.0, 216.18304698867723, -79.43360510887578, 190.44879539357498, -22.972335477825254, -0.03200000151991844, 0.03200000151991844, 0.0, 0.0, 0.0, 0.0, 0.0, 0.0, 1.7622074566161177E9, 0.0, 2025-11-03 17:04:16.616
3.0, 235.11816046433523, -62.31234311172739, 212.68250063015148, 3.708110806066543, -0.03200000151991844, 0.03200000151991844, 0.0, 0.0, 0.0, 0.0, 0.0, 0.0, 1.7622074566168756E9, 0.0, 2025-11-03 17:04:16.616
3.0, 192.53191966889426, -91.42372436681762, 180.52310091117397, -20.874251602683216, -0.03200000151991844, 0.03200000151991844, 0.0, 0.0, 0.0, 0.0, 0.0, 0.0, 1.7622074566168756E9, 0.0, 2025-11-03 17:04:16.616
4.0, 212.27485153498128, -78.4612311203964, 192.49826056929305, -20.859292002860457, -0.03200000151991844, 0.03200000151991844, 0.0, 0.0, 0.0, 0.0, 0.0, 0.0, 1.7622074566456208E9, 0.0, 2025-11-03 17:04:16.645
4.0, 221.70313932327554, -72.14080019528046, 197.72290080739185, -2.5487418198026717, -0.03200000151991844, 0.03200000151991844, 0.0, 0.0, 0.0, 0.0, 0.0, 0.0, 1.7622074566456208E9, 0.0, 2025-11-03 17:04:16.645
5.0, 215.58092309581116, -70.6822392125614, 201.69841446029022, -4.373812998179346, -0.03200000151991844, 0.03200000151991844, 0.0, 0.0, 0.0, 0.0, 0.0, 0.0, 1.762207456646312E9, 0.0, 2025-11-03 17:04:16.646
5.0, 194.94041524035856, -96.9886955008842, 177.00759495282546, -29.53959980001673, -0.03200000151991844, 0.03200000151991844, 0.0, 0.0, 0.0, 0.0, 0.0, 0.0, 1.762207456646312E9, 0.0, 2025-11-03 17:04:16.646
6.0, 222.0135510195978, -79.55328190745786, 194.38317014696077, -14.26210848102346, -0.03200000151991844, 0.03200000151991844, 0.0, 0.0, 0.0, 0.0, 0.0, 0.0, 1.7622074566470182E9, 0.0, 2025-11-03 17:04:16.647
6.0, 204.80253142351285, -87.82968050939962, 188.01412052242085, -14.29950748058036, -0.03200000151991844, 0.03200000151991844, 0.0, 0.0, 0.0, 0.0, 0.0, 0.0, 1.7622074566470182E9, 0.0, 2025-11-03 17:04:16.647
7.0, 188.34697161847726, -97.96480938931927, 174.26624828530475, -32.254767167847604, -0.03200000151991844, 0.03200000151991844, 0.0, 0.0, 0.0, 0.0, 0.0, 0.0, 1.7622074566593044E9, 0.0, 2025-11-03 17:04:16.659
7.0, 220.41287383856252, -77.12234693625942, 196.83654451789334, -14.022754883859307, -0.03200000151991844, 0.03200000151991844, 0.0, 0.0, 0.0, 0.0, 0.0, 0.0, 1.7622074566593044E9, 0.0, 2025-11-03 17:04:16.659
8.0, 225.55149637768045, -71.03752970835194, 207.98892618576065, -6.456937273498625, -0.03200000151991844, 0.03200000151991844, 0.0, 0.0, 0.0, 0.0, 0.0, 0.0, 1.7622074566749432E9, 0.0, 2025-11-03 17:04:16.674
8.0, 207.57753719063476, -83.23708336381242, 189.38292390620336, -17.46346284309402, -0.03200000151991844, 0.03200000151991844, 0.0, 0.0, 0.0, 0.0, 0.0, 0.0, 1.7622074566749432E9, 0.0, 2025-11-03 17:04:16.674
9.0, 200.53156567411497, -87.6165062119253, 181.85450529539958, -30.152943392749876, -0.03200000151991844, 0.03200000151991844, 0.0, 0.0, 0.0, 0.0, 0.0, 0.0, 1.7622074566756723E9, 0.0, 2025-11-03 17:04:16.675
9.0, 237.40323933726177, -65.12848777836189, 208.57609047880396, -0.7760292408056557, -0.03200000151991844, 0.03200000151991844, 0.0, 0.0, 0.0, 0.0, 0.0, 0.0, 1.7622074566756723E9, 0.0, 2025-11-03 17:04:16.675
10.0, 213.49779882049188, -78.43879172066227, 194.9965137396939, -2.096213925164193, -0.03200000151991844, 0.03200000151991844, 0.5280000250786543, 0.0, 0.0, 0.0, 0.0, 0.0, 1.7622074566892502E9, 0.0, 2025-11-03 17:04:16.689
10.0, 194.39438984682783, -94.48670243052766, 177.03751415247098, -34.94001533603296, -0.03200000151991844, 0.03200000151991844, 0.5280000250786543, 0.0, 0.0, 0.0, 0.0, 0.0, 1.7622074566892502E9, 0.0, 2025-11-03 17:04:16.689
11.0, 232.74332399247214, -63.07902260264382, 208.57609047880396, 5.765055781695992, -0.03200000151991844, 0.04800000227987766, 0.5280000250786543, 0.0, 0.0, 0.0, 0.0, 0.0, 1.7622074567048953E9, 0.0, 2025-11-03 17:04:16.704
11.0, 207.7869715881534, -81.46811068477109, 194.2971524479799, -9.202023840975016, -0.03200000151991844, 0.04800000227987766, 0.5280000250786543, 0.0, 0.0, 0.0, 0.0, 0.0, 1.7622074567048953E9, 0.0, 2025-11-03 17:04:16.704
12.0, 200.36327017610893, -92.77382825082168, 184.94366265879944, -21.5100345951505, -0.06400000303983688, 0.04800000227987766, 0.5280000250786543, 0.0, 0.0, 0.0, 0.0, 0.0, 1.7622074567055883E9, 0.0, 2025-11-03 17:04:16.705
12.0, 216.18678688863292, -74.91954586235806, 203.112096643541, 7.575167360249907, -0.06400000303983688, 0.04800000227987766, 0.5280000250786543, 0.0, 0.0, 0.0, 0.0, 0.0, 1.7622074567055883E9, 0.0, 2025-11-03 17:04:16.705
13.0, 218.77479765797034, -77.13356663612649, 205.3747361167334, -4.946017691399902, -0.06400000303983688, 0.04800000227987766, 0.5280000250786543, 0.0, 0.0, 0.0, 0.0, 0.0, 1.7622074567192302E9, 0.0, 2025-11-03 17:04:16.719
13.0, 224.7137587876059, -69.2722969292663, 202.5959904496558, 0.3347210460342467, -0.06400000303983688, 0.04800000227987766, 0.5280000250786543, 0.0, 0.0, 0.0, 0.0, 0.0, 1.7622074567192302E9, 0.0, 2025-11-03 17:04:16.719
14.0, 202.10232365550473, -93.8770987377502, 183.91519017098472, -24.71138895722106, -0.06400000303983688, 0.04800000227987766, 0.5280000250786543, 0.0, 0.0, 0.0, 0.0, 0.0, 1.7622074567349188E9, 0.0, 2025-11-03 17:04:16.734
14.0, 233.5698418826796, -62.46567900991067, 217.20403967658058, 8.607379748020321, -0.06400000303983688, 0.04800000227987766, 0.5280000250786543, 0.0, 0.0, 0.0, 0.0, 0.0, 1.7622074567349188E9, 0.0, 2025-11-03 17:04:16.734
15.0, 191.98215437540784, -95.58623301750049, 180.05935331666842, -31.708741774316877, -0.06400000303983688, 0.04800000227987766, 0.5280000250786543, 0.0, 0.0, 0.0, 0.0, 0.0, 1.762207456735596E9, 0.0, 2025-11-03 17:04:16.735
15.0, 200.24359337752685, -94.20247003389522, 180.81855300767347, -26.02409384166822, -0.06400000303983688, 0.04800000227987766, 0.5280000250786543, 0.0, 0.0, 0.0, 0.0, 0.0, 1.762207456735596E9, 0.0, 2025-11-03 17:04:16.735
16.0, 234.45245827222243, -66.97973825642839, 213.0041320263408, 1.7970219287090003, -0.06400000303983688, 0.04800000227987766, 0.5280000250786543, 0.0, 0.0, 0.0, 0.0, 0.0, 1.762207456749266E9, 0.0, 2025-11-03 17:04:16.749
16.0, 211.5979296430014, -87.95683710789308, 192.8498111651279, -15.140984970610589, -0.06400000303983688, 0.04800000227987766, 0.5280000250786543, 0.0, 0.0, 0.0, 0.0, 0.0, 1.762207456749266E9, 0.0, 2025-11-03 17:04:16.749
17.0, 185.1792763560079, -106.9592687827535, 165.01747569488361, -38.1488494980149, -0.06400000303983688, 0.04800000227987766, 0.5280000250786543, 0.0, 0.0, 0.0, 0.0, 0.0, 1.7622074567649164E9, 0.0, 2025-11-03 17:04:16.764
17.0, 206.0404383088462, -89.79686788609251, 186.806132836733, -16.199376658070832, -0.06400000303983688, 0.04800000227987766, 0.5280000250786543, 0.0, 0.0, 0.0, 0.0, 0.0, 1.7622074567649164E9, 0.0, 2025-11-03 17:04:16.764
18.0, 229.3549746326171, -65.10230847867206, 211.7849246407859, 11.4684032141231, -0.06400000303983688, 0.04800000227987766, 0.5280000250786543, 0.0, 0.0, 0.0, 0.0, 0.0, 1.7622074567655969E9, 0.0, 2025-11-03 17:04:16.765
18.0, 203.2280335421674, -90.1334588821046, 182.41923018870875, -20.414243908133358, -0.06400000303983688, 0.04800000227987766, 0.5280000250786543, 0.0, 0.0, 0.0, 0.0, 0.0, 1.7622074567655969E9, 0.0, 2025-11-03 17:04:16.765
19.0, 194.476667645853, -101.41299714846537, 177.51996124675497, -27.329318926203996, -0.06400000303983688, 0.04800000227987766, 0.5280000250786543, 0.0, 0.0, 0.0, 0.0, 0.0, 1.7622074567792475E9, 0.0, 2025-11-03 17:04:16.779
19.0, 228.5321966423653, -64.89287408115342, 210.22164645930752, 6.569134272169322, -0.06400000303983688, 0.04800000227987766, 0.5280000250786543, 0.0, 0.0, 0.0, 0.0, 0.0, 1.7622074567792475E9, 0.0, 2025-11-03 17:04:16.779
20.0, 213.3818619218655, -74.29124266980216, 200.3408307763748, -1.7558830291964114, -0.06400000303983688, 0.04800000227987766, 0.7840000372380018, 0.0, 0.0, 0.0, 0.0, 0.0, 1.7622074567948987E9, 0.0, 2025-11-03 17:04:16.794
20.0, 182.72964188503101, -107.69228917406872, 171.86523251375183, -32.30338586727157, -0.06400000303983688, 0.04800000227987766, 0.7840000372380018, 0.0, 0.0, 0.0, 0.0, 0.0, 1.7622074567948987E9, 0.0, 2025-11-03 17:04:16.794
21.0, 223.1654402059503, -75.11776056000963, 201.97890695696697, -5.529442084487528, -0.06400000303983688, 0.06400000303983688, 0.7840000372380018, 0.0, 0.0, 0.0, 0.0, 0.0, 1.762207456795586E9, 0.0, 2025-11-03 17:04:16.795
21.0, 207.10630979621783, -82.34698717435822, 192.1093109739013, -14.363085779827088, -0.06400000303983688, 0.06400000303983688, 0.7840000372380018, 0.0, 0.0, 0.0, 0.0, 0.0, 1.762207456795586E9, 0.0, 2025-11-03 17:04:16.795
22.0, 196.4401151225902, -94.9541899249889, 176.9178373538889, -29.95098879514262, -0.06400000303983688, 0.06400000303983688, 0.7840000372380018, 0.0, 0.0, 0.0, 0.0, 0.0, 1.7622074568092673E9, 0.0, 2025-11-03 17:04:16.809
22.0, 203.5272255386226, -93.79856083868071, 182.93159648263827, -23.357545173261315, -0.06400000303983688, 0.06400000303983688, 0.7840000372380018, 0.0, 0.0, 0.0, 0.0, 0.0, 1.7622074568092673E9, 0.0, 2025-11-03 17:04:16.809
23.0, 227.70941865211353, -63.47171209799126, 208.5648707789369, 1.8269411283545196, -0.06400000303983688, 0.06400000303983688, 0.7840000372380018, 0.0, 0.0, 0.0, 0.0, 0.0, 1.7622074568248765E9, 0.0, 2025-11-03 17:04:16.824
23.0, 206.16385500738397, -87.82594060944393, 184.7716272608377, -20.78075410379097, -0.06400000303983688, 0.06400000303983688, 0.7840000372380018, 0.0, 0.0, 0.0, 0.0, 0.0, 1.7622074568248765E9, 0.0, 2025-11-03 17:04:16.824
24.0, 200.4455479751341, -90.05492098303512, 183.91519017098472, -27.5125740240328, -0.06400000303983688, 0.06400000303983688, 0.7840000372380018, 0.0, 0.0, 0.0, 0.0, 0.0, 1.7622074568255925E9, 0.0, 2025-11-03 17:04:16.825
24.0, 215.80531709315255, -73.66293947724625, 201.94524785736576, -10.937337420415133, -0.06400000303983688, 0.06400000303983688, 0.7840000372380018, 0.0, 0.0, 0.0, 0.0, 0.0, 1.7622074568255925E9, 0.0, 2025-11-03 17:04:16.825
25.0, 188.76584041351452, -101.15120415156707, 174.16527098650113, -35.1457098335959, -0.06400000303983688, 0.06400000303983688, 0.7840000372380018, 0.0, 0.0, 0.0, 0.0, 0.0, 1.7622074568392384E9, 0.0, 2025-11-03 17:04:16.839
25.0, 204.79505162360147, -87.88203910877928, 186.11799124488607, -16.962316249031574, -0.06400000303983688, 0.06400000303983688, 0.7840000372380018, 0.0, 0.0, 0.0, 0.0, 0.0, 1.7622074568392384E9, 0.0, 2025-11-03 17:04:16.839
26.0, 237.45559793664142, -63.10894180228934, 215.42758719762787, 10.798961122054607, -0.06400000303983688, 0.06400000303983688, 0.7840000372380018, 0.0, 0.0, 0.0, 0.0, 0.0, 1.7622074568550117E9, 0.0, 2025-11-03 17:04:16.855
26.0, 211.64654834242538, -78.7978221164085, 197.72290080739185, -6.565394372213632, -0.06400000303983688, 0.06400000303983688, 0.7840000372380018, 0.0, 0.0, 0.0, 0.0, 0.0, 1.7622074568550117E9, 0.0, 2025-11-03 17:04:16.855
27.0, 189.3305653068237, -95.07012682361528, 180.2538281143643, -26.035313541535288, -0.06400000303983688, 0.06400000303983688, 0.7840000372380018, 0.0, 0.0, 0.0, 0.0, 0.0, 1.762207456855614E9, 0.0, 2025-11-03 17:04:16.855
27.0, 214.3392763105221, -84.48620994901285, 192.75631366623566, -14.6921969759278, -0.06400000303983688, 0.06400000303983688, 0.7840000372380018, 0.0, 0.0, 0.0, 0.0, 0.0, 1.762207456855614E9, 0.0, 2025-11-03 17:04:16.855
28.0, 225.36450137989596, -67.39486715150997, 208.2993378820829, 0.6114736427552998, -0.06400000303983688, 0.06400000303983688, 0.7840000372380018, 0.0, 0.0, 0.0, 0.0, 0.0, 1.762207456869223E9, 0.0, 2025-11-03 17:04:16.869
28.0, 192.2177680726163, -96.81292020296678, 174.2475487855263, -32.36322426656261, -0.06400000303983688, 0.06400000303983688, 0.7840000372380018, 0.0, 0.0, 0.0, 0.0, 0.0, 1.762207456869223E9, 0.0, 2025-11-03 17:04:16.869
29.0, 198.01835290389135, -98.6566908811219, 169.8419466377236, -35.56831852858886, -0.06400000303983688, 0.06400000303983688, 0.7840000372380018, 0.0, 0.0, 0.0, 0.0, 0.0, 1.762207456884913E9, 0.0, 2025-11-03 17:04:16.884
29.0, 226.4640319668688, -71.36290100449696, 205.22140021855012, 0.8807464395649731, -0.06400000303983688, 0.06400000303983688, 0.7840000372380018, 0.0, 0.0, 0.0, 0.0, 0.0, 1.762207456884913E9, 0.0, 2025-11-03 17:04:16.884
30.0, 208.3367368816398, -81.61770668299869, 188.3282721186988, -16.599545953329653, -0.06400000303983688, 0.06400000303983688, 0.9120000433176756, 0.0, 0.0, 0.0, 0.0, 0.0, 1.7622074568856149E9, 0.0, 2025-11-03 17:04:16.885
30.0, 201.5600381619297, -91.08713337080553, 178.61201203381643, -29.001054206397384, -0.06400000303983688, 0.06400000303983688, 0.9120000433176756, 0.0, 0.0, 0.0, 0.0, 0.0, 1.7622074568856149E9, 0.0, 2025-11-03 17:04:16.885
31.0, 246.25932243233547, -49.56302416278049, 214.03634441411123, 1.8194613284431398, -0.06400000303983688, 0.06400000303983688, 0.9120000433176756, 0.0, 0.0, 0.0, 0.0, 0.0, 1.7622074568992777E9, 0.0, 2025-11-03 17:04:16.899
31.0, 219.10764875402674, -79.15685251215473, 187.96550182299688, -23.645517469849437, -0.06400000303983688, 0.06400000303983688, 0.9120000433176756, 0.0, 0.0, 0.0, 0.0, 0.0, 1.7622074568992777E9, 0.0, 2025-11-03 17:04:16.899
32.0, 199.69382808404043, -100.79591365577653, 163.9104653079994, -44.44310112344101, -0.06400000303983688, 0.06400000303983688, 0.9120000433176756, 0.0, 0.0, 0.0, 0.0, 0.0, 1.7622074569151254E9, 0.0, 2025-11-03 17:04:16.915
32.0, 214.49635210866109, -82.21609067590907, 190.69562879065052, -21.050026900600642, -0.06400000303983688, 0.06400000303983688, 0.9120000433176756, 0.0, 0.0, 0.0, 0.0, 0.0, 1.7622074569151254E9, 0.0, 2025-11-03 17:04:16.915
33.0, 217.88096156856045, -75.91809915052727, 192.8460712651722, -11.285148116294295, -0.06400000303983688, 0.06400000303983688, 0.9120000433176756, 0.0, 0.0, 0.0, 0.0, 0.0, 1.7622074569156191E9, 0.0, 2025-11-03 17:04:16.915
33.0, 190.183262496721, -98.82872627908364, 174.67389738047495, -33.051365858409554, -0.06400000303983688, 0.06400000303983688, 0.9120000433176756, 0.0, 0.0, 0.0, 0.0, 0.0, 1.7622074569156191E9, 0.0, 2025-11-03 17:04:16.915
34.0, 205.24383961828426, -89.59117338852957, 184.43129636486992, -28.608364711049944, -0.06400000303983688, 0.06400000303983688, 0.9120000433176756, 0.0, 0.0, 0.0, 0.0, 0.0, 1.7622074569293408E9, 0.0, 2025-11-03 17:04:16.929
34.0, 233.32300848560408, -66.10086176684126, 206.54906470282003, -2.9489111150614917, -0.06400000303983688, 0.06400000303983688, 0.9120000433176756, 0.0, 0.0, 0.0, 0.0, 0.0, 1.7622074569293408E9, 0.0, 2025-11-03 17:04:16.929
35.0, 203.41876843990758, -89.00400909548625, 179.40861072437838, -25.792220044415444, -0.06400000303983688, 0.06400000303983688, 0.9120000433176756, 0.0, 0.0, 0.0, 0.0, 0.0, 1.762207456944903E9, 0.0, 2025-11-03 17:04:16.944
35.0, 208.24323938274756, -88.90677169663832, 178.60827213386074, -24.558053059037775, -0.06400000303983688, 0.06400000303983688, 0.9120000433176756, 0.0, 0.0, 0.0, 0.0, 0.0, 1.762207456944903E9, 0.0, 2025-11-03 17:04:16.944
36.0, 218.94683305593207, -76.85681403940544, 197.7004614076577, -8.035175054799765, -0.06400000303983688, 0.06400000303983688, 0.9120000433176756, 0.0, 0.0, 0.0, 0.0, 0.0, 1.762207456945582E9, 0.0, 2025-11-03 17:04:16.945
36.0, 210.05335096130148, -87.5043092132546, 183.26818747865036, -28.653243510518223, -0.06400000303983688, 0.06400000303983688, 0.9120000433176756, 0.0, 0.0, 0.0, 0.0, 0.0, 1.762207456945582E9, 0.0, 2025-11-03 17:04:16.945
37.0, 214.09992271335796, -82.27218917524442, 188.75836061360314, -21.56613309448585, -0.06400000303983688, 0.06400000303983688, 0.9120000433176756, 0.0, 0.0, 0.0, 0.0, 0.0, 1.7622074569592557E9, 0.0, 2025-11-03 17:04:16.959
37.0, 201.28328556520864, -93.6938436399214, 172.94606360094622, -34.53236624086276, -0.06400000303983688, 0.06400000303983688, 0.9120000433176756, 0.0, 0.0, 0.0, 0.0, 0.0, 1.7622074569592557E9, 0.0, 2025-11-03 17:04:16.959
38.0, 223.53943020151928, -72.19689869461581, 195.1835087374784, -10.66432472364977, -0.06400000303983688, 0.06400000303983688, 0.9120000433176756, 0.0, 0.0, 0.0, 0.0, 0.0, 1.7622074569750175E9, 0.0, 2025-11-03 17:04:16.975
38.0, 199.45821438683197, -94.89435152569786, 172.4748362065293, -34.30423234356567, -0.06400000303983688, 0.06400000303983688, 0.9120000433176756, 0.0, 0.0, 0.0, 0.0, 0.0, 1.7622074569750175E9, 0.0, 2025-11-03 17:04:16.975
39.0, 213.01535172620788, -79.27278941078112, 187.1838627322577, -19.019261224661022, -0.06400000303983688, 0.06400000303983688, 0.9120000433176756, 0.0, 0.0, 0.0, 0.0, 0.0, 1.7622074569756153E9, 0.0, 2025-11-03 17:04:16.975
39.0, 242.52316237660125, -55.84979598829523, 210.8948284513317, 4.549588296096772, -0.06400000303983688, 0.06400000303983688, 0.9120000433176756, 0.0, 0.0, 0.0, 0.0, 0.0, 1.7622074569756153E9, 0.0, 2025-11-03 17:04:16.975
40.0, 207.5999765903689, -85.75403603399172, 186.00579424621537, -24.056906464975327, -0.06400000303983688, 0.06400000303983688, 0.9760000463575125, 0.0, 0.0, 0.0, 0.0, 0.0, 1.7622074569892142E9, 0.0, 2025-11-03 17:04:16.989
40.0, 206.23491310654208, -88.42058470239863, 180.4370832121931, -34.958714835811406, -0.06400000303983688, 0.06400000303983688, 0.9760000463575125, 0.0, 0.0, 0.0, 0.0, 0.0, 1.7622074569892142E9, 0.0, 2025-11-03 17:04:16.989
41.0, 245.63475913973525, -55.36734889401123, 215.66694079479203, 3.341600610408932, -0.06400000303983688, 0.06400000303983688, 0.9760000463575125, 0.0, 0.0, 0.0, 0.0, 0.0, 1.7622074570051532E9, 0.0, 2025-11-03 17:04:17.005
41.0, 226.41541326744482, -67.39860705146566, 204.68285462493077, -9.392758738715202, -0.06400000303983688, 0.06400000303983688, 0.9760000463575125, 0.0, 0.0, 0.0, 0.0, 0.0, 1.7622074570051532E9, 0.0, 2025-11-03 17:04:17.005
42.0, 203.6020235377364, -85.58574053598568, 183.11111168051139, -25.040500153321773, -0.06400000303983688, 0.06400000303983688, 0.9760000463575125, 0.0, 0.0, 0.0, 0.0, 0.0, 1.762207457005612E9, 0.0, 2025-11-03 17:04:17.005
42.0, 212.73485922953114, -87.99423610744998, 182.1088184923865, -29.21048860391602, -0.06400000303983688, 0.06400000303983688, 0.9760000463575125, 0.0, 0.0, 0.0, 0.0, 0.0, 1.762207457005612E9, 0.0, 2025-11-03 17:04:17.005
43.0, 225.85442827409133, -71.00387060875073, 205.64400891354308, -5.177891488652676, -0.06400000303983688, 0.06400000303983688, 0.9760000463575125, 0.0, 0.0, 0.0, 0.0, 0.0, 1.762207457019284E9, 0.0, 2025-11-03 17:04:17.019
43.0, 191.1107576857321, -99.82727956725284, 171.79417441459373, -33.2570603559725, -0.06400000303983688, 0.06400000303983688, 0.9760000463575125, 0.0, 0.0, 0.0, 0.0, 0.0, 1.762207457019284E9, 0.0, 2025-11-03 17:04:17.019
44.0, 194.850657641422, -99.26629457389936, 175.7734279674478, -28.294213114771992, -0.06400000303983688, 0.06400000303983688, 0.9760000463575125, 0.0, 0.0, 0.0, 0.0, 0.0, 1.7622074570349216E9, 0.0, 2025-11-03 17:04:17.034
44.0, 235.9446783545427, -68.73375133564696, 206.03669840889052, -9.568534036632627, -0.06400000303983688, 0.06400000303983688, 0.9760000463575125, 0.0, 0.0, 0.0, 0.0, 0.0, 1.7622074570349216E9, 0.0, 2025-11-03 17:04:17.034
45.0, 209.73545946506783, -83.55871476000175, 190.90506318816915, -17.179230446461588, -0.06400000303983688, 0.06400000303983688, 0.9760000463575125, 0.0, 0.0, 0.0, 0.0, 0.0, 1.7622074570356057E9, 0.0, 2025-11-03 17:04:17.035
45.0, 190.83400508901104, -103.2904269262217, 169.75218903878704, -37.786079202312976, -0.06400000303983688, 0.06400000303983688, 0.9760000463575125, 0.0, 0.0, 0.0, 0.0, 0.0, 1.7622074570356057E9, 0.0, 2025-11-03 17:04:17.035
46.0, 214.70204660622403, -82.687318070326, 189.95138869946823, -20.71717580454424, -0.06400000303983688, 0.06400000303983688, 0.9760000463575125, 0.0, 0.0, 0.0, 0.0, 0.0, 1.762207457049889E9, 0.0, 2025-11-03 17:04:17.049
46.0, 217.58550947206095, -75.6824854533188, 192.9956672633998, -19.793420515488833, -0.06400000303983688, 0.06400000303983688, 0.9760000463575125, 0.0, 0.0, 0.0, 0.0, 0.0, 1.762207457049889E9, 0.0, 2025-11-03 17:04:17.049
47.0, 192.58427826827392, -98.59311258187518, 176.94401665357873, -33.30567905539647, -0.06400000303983688, 0.06400000303983688, 0.9760000463575125, 0.0, 0.0, 0.0, 0.0, 0.0, 1.7622074570649483E9, 0.0, 2025-11-03 17:04:17.064
47.0, 204.10691003175452, -92.80000755051151, 182.40801048884168, -23.851211967412382, -0.06400000303983688, 0.06400000303983688, 0.9760000463575125, 0.0, 0.0, 0.0, 0.0, 0.0, 1.7622074570649483E9, 0.0, 2025-11-03 17:04:17.064
48.0, 217.03200427861884, -75.44687175611034, 201.4815002628602, -2.780615617055446, -0.06400000303983688, 0.06400000303983688, 0.9760000463575125, 0.0, 0.0, 0.0, 0.0, 0.0, 1.762207457065582E9, 0.0, 2025-11-03 17:04:17.065
48.0, 196.58223132090643, -97.7665946916677, 175.37699857214466, -32.76339356182143, -0.06400000303983688, 0.06400000303983688, 0.9760000463575125, 0.0, 0.0, 0.0, 0.0, 0.0, 1.762207457065582E9, 0.0, 2025-11-03 17:04:17.065
49.0, 210.20668685948476, -85.12199294148013, 191.30897238338366, -16.143278158735484, -0.06400000303983688, 0.06400000303983688, 0.9760000463575125, 0.0, 0.0, 0.0, 0.0, 0.0, 1.762207457079378E9, 0.0, 2025-11-03 17:04:17.079
49.0, 219.32082305150107, -77.36544043337926, 201.0775910676457, -0.22626394731923938, -0.06400000303983688, 0.06400000303983688, 0.9760000463575125, 0.0, 0.0, 0.0, 0.0, 0.0, 1.762207457079378E9, 0.0, 2025-11-03 17:04:17.079
50.0, 206.44434750406072, -84.96117724338546, 186.67897623823956, -25.698722545523196, -0.06400000303983688, 0.06400000303983688, 1.008000047877431, 0.0, 0.0, 0.0, 0.0, 0.0, 1.7622074570948675E9, 0.0, 2025-11-03 17:04:17.094
50.0, 200.65872227260843, -91.71917646331713, 180.366025113035, -27.09744512895122, -0.06400000303983688, 0.06400000303983688, 1.008000047877431, 0.0, 0.0, 0.0, 0.0, 0.0, 1.7622074570948675E9, 0.0, 2025-11-03 17:04:17.094
51.0, 222.62315471237525, -74.23514417046681, 197.46858761040494, -10.488549425732344, -0.06400000303983688, 0.06400000303983688, 1.008000047877431, 0.0, 0.0, 0.0, 0.0, 0.0, 1.7622074570955884E9, 0.0, 2025-11-03 17:04:17.095
51.0, 218.32600966328755, -70.5326432143338, 204.38740252843127, -4.519669096451253, -0.06400000303983688, 0.06400000303983688, 1.008000047877431, 0.0, 0.0, 0.0, 0.0, 0.0, 1.7622074570955884E9, 0.0, 2025-11-03 17:04:17.095
52.0, 202.19582115439698, -92.71772975148633, 177.5087415468879, -27.9576221187599, -0.06400000303983688, 0.06400000303983688, 1.008000047877431, 0.0, 0.0, 0.0, 0.0, 0.0, 1.7622074571092136E9, 0.0, 2025-11-03 17:04:17.109
52.0, 220.5325506371446, -78.2031780234538, 188.64242371497676, -12.721269699279219, -0.06400000303983688, 0.06400000303983688, 1.008000047877431, 0.0, 0.0, 0.0, 0.0, 0.0, 1.7622074571092136E9, 0.0, 2025-11-03 17:04:17.109
53.0, 227.09981495933607, -68.98058473272249, 202.80168494721875, -4.280315499287099, -0.06400000303983688, 0.06400000303983688, 1.008000047877431, 0.0, 0.0, 0.0, 0.0, 0.0, 1.762207457124922E9, 0.0, 2025-11-03 17:04:17.124
53.0, 185.45602895272896, -103.63449772214517, 171.0985530228354, -33.22714115632698, -0.06400000303983688, 0.06400000303983688, 1.008000047877431, 0.0, 0.0, 0.0, 0.0, 0.0, 1.762207457124922E9, 0.0, 2025-11-03 17:04:17.124
54.0, 200.5203459742479, -93.13285864656791, 180.848472207319, -26.136290840338916, -0.06400000303983688, 0.06400000303983688, 1.008000047877431, 0.0, 0.0, 0.0, 0.0, 0.0, 1.762207457125638E9, 0.0, 2025-11-03 17:04:17.125
54.0, 251.89535166556016, -51.1898806435056, 229.88978032628074, 21.640931093599647, -0.06400000303983688, 0.06400000303983688, 1.008000047877431, 0.0, 0.0, 0.0, 0.0, 0.0, 1.762207457125638E9, 0.0, 2025-11-03 17:04:17.125
55.0, 187.09410513332114, -102.72570203291252, 172.57581350533292, -28.563485911581665, -0.06400000303983688, 0.06400000303983688, 1.008000047877431, 0.0, 0.0, 0.0, 0.0, 0.0, 1.7622074571394088E9, 0.0, 2025-11-03 17:04:17.139
55.0, 206.08531710831448, -86.42721802601591, 185.96465534670278, -17.90851093782112, -0.06400000303983688, 0.06400000303983688, 1.008000047877431, 0.0, 0.0, 0.0, 0.0, 0.0, 1.7622074571394088E9, 0.0, 2025-11-03 17:04:17.139
56.0, 227.5373832541518, -74.83726806333289, 201.97516705701128, -3.4874567086808383, -0.06400000303983688, 0.06400000303983688, 1.008000047877431, 0.0, 0.0, 0.0, 0.0, 0.0, 1.762207457155049E9, 0.0, 2025-11-03 17:04:17.155
56.0, 210.5956364548765, -84.08604065375403, 186.72011513775215, -17.84493263857439, -0.06400000303983688, 0.06400000303983688, 1.008000047877431, 0.0, 0.0, 0.0, 0.0, 0.0, 1.762207457155049E9, 0.0, 2025-11-03 17:04:17.155
57.0, 204.06203123228624, -87.57536731241271, 185.56822595139965, -21.49881489528343, -0.06400000303983688, 0.06400000303983688, 1.008000047877431, 0.0, 0.0, 0.0, 0.0, 0.0, 1.7622074571556644E9, 0.0, 2025-11-03 17:04:17.155
57.0, 214.69456680631265, -78.63700641831383, 191.94475537585095, -17.396144643891603, -0.06400000303983688, 0.06400000303983688, 1.008000047877431, 0.0, 0.0, 0.0, 0.0, 0.0, 1.7622074571556644E9, 0.0, 2025-11-03 17:04:17.155
58.0, 227.6869792523794, -70.2745901173912, 202.54737175023183, -3.861446704249829, -0.06400000303983688, 0.06400000303983688, 1.008000047877431, 0.0, 0.0, 0.0, 0.0, 0.0, 1.7622074571692295E9, 0.0, 2025-11-03 17:04:17.169
58.0, 222.88120780931786, -74.04814917268232, 194.57016514474526, -9.946263932157308, -0.06400000303983688, 0.06400000303983688, 1.008000047877431, 0.0, 0.0, 0.0, 0.0, 0.0, 1.7622074571692295E9, 0.0, 2025-11-03 17:04:17.169
59.0, 221.2319119288586, -78.25553662283346, 195.84547102963552, -7.096460165921599, -0.06400000303983688, 0.06400000303983688, 1.008000047877431, 0.0, 0.0, 0.0, 0.0, 0.0, 1.7622074571849332E9, 0.0, 2025-11-03 17:04:17.184
59.0, 218.28487076377496, -77.66463242983446, 193.1452632616274, -9.680731035303324, -0.06400000303983688, 0.06400000303983688, 1.008000047877431, 0.0, 0.0, 0.0, 0.0, 0.0, 1.7622074571849332E9, 0.0, 2025-11-03 17:04:17.184
60.0, 207.34940329333767, -84.57222764799371, 187.9954210226424, -18.27128123352304, -0.06400000303983688, 0.06400000303983688, 1.008000047877431, 0.0, 0.0, 0.0, 0.0, 0.0, 1.762207457185634E9, 0.0, 2025-11-03 17:04:17.185
60.0, 189.7344745020382, -100.6238782578148, 169.78584813838825, -37.838437801692635, -0.06400000303983688, 0.06400000303983688, 1.008000047877431, 0.0, 0.0, 0.0, 0.0, 0.0, 1.762207457185634E9, 0.0, 2025-11-03 17:04:17.185
61.0, 211.7849246407859, -82.9079721677117, 186.15913014439866, -23.52958057122305, -0.06400000303983688, 0.06400000303983688, 1.008000047877431, 0.0, 0.0, 0.0, 0.0, 0.0, 1.7622074571995416E9, 0.0, 2025-11-03 17:04:17.199
61.0, 212.85079612815753, -80.24516339926049, 189.12861070921645, -17.362485544290394, -0.06400000303983688, 0.06400000303983688, 1.008000047877431, 0.0, 0.0, 0.0, 0.0, 0.0, 1.7622074571995416E9, 0.0, 2025-11-03 17:04:17.199
62.0, 194.24479384860024, -93.0281414478086, 173.71648299181834, -29.53959980001673, -0.06400000303983688, 0.06400000303983688, 1.008000047877431, 0.0, 0.0, 0.0, 0.0, 0.0, 1.7622074572149432E9, 0.0, 2025-11-03 17:04:17.214
62.0, 208.80048447614536, -84.82654084498063, 186.76499393722042, -18.065586735960096, -0.06400000303983688, 0.06400000303983688, 1.008000047877431, 0.0, 0.0, 0.0, 0.0, 0.0, 1.7622074572149432E9, 0.0, 2025-11-03 17:04:17.214
63.0, 236.6814386458136, -62.51803760929033, 209.13707547215745, 2.503863020334393, -0.06400000303983688, 0.06400000303983688, 1.008000047877431, 0.0, 0.0, 0.0, 0.0, 0.0, 1.7622074572159317E9, 0.0, 2025-11-03 17:04:17.215
63.0, 198.17916860198602, -95.54883401794359, 181.49547489965335, -24.30747976200655, -0.06400000303983688, 0.06400000303983688, 1.008000047877431, 0.0, 0.0, 0.0, 0.0, 0.0, 1.7622074572159317E9, 0.0, 2025-11-03 17:04:17.215
64.0, 207.14370879577473, -85.60444003576413, 187.70744872605428, -23.48470177175477, -0.06400000303983688, 0.06400000303983688, 1.008000047877431, 0.0, 0.0, 0.0, 0.0, 0.0, 1.7622074572292025E9, 0.0, 2025-11-03 17:04:17.229
64.0, 245.88533243676648, -51.096383144613355, 220.2296187407337, 11.027095019351691, -0.06400000303983688, 0.06400000303983688, 1.008000047877431, 0.0, 0.0, 0.0, 0.0, 0.0, 1.7622074572292025E9, 0.0, 2025-11-03 17:04:17.229
65.0, 204.6304960255511, -87.29113491578028, 186.91085003549233, -25.436929548624903, -0.06400000303983688, 0.06400000303983688, 1.008000047877431, 0.0, 0.0, 0.0, 0.0, 0.0, 1.7622074572449186E9, 0.0, 2025-11-03 17:04:17.244
65.0, 197.56582500925288, -94.18003063416108, 174.60283928131685, -28.499907612334937, -0.06400000303983688, 0.06400000303983688, 1.008000047877431, 0.0, 0.0, 0.0, 0.0, 0.0, 1.7622074572449186E9, 0.0, 2025-11-03 17:04:17.244
66.0, 223.81244289828464, -76.21729114698246, 191.83629827713594, -12.26126200472936, -0.06400000303983688, 0.06400000303983688, 1.008000047877431, 0.0, 0.0, 0.0, 0.0, 0.0, 1.7622074572456396E9, 0.0, 2025-11-03 17:04:17.245
66.0, 228.7939896392636, -69.00676403241232, 196.90012281714007, -8.517622149083763, -0.06400000303983688, 0.06400000303983688, 1.008000047877431, 0.0, 0.0, 0.0, 0.0, 0.0, 1.7622074572456396E9, 0.0, 2025-11-03 17:04:17.245
67.0, 205.6739281131886, -84.14961895300075, 182.15369729185477, -24.887164255138487, -0.06400000303983688, 0.06400000303983688, 1.008000047877431, 0.0, 0.0, 0.0, 0.0, 0.0, 1.7622074572592137E9, 0.0, 2025-11-03 17:04:17.259
67.0, 212.27859143493697, -78.34155432181433, 193.54917245684192, -11.85735280951485, -0.06400000303983688, 0.06400000303983688, 1.008000047877431, 0.0, 0.0, 0.0, 0.0, 0.0, 1.7622074572592137E9, 0.0, 2025-11-03 17:04:17.259
68.0, 214.11114241322502, -75.97419764986262, 195.64351643202826, -10.028541731182486, -0.06400000303983688, 0.06400000303983688, 1.008000047877431, 0.0, 0.0, 0.0, 0.0, 0.0, 1.7622074572755036E9, 0.0, 2025-11-03 17:04:17.275
68.0, 198.71771419560537, -90.30175438011065, 178.05850684037432, -25.328472449909896, -0.06400000303983688, 0.06400000303983688, 1.008000047877431, 0.0, 0.0, 0.0, 0.0, 0.0, 1.7622074572755036E9, 0.0, 2025-11-03 17:04:17.275
69.0, 208.37039598124102, -83.60359355947003, 186.12921094475314, -20.941569801885635, -0.06400000303983688, 0.06400000303983688, 1.008000047877431, 0.0, 0.0, 0.0, 0.0, 0.0, 1.7622074572756639E9, 0.0, 2025-11-03 17:04:17.275
69.0, 231.22492461046204, -66.55338966147974, 207.31574419373646, -4.328934198711067, -0.06400000303983688, 0.06400000303983688, 1.008000047877431, 0.0, 0.0, 0.0, 0.0, 0.0, 1.7622074572756639E9, 0.0, 2025-11-03 17:04:17.275
70.0, 220.6073486362584, -68.44577903905883, 202.1846014545299, -7.3058945634402335, -0.06400000303983688, 0.06400000303983688, 1.0240000486373901, 0.0, 0.0, 0.0, 0.0, 0.0, 1.7622074572892027E9, 0.0, 2025-11-03 17:04:17.289
70.0, 219.38814125070348, -69.53035002620891, 201.84801045851782, -5.4920430849306285, -0.06400000303983688, 0.06400000303983688, 1.0240000486373901, 0.0, 0.0, 0.0, 0.0, 0.0, 1.7622074572892027E9, 0.0, 2025-11-03 17:04:17.289
71.0, 223.65910700010136, -72.41755279200152, 202.44265455147251, -7.43679106188938, -0.06400000303983688, 0.06400000303983688, 1.0240000486373901, 0.0, 0.0, 0.0, 0.0, 0.0, 1.7622074573050025E9, 0.0, 2025-11-03 17:04:17.305
71.0, 193.51177345728502, -96.45014990726486, 177.56484004622325, -34.69692183891311, -0.06400000303983688, 0.06400000303983688, 1.0240000486373901, 0.0, 0.0, 0.0, 0.0, 0.0, 1.7622074573050025E9, 0.0, 2025-11-03 17:04:17.305
72.0, 187.1464637327008, -105.49696790007874, 169.37819904321805, -39.2595997848548, -0.06400000303983688, 0.06400000303983688, 1.0240000486373901, 0.0, 0.0, 0.0, 0.0, 0.0, 1.762207457305643E9, 0.0, 2025-11-03 17:04:17.305
72.0, 206.88565569883212, -88.81327419774607, 184.74918786110356, -17.93469023751095, -0.06400000303983688, 0.06400000303983688, 1.0240000486373901, 0.0, 0.0, 0.0, 0.0, 0.0, 1.762207457305643E9, 0.0, 2025-11-03 17:04:17.305
73.0, 231.82704850332811, -66.56460936134681, 206.7884182999842, -3.304201610852033, -0.06400000303983688, 0.06400000303983688, 1.0240000486373901, 0.0, 0.0, 0.0, 0.0, 0.0, 1.762207457319264E9, 0.0, 2025-11-03 17:04:17.319
73.0, 193.6651093554683, -100.15265086339787, 170.9526969245635, -31.043039582204074, -0.06400000303983688, 0.06400000303983688, 1.0240000486373901, 0.0, 0.0, 0.0, 0.0, 0.0, 1.762207457319264E9, 0.0, 2025-11-03 17:04:17.319
74.0, 196.04368572728708, -101.08388595236465, 168.3908654549159, -33.87040394870564, -0.06400000303983688, 0.06400000303983688, 1.0240000486373901, 0.0, 0.0, 0.0, 0.0, 0.0, 1.7622074573351295E9, 0.0, 2025-11-03 17:04:17.335
74.0, 227.54112315410748, -67.63422074867412, 197.97721400437877, -9.284301640000194, -0.06400000303983688, 0.06400000303983688, 1.0240000486373901, 0.0, 0.0, 0.0, 0.0, 0.0, 1.7622074573351295E9, 0.0, 2025-11-03 17:04:17.335
75.0, 213.58381651947275, -84.29173515131697, 179.3263329253532, -18.839746026787907, -0.06400000303983688, 0.06400000303983688, 1.0240000486373901, 0.0, 0.0, 0.0, 0.0, 0.0, 1.7622074573356643E9, 0.0, 2025-11-03 17:04:17.335
75.0, 203.98349333321676, -93.91075783735141, 180.02195431711152, -21.371658296789974, -0.06400000303983688, 0.06400000303983688, 1.0240000486373901, 0.0, 0.0, 0.0, 0.0, 0.0, 1.7622074573356643E9, 0.0, 2025-11-03 17:04:17.335
76.0, 215.25929169962183, -77.04754893714562, 201.65353566082194, -11.135552118066698, -0.06400000303983688, 0.06400000303983688, 1.0240000486373901, 0.0, 0.0, 0.0, 0.0, 0.0, 1.762207457349194E9, 0.0, 2025-11-03 17:04:17.349
76.0, 208.24697928270325, -80.40597909735516, 196.10352412657812, -12.934443996753544, -0.06400000303983688, 0.06400000303983688, 1.0240000486373901, 0.0, 0.0, 0.0, 0.0, 0.0, 1.762207457349194E9, 0.0, 2025-11-03 17:04:17.349
77.0, 187.42321632942185, -103.08847232861444, 169.8419466377236, -37.75989990262315, -0.06400000303983688, 0.06400000303983688, 1.0240000486373901, 0.0, 0.0, 0.0, 0.0, 0.0, 1.7622074573650224E9, 0.0, 2025-11-03 17:04:17.365
77.0, 212.338429834228, -84.18327805260196, 185.85619824798778, -24.860984955448657, -0.06400000303983688, 0.06400000303983688, 1.0240000486373901, 0.0, 0.0, 0.0, 0.0, 0.0, 1.7622074573650224E9, 0.0, 2025-11-03 17:04:17.365
78.0, 243.55537476437166, -48.676667873281986, 222.99714470794424, 10.611966124270111, -0.06400000303983688, 0.06400000303983688, 1.0240000486373901, 0.0, 0.0, 0.0, 0.0, 0.0, 1.7622074573656454E9, 0.0, 2025-11-03 17:04:17.365
78.0, 209.5222851675935, -84.32165435096249, 185.22789505543187, -23.854951867368072, -0.06400000303983688, 0.06400000303983688, 1.0240000486373901, 0.0, 0.0, 0.0, 0.0, 0.0, 1.7622074573656454E9, 0.0, 2025-11-03 17:04:17.365
79.0, 200.72604047181085, -95.12622532295063, 174.52056148229167, -35.94230852415785, -0.06400000303983688, 0.06400000303983688, 1.0240000486373901, 0.0, 0.0, 0.0, 0.0, 0.0, 1.762207457379532E9, 0.0, 2025-11-03 17:04:17.379
79.0, 211.40345484530553, -76.36688714521006, 194.31959184771404, -19.310973421204835, -0.06400000303983688, 0.06400000303983688, 1.0240000486373901, 0.0, 0.0, 0.0, 0.0, 0.0, 1.762207457379532E9, 0.0, 2025-11-03 17:04:17.379
80.0, 198.47462069848552, -86.48331652535126, 185.8487184480764, -29.92480949545279, -0.06400000303983688, 0.06400000303983688, 1.0400000493973494, 0.0, 0.0, 0.0, 0.0, 0.0, 1.7622074573950644E9, 0.0, 2025-11-03 17:04:17.395
80.0, 197.87997660553083, -88.89555199677125, 186.5480797397904, -26.472881836351007, -0.06400000303983688, 0.06400000303983688, 1.0400000493973494, 0.0, 0.0, 0.0, 0.0, 0.0, 1.7622074573950644E9, 0.0, 2025-11-03 17:04:17.395
81.0, 229.67660602880642, -71.61721420148388, 207.24094619462267, -7.410611762199551, -0.06400000303983688, 0.06400000303983688, 1.0400000493973494, 0.0, 0.0, 0.0, 0.0, 0.0, 1.7622074573956456E9, 0.0, 2025-11-03 17:04:17.395
81.0, 212.96299312682822, -74.85222766315565, 202.80916474713013, -9.538614836987108, -0.06400000303983688, 0.06400000303983688, 1.0400000493973494, 0.0, 0.0, 0.0, 0.0, 0.0, 1.7622074573956456E9, 0.0, 2025-11-03 17:04:17.395
82.0, 207.53265839116648, -82.3170679747127, 191.61938407970592, -17.92721043759957, -0.06400000303983688, 0.06400000303983688, 1.0400000493973494, 0.0, 0.0, 0.0, 0.0, 0.0, 1.7622074574093337E9, 0.0, 2025-11-03 17:04:17.409
82.0, 204.98952642129734, -92.49333575414494, 184.15454376814887, -27.13110422855243, -0.06400000303983688, 0.06400000303983688, 1.0400000493973494, 0.0, 0.0, 0.0, 0.0, 0.0, 1.7622074574093337E9, 0.0, 2025-11-03 17:04:17.409
83.0, 210.10944946063682, -84.5423084483482, 188.60128481546417, -21.693289692979306, -0.06400000303983688, 0.06400000303983688, 1.0400000493973494, 0.0, 0.0, 0.0, 0.0, 0.0, 1.7622074574249256E9, 0.0, 2025-11-03 17:04:17.424
83.0, 190.27675999561325, -91.47234306624159, 177.93509014183655, -30.081885293591768, -0.06400000303983688, 0.06400000303983688, 1.0400000493973494, 0.0, 0.0, 0.0, 0.0, 0.0, 1.7622074574249256E9, 0.0, 2025-11-03 17:04:17.424
84.0, 201.68345486046746, -89.11994599411264, 185.71034214971587, -29.356344702187926, -0.06400000303983688, 0.06400000303983688, 1.0400000493973494, 0.0, 0.0, 0.0, 0.0, 0.0, 1.7622074574256291E9, 0.0, 2025-11-03 17:04:17.425
84.0, 254.6179988333024, -39.98140047630295, 236.79737554444, 20.75083490414545, -0.06400000303983688, 0.06400000303983688, 1.0400000493973494, 0.0, 0.0, 0.0, 0.0, 0.0, 1.7622074574256291E9, 0.0, 2025-11-03 17:04:17.425
85.0, 200.2959519769065, -87.97179670771584, 186.58173883939162, -29.034713305998594, -0.06400000303983688, 0.06400000303983688, 1.0400000493973494, 0.0, 0.0, 0.0, 0.0, 0.0, 1.7622074574392638E9, 0.0, 2025-11-03 17:04:17.439
85.0, 183.98624827014282, -97.79651389131323, 175.78464766731486, -34.566025340463966, -0.06400000303983688, 0.06400000303983688, 1.0400000493973494, 0.0, 0.0, 0.0, 0.0, 0.0, 1.7622074574392638E9, 0.0, 2025-11-03 17:04:17.439
86.0, 210.2665252587758, -77.78056932846084, 196.71686771931127, -17.12687184708193, -0.06400000303983688, 0.06400000303983688, 1.0400000493973494, 0.0, 0.0, 0.0, 0.0, 0.0, 1.7622074574550097E9, 0.0, 2025-11-03 17:04:17.455
86.0, 213.79699081694707, -77.66089252987877, 200.54652527393773, -17.216629446018487, -0.06400000303983688, 0.06400000303983688, 1.0400000493973494, 0.0, 0.0, 0.0, 0.0, 0.0, 1.7622074574550097E9, 0.0, 2025-11-03 17:04:17.455
87.0, 196.82532481802627, -89.67345118755475, 184.53601356362924, -31.749880673829466, -0.06400000303983688, 0.06400000303983688, 1.0400000493973494, 0.0, 0.0, 0.0, 0.0, 0.0, 1.7622074574558897E9, 0.0, 2025-11-03 17:04:17.455
87.0, 208.6733278776519, -80.48825689638034, 195.41912243468687, -18.34233933268115, -0.06400000303983688, 0.06400000303983688, 1.0400000493973494, 0.0, 0.0, 0.0, 0.0, 0.0, 1.7622074574558897E9, 0.0, 2025-11-03 17:04:17.455
88.0, 220.67092693550512, -63.187479701358825, 205.19896081881598, -5.985709879081696, -0.06400000303983688, 0.06400000303983688, 1.0400000493973494, 0.0, 0.0, 0.0, 0.0, 0.0, 1.7622074574693625E9, 0.0, 2025-11-03 17:04:17.469
88.0, 193.60153105622157, -89.13116569397971, 181.22994200279936, -32.79705266142264, -0.06400000303983688, 0.06400000303983688, 1.0400000493973494, 0.0, 0.0, 0.0, 0.0, 0.0, 1.7622074574693625E9, 0.0, 2025-11-03 17:04:17.469
89.0, 194.4392686462961, -99.44206987181678, 169.81950723798946, -42.244039949495345, -0.06400000303983688, 0.06400000303983688, 1.0400000493973494, 0.0, 0.0, 0.0, 0.0, 0.0, 1.7622074574849908E9, 0.0, 2025-11-03 17:04:17.484
89.0, 207.88046908704564, -89.38547889096662, 187.8458250244148, -22.007441289257258, -0.06400000303983688, 0.06400000303983688, 1.0400000493973494, 0.0, 0.0, 0.0, 0.0, 0.0, 1.7622074574849908E9, 0.0, 2025-11-03 17:04:17.484
90.0, 195.9614079282619, -98.43229688378051, 178.8064868315123, -35.09335123421624, -0.06400000303983688, 0.06400000303983688, 1.0400000493973494, 0.0, 0.0, 0.0, 0.0, 0.0, 1.7622074574856503E9, 0.0, 2025-11-03 17:04:17.485
90.0, 189.95138869946823, -100.74729495635256, 171.33416672004387, -38.94170828862116, -0.06400000303983688, 0.06400000303983688, 1.0400000493973494, 0.0, 0.0, 0.0, 0.0, 0.0, 1.7622074574856503E9, 0.0, 2025-11-03 17:04:17.485
91.0, 222.3838011152111, -76.3893265449442, 197.56956490920857, -18.473235831130296, -0.06400000303983688, 0.06400000303983688, 1.0400000493973494, 0.0, 0.0, 0.0, 0.0, 0.0, 1.7622074574992876E9, 0.0, 2025-11-03 17:04:17.499
91.0, 213.39308162173256, -78.93619841476902, 191.85873767687008, -21.401577496435493, -0.06400000303983688, 0.06400000303983688, 1.0400000493973494, 0.0, 0.0, 0.0, 0.0, 0.0, 1.7622074574992876E9, 0.0, 2025-11-03 17:04:17.499
92.0, 213.10136942518875, -80.8323276923038, 182.5089877876453, -29.65179679868743, -0.06400000303983688, 0.06400000303983688, 1.0400000493973494, 0.0, 0.0, 0.0, 0.0, 0.0, 1.7622074575149393E9, 0.0, 2025-11-03 17:04:17.514
92.0, 215.7118195942603, -84.86767974449322, 181.90686389477924, -32.12761056935415, -0.06400000303983688, 0.06400000303983688, 1.0400000493973494, 0.0, 0.0, 0.0, 0.0, 0.0, 1.7622074575149393E9, 0.0, 2025-11-03 17:04:17.514
93.0, 216.51215818477795, -75.4618313559331, 197.90989580517635, -16.378891855943948, -0.06400000303983688, 0.06400000303983688, 1.0400000493973494, 0.0, 0.0, 0.0, 0.0, 0.0, 1.762207457515666E9, 0.0, 2025-11-03 17:04:17.515
93.0, 201.63857606099918, -92.01462855981663, 179.70406282087788, -29.722854897845536, -0.06400000303983688, 0.06400000303983688, 1.0400000493973494, 0.0, 0.0, 0.0, 0.0, 0.0, 1.762207457515666E9, 0.0, 2025-11-03 17:04:17.515
94.0, 217.80616356944665, -78.25553662283346, 195.50888003362343, -18.162824134808034, -0.06400000303983688, 0.06400000303983688, 1.0400000493973494, 0.0, 0.0, 0.0, 0.0, 0.0, 1.7622074575292964E9, 0.0, 2025-11-03 17:04:17.529
94.0, 227.43640595534816, -67.77633694699034, 207.20728709502146, -1.9802770265378058, -0.06400000303983688, 0.06400000303983688, 1.0400000493973494, 0.0, 0.0, 0.0, 0.0, 0.0, 1.7622074575292964E9, 0.0, 2025-11-03 17:04:17.529
95.0, 222.903647209052, -70.8280953108333, 200.94295466924086, -11.90597150893882, -0.06400000303983688, 0.06400000303983688, 1.0400000493973494, 0.0, 0.0, 0.0, 0.0, 0.0, 1.7622074575449896E9, 0.0, 2025-11-03 17:04:17.544
95.0, 214.37293541012332, -85.16687174094841, 185.83375884825364, -33.070065358188, -0.06400000303983688, 0.06400000303983688, 1.0400000493973494, 0.0, 0.0, 0.0, 0.0, 0.0, 1.7622074575449896E9, 0.0, 2025-11-03 17:04:17.544
96.0, 218.18015356501564, -84.74800294591114, 187.23622133163735, -35.370103830937296, -0.06400000303983688, 0.06400000303983688, 1.0400000493973494, 0.0, 0.0, 0.0, 0.0, 0.0, 1.7622074575456443E9, 0.0, 2025-11-03 17:04:17.545
96.0, 213.76707161730155, -80.06190830143169, 191.65304317930713, -23.391204272862524, -0.06400000303983688, 0.06400000303983688, 1.0400000493973494, 0.0, 0.0, 0.0, 0.0, 0.0, 1.7622074575456443E9, 0.0, 2025-11-03 17:04:17.545
97.0, 189.8167523010634, -101.45039614802226, 168.82469384977594, -45.61742970952764, -0.06400000303983688, 0.06400000303983688, 1.0400000493973494, 0.0, 0.0, 0.0, 0.0, 0.0, 1.7622074575592408E9, 0.0, 2025-11-03 17:04:17.559
97.0, 217.99689846718684, -80.18158510001376, 193.57535175653175, -14.781954574864358, -0.06400000303983688, 0.06400000303983688, 1.0400000493973494, 0.0, 0.0, 0.0, 0.0, 0.0, 1.7622074575592408E9, 0.0, 2025-11-03 17:04:17.559
98.0, 211.75500544114038, -84.8751595444046, 191.2192147844471, -21.12482489971444, -0.06400000303983688, 0.06400000303983688, 1.0400000493973494, 0.0, 0.0, 0.0, 0.0, 0.0, 1.7622074575749454E9, 0.0, 2025-11-03 17:04:17.574
98.0, 188.9565753112547, -104.69288940960541, 176.55880695814267, -35.52717962907627, -0.06400000303983688, 0.06400000303983688, 1.0400000493973494, 0.0, 0.0, 0.0, 0.0, 0.0, 1.7622074575749454E9, 0.0, 2025-11-03 17:04:17.574
99.0, 188.74340101378039, -107.36317797796801, 178.48485543532297, -30.179122692439705, -0.06400000303983688, 0.06400000303983688, 1.0400000493973494, 0.0, 0.0, 0.0, 0.0, 0.0, 1.7622074575756304E9, 0.0, 2025-11-03 17:04:17.575
99.0, 214.2345591117628, -85.97095023142174, 190.01122709875926, -20.103832211811095, -0.06400000303983688, 0.06400000303983688, 1.0400000493973494, 0.0, 0.0, 0.0, 0.0, 0.0, 1.7622074575756304E9, 0.0, 2025-11-03 17:04:17.575
100.0, 206.24613280640915, -85.03597524249926, 186.52190044010058, -19.292273921426386, -0.06400000303983688, 0.06400000303983688, 1.0400000493973494, 0.0, 0.0, 0.0, 0.0, 0.0, 1.762207457589929E9, 0.0, 2025-11-03 17:04:17.589
100.0, 204.77635212382302, -90.19329728139564, 181.34213900147006, -23.716575569007546, -0.06400000303983688, 0.06400000303983688, 1.0400000493973494, 0.0, 0.0, 0.0, 0.0, 0.0, 1.762207457589929E9, 0.0, 2025-11-03 17:04:17.589
0.0, 229.6298572793603, -69.67246622452512, 203.0915271937847, -5.950180829502642, -0.06400000303983688, 0.06400000303983688, 1.0400000493973494, 0.0, 0.0, 0.0, 0.0, 0.0, 1.762207457590644E9, 0.0, 2025-11-03 17:04:17.590
1.0, 228.85943788848817, -65.9026470691897, 203.21494389232248, -10.797091172076762, -0.06400000303983688, 0.06400000303983688, 1.0400000493973494, 0.0, 0.0, 0.0, 0.0, 0.0, 1.7622074576044137E9, 0.0, 2025-11-03 17:04:17.604
1.0, 208.6564983278513, -85.93729113182053, 179.14868767745793, -26.040923391468823, -0.06400000303983688, 0.06400000303983688, 1.0400000493973494, 0.0, 0.0, 0.0, 0.0, 0.0, 1.7622074576044137E9, 0.0, 2025-11-03 17:04:17.604
2.0, 217.90901081822813, -74.56799526652321, 195.64164648205042, -14.727726025506854, -0.06400000303983688, 0.06400000303983688, 1.0400000493973494, 0.0, 0.0, 0.0, 0.0, 0.0, 1.762207457620004E9, 0.0, 2025-11-03 17:04:17.620
2.0, 227.93568259943277, -66.31403606431559, 208.70885692723095, -2.6740284683182836, -0.06400000303983688, 0.06400000303983688, 1.0400000493973494, 0.0, 0.0, 0.0, 0.0, 0.0, 1.762207457620004E9, 0.0, 2025-11-03 17:04:17.620
3.0, 217.3592455247417, -78.91375901503488, 192.71330481674522, -18.714459378272295, -0.06400000303983688, 0.06400000303983688, 1.0400000493973494, 0.0, 0.0, 0.0, 0.0, 0.0, 1.7622074576206827E9, 0.0, 2025-11-03 17:04:17.620
3.0, 213.50340867042542, -80.32370129832998, 187.2754902811721, -23.29957672394812, -0.06400000303983688, 0.06400000303983688, 1.0400000493973494, 0.0, 0.0, 0.0, 0.0, 0.0, 1.7622074576206827E9, 0.0, 2025-11-03 17:04:17.620
4.0, 216.71224283240736, -78.63700641831383, 194.04096930101514, -18.14973448496312, -0.06400000303983688, 0.06400000303983688, 1.0400000493973494, 0.0, 0.0, 0.0, 0.0, 0.0, 1.7622074576342702E9, 0.0, 2025-11-03 17:04:17.634
4.0, 190.1664329469204, -99.24385517416522, 176.0146515145898, -33.225271206349134, -0.06400000303983688, 0.06400000303983688, 1.0400000493973494, 0.0, 0.0, 0.0, 0.0, 0.0, 1.7622074576342702E9, 0.0, 2025-11-03 17:04:17.634
5.0, 190.34220824483782, -100.5453403587453, 171.6389685664326, -36.830534763634205, -0.06400000303983688, 0.06400000303983688, 1.0400000493973494, 0.0, 0.0, 0.0, 0.0, 0.0, 1.7622074576499364E9, 0.0, 2025-11-03 17:04:17.649
5.0, 224.1434240443632, -70.88793371012434, 205.14473226945847, -5.864163130521774, -0.06400000303983688, 0.06400000303983688, 1.0400000493973494, 0.0, 0.0, 0.0, 0.0, 0.0, 1.7622074576499364E9, 0.0, 2025-11-03 17:04:17.649
6.0, 222.01916086953133, -75.51045005535707, 205.2494494682178, -7.378822612576187, -0.06400000303983688, 0.06400000303983688, 1.0400000493973494, 0.0, 0.0, 0.0, 0.0, 0.0, 1.7622074576506329E9, 0.0, 2025-11-03 17:04:17.650
6.0, 193.3116888096556, -102.83415913162753, 169.0434779971838, -34.276183093898, -0.06400000303983688, 0.06400000303983688, 1.0400000493973494, 0.0, 0.0, 0.0, 0.0, 0.0, 1.7622074576506329E9, 0.0, 2025-11-03 17:04:17.650
7.0, 196.5018234718591, -100.27980746189132, 176.9758058032021, -30.465225039049983, -0.06400000303983688, 0.06400000303983688, 1.0400000493973494, 0.0, 0.0, 0.0, 0.0, 0.0, 1.762207457664291E9, 0.0, 2025-11-03 17:04:17.664
7.0, 204.77822207380086, -86.00460933102295, 189.18283925857395, -16.343362806364894, -0.06400000303983688, 0.06400000303983688, 1.0400000493973494, 0.0, 0.0, 0.0, 0.0, 0.0, 1.762207457664291E9, 0.0, 2025-11-03 17:04:17.664
8.0, 200.29782192688435, -89.89784518489614, 184.39950721524656, -17.461592893116176, -0.06400000303983688, 0.06400000303983688, 1.0400000493973494, 0.0, 0.0, 0.0, 0.0, 0.0, 1.7622074576799068E9, 0.0, 2025-11-03 17:04:17.679
8.0, 214.68521705642343, -85.6156597356312, 189.5007307548076, -12.162154655903578, -0.06400000303983688, 0.06400000303983688, 1.0400000493973494, 0.0, 0.0, 0.0, 0.0, 0.0, 1.7622074576799068E9, 0.0, 2025-11-03 17:04:17.679
9.0, 243.17577491886914, -58.119915261399, 219.46854909975082, 17.211019596084952, -0.06400000303983688, 0.06400000303983688, 1.0400000493973494, 0.0, 0.0, 0.0, 0.0, 0.0, 1.762207457680682E9, 0.0, 2025-11-03 17:04:17.680
9.0, 214.27008816134185, -76.68851854139939, 196.18019207566977, -14.009665234014392, -0.06400000303983688, 0.06400000303983688, 1.0400000493973494, 0.0, 0.0, 0.0, 0.0, 0.0, 1.762207457680682E9, 0.0, 2025-11-03 17:04:17.680
10.0, 199.54984193574637, -89.2807616922073, 181.6432009479031, -25.73799149505794, -0.06400000303983688, 0.06400000303983688, 1.0400000493973494, 0.0, 0.0, 0.0, 0.0, 0.0, 1.7622074576942697E9, 0.0, 2025-11-03 17:04:17.694
10.0, 225.38881072960794, -76.16867244755849, 197.01418976578861, -12.984932646155357, -0.06400000303983688, 0.06400000303983688, 1.0400000493973494, 0.0, 0.0, 0.0, 0.0, 0.0, 1.7622074576942697E9, 0.0, 2025-11-03 17:04:17.694
11.0, 222.02290076948702, -72.91121958615258, 197.36574036162347, -6.8627164186909795, -0.06400000303983688, 0.06400000303983688, 1.0400000493973494, 0.0, 0.0, 0.0, 0.0, 0.0, 1.7622074577099507E9, 0.0, 2025-11-03 17:04:17.709
11.0, 215.11904545128345, -83.82424765685573, 186.40783349145204, -16.53783760406077, -0.06400000303983688, 0.06400000303983688, 1.0400000493973494, 0.0, 0.0, 0.0, 0.0, 0.0, 1.7622074577099507E9, 0.0, 2025-11-03 17:04:17.709
12.0, 221.9555825702846, -75.20751815894619, 195.5406691832468, -6.735559820197523, -0.06400000303983688, 0.06400000303983688, 1.0400000493973494, 0.0, 0.0, 0.0, 0.0, 0.0, 1.7622074577106352E9, 0.0, 2025-11-03 17:04:17.710
12.0, 212.70680997986346, -85.1706116409041, 189.75130405183882, -21.489465145394206, -0.06400000303983688, 0.06400000303983688, 1.0400000493973494, 0.0, 0.0, 0.0, 0.0, 0.0, 1.7622074577106352E9, 0.0, 2025-11-03 17:04:17.710
13.0, 197.10020746476948, -97.26170819764957, 174.26063843537122, -33.28136970568448, -0.06400000303983688, 0.06400000303983688, 1.0400000493973494, 0.0, 0.0, 0.0, 0.0, 0.0, 1.7622074577242458E9, 0.0, 2025-11-03 17:04:17.724
13.0, 188.50591736659408, -104.57695251097903, 167.2595457183197, -39.78131582867354, -0.06400000303983688, 0.06400000303983688, 1.0400000493973494, 0.0, 0.0, 0.0, 0.0, 0.0, 1.7622074577242458E9, 0.0, 2025-11-03 17:04:17.724
14.0, 221.92940327059478, -74.91206606244668, 200.1295264288783, -9.173974591307342, -0.06400000303983688, 0.06400000303983688, 1.0400000493973494, 0.0, 0.0, 0.0, 0.0, 0.0, 1.762207457739902E9, 0.0, 2025-11-03 17:04:17.739
14.0, 211.988749188371, -77.95634462637827, 197.6537126582116, -8.934620994143188, -0.06400000303983688, 0.06400000303983688, 1.0400000493973494, 0.0, 0.0, 0.0, 0.0, 0.0, 1.762207457739902E9, 0.0, 2025-11-03 17:04:17.739
15.0, 199.2394302394241, -91.20681016938761, 180.233258664608, -27.222731777466834, -0.06400000303983688, 0.06400000303983688, 1.0400000493973494, 0.0, 0.0, 0.0, 0.0, 0.0, 1.7622074577406092E9, 0.0, 2025-11-03 17:04:17.740
15.0, 219.31147330161184, -74.89336656266823, 197.52281615976244, -13.119569044560194, -0.06400000303983688, 0.06400000303983688, 1.0400000493973494, 0.0, 0.0, 0.0, 0.0, 0.0, 1.7622074577406092E9, 0.0, 2025-11-03 17:04:17.740
16.0, 217.80055371951312, -73.3151287813671, 199.73309703357518, -10.157568279653788, -0.06400000303983688, 0.06400000303983688, 1.0400000493973494, 0.0, 0.0, 0.0, 0.0, 0.0, 1.7622074577542486E9, 0.0, 2025-11-03 17:04:17.754
16.0, 199.80415513273329, -88.0615543066524, 187.13337408285588, -20.382454758509994, -0.06400000303983688, 0.06400000303983688, 1.0400000493973494, 0.0, 0.0, 0.0, 0.0, 0.0, 1.7622074577542486E9, 0.0, 2025-11-03 17:04:17.754
17.0, 216.81696003116667, -72.78032308770344, 202.7212770981714, -7.25540591403842, -0.06400000303983688, 0.06400000303983688, 1.0400000493973494, 0.0, 0.0, 0.0, 0.0, 0.0, 1.7622074577699103E9, 0.0, 2025-11-03 17:04:17.769
17.0, 237.65194268431515, -54.043424309697, 225.87873762380332, 13.523478239774704, -0.06400000303983688, 0.06400000303983688, 1.0400000493973494, 0.0, 0.0, 0.0, 0.0, 0.0, 1.7622074577699103E9, 0.0, 2025-11-03 17:04:17.769
18.0, 217.35176572483033, -70.64858011296019, 207.8748592371121, -0.9611542886123061, -0.06400000303983688, 0.06400000303983688, 1.0400000493973494, 0.0, 0.0, 0.0, 0.0, 0.0, 1.7622074577705948E9, 0.0, 2025-11-03 17:04:17.770
18.0, 213.35007277224213, -81.36339348601177, 199.00007664225996, -10.684894173406065, -0.06400000303983688, 0.06400000303983688, 1.0400000493973494, 0.0, 0.0, 0.0, 0.0, 0.0, 1.7622074577705948E9, 0.0, 2025-11-03 17:04:17.770
19.0, 234.68246211949736, -68.81228923471645, 208.27128863241524, -4.906748741865158, -0.06400000303983688, 0.06400000303983688, 1.0400000493973494, 0.0, 0.0, 0.0, 0.0, 0.0, 1.7622074577843263E9, 0.0, 2025-11-03 17:04:17.784
19.0, 209.15390502195805, -86.14298562938347, 188.77145026344806, -23.29957672394812, -0.06400000303983688, 0.06400000303983688, 1.0400000493973494, 0.0, 0.0, 0.0, 0.0, 0.0, 1.7622074577843263E9, 0.0, 2025-11-03 17:04:17.784
20.0, 194.29528249800205, -106.22998829139397, 167.69711401313543, -42.38428619783372, -0.06400000303983688, 0.06400000303983688, 1.0400000493973494, 0.0, 0.0, 0.0, 0.0, 0.0, 1.762207457800006E9, 0.0, 2025-11-03 17:04:17.800
20.0, 221.42077687662095, -81.67754508228973, 191.97280462551862, -19.31284337118268, -0.06400000303983688, 0.06400000303983688, 1.0400000493973494, 0.0, 0.0, 0.0, 0.0, 0.0, 1.762207457800006E9, 0.0, 2025-11-03 17:04:17.800
21.0, 210.15993811003864, -88.19619070505723, 182.39492083899677, -32.52590991463512, -0.06400000303983688, 0.06400000303983688, 1.0400000493973494, 0.0, 0.0, 0.0, 0.0, 0.0, 1.7622074578006237E9, 0.0, 2025-11-03 17:04:17.800
21.0, 190.74611744005233, -103.90003061899915, 165.46065383963287, -46.63281254749745, -0.06400000303983688, 0.06400000303983688, 1.0400000493973494, 0.0, 0.0, 0.0, 0.0, 0.0, 1.7622074578006237E9, 0.0, 2025-11-03 17:04:17.800
22.0, 207.30639444384724, -89.31442079180852, 183.13542103022337, -32.87746051046997, -0.06400000303983688, 0.06400000303983688, 1.0400000493973494, 0.0, 0.0, 0.0, 0.0, 0.0, 1.7622074578143103E9, 0.0, 2025-11-03 17:04:17.814
22.0, 225.50100772827864, -72.013643596787, 202.545501800254, -9.005679093301296, -0.06400000303983688, 0.06400000303983688, 1.0400000493973494, 0.0, 0.0, 0.0, 0.0, 0.0, 1.7622074578143103E9, 0.0, 2025-11-03 17:04:17.814
23.0, 209.32968031987548, -88.25228920439258, 184.24617131706327, -26.676706383936107, -0.06400000303983688, 0.06400000303983688, 1.0400000493973494, 0.0, 0.0, 0.0, 0.0, 0.0, 1.7622074578299937E9, 0.0, 2025-11-03 17:04:17.829
23.0, 213.42113087140024, -84.65450544701889, 183.26257762871683, -27.922093069180846, -0.06400000303983688, 0.06400000303983688, 1.0400000493973494, 0.0, 0.0, 0.0, 0.0, 0.0, 1.7622074578299937E9, 0.0, 2025-11-03 17:04:17.829
24.0, 225.23547483142465, -66.72168515948579, 210.82190040219575, 5.864163130521774, -0.06400000303983688, 0.06400000303983688, 1.0400000493973494, 0.0, 0.0, 0.0, 0.0, 0.0, 1.762207457830667E9, 0.0, 2025-11-03 17:04:17.830
24.0, 212.97234287671745, -74.68019226519391, 205.93011126015335, -6.081077327951789, -0.06400000303983688, 0.06400000303983688, 1.0400000493973494, 0.0, 0.0, 0.0, 0.0, 0.0, 1.762207457830667E9, 0.0, 2025-11-03 17:04:17.830
25.0, 207.63924553990364, -84.88637924427167, 196.1689723758027, -13.545917639508843, -0.06400000303983688, 0.06400000303983688, 1.0400000493973494, 0.0, 0.0, 0.0, 0.0, 0.0, 1.7622074578442907E9, 0.0, 2025-11-03 17:04:17.844
25.0, 224.68196963798255, -73.93595217401162, 201.81248140893877, -6.971173517405987, -0.06400000303983688, 0.06400000303983688, 1.0400000493973494, 0.0, 0.0, 0.0, 0.0, 0.0, 1.7622074578442907E9, 0.0, 2025-11-03 17:04:17.844
26.0, 225.4785683285445, -71.81168899917975, 198.74950334522873, -5.542531734332442, -0.06400000303983688, 0.06400000303983688, 1.0400000493973494, 0.0, 0.0, 0.0, 0.0, 0.0, 1.7622074578599916E9, 0.0, 2025-11-03 17:04:17.859
26.0, 224.6632701382041, -70.17735271854326, 199.6882182341069, -7.150688715279102, -0.06400000303983688, 0.06400000303983688, 1.0400000493973494, 0.0, 0.0, 0.0, 0.0, 0.0, 1.7622074578599916E9, 0.0, 2025-11-03 17:04:17.859
27.0, 200.58953412342817, -95.57127341767773, 183.14664073009044, -23.490311621688306, -0.06400000303983688, 0.06400000303983688, 1.0400000493973494, 0.0, 0.0, 0.0, 0.0, 0.0, 1.7622074578606718E9, 0.0, 2025-11-03 17:04:17.860
27.0, 219.4386299001053, -76.16119264764711, 201.04206201806664, -1.1070103868842125, -0.06400000303983688, 0.06400000303983688, 1.0400000493973494, 0.0, 0.0, 0.0, 0.0, 0.0, 1.7622074578606718E9, 0.0, 2025-11-03 17:04:17.860
28.0, 199.92757183127105, -85.82135423319414, 184.792196710594, -20.90604075230658, -0.06400000303983688, 0.06400000303983688, 1.0400000493973494, 0.0, 0.0, 0.0, 0.0, 0.0, 1.762207457874292E9, 0.0, 2025-11-03 17:04:17.874
28.0, 204.97643677145243, -83.16976516461, 191.89426672644913, -12.50248555187136, -0.06400000303983688, 0.06400000303983688, 1.0400000493973494, 0.0, 0.0, 0.0, 0.0, 0.0, 1.762207457874292E9, 0.0, 2025-11-03 17:04:17.874
29.0, 227.67388960253447, -70.93281250959262, 204.5463482765481, -0.2767525967210531, -0.06400000303983688, 0.06400000303983688, 1.0400000493973494, 0.0, 0.0, 0.0, 0.0, 0.0, 1.7622074578899715E9, 0.0, 2025-11-03 17:04:17.889
29.0, 202.44078460149467, -88.62253930000588, 182.91102703288198, -20.57692955620587, -0.06400000303983688, 0.06400000303983688, 1.0400000493973494, 0.0, 0.0, 0.0, 0.0, 0.0, 1.7622074578899715E9, 0.0, 2025-11-03 17:04:17.889
30.0, 196.40084617305547, -97.66187749290839, 174.36909553408623, -33.13551360741258, -0.06400000303983688, 0.06400000303983688, 1.0400000493973494, 0.0, 0.0, 0.0, 0.0, 0.0, 1.7622074578906791E9, 0.0, 2025-11-03 17:04:17.890
30.0, 224.67448983807117, -73.25155048212036, 200.33148102648556, -5.520092334598303, -0.06400000303983688, 0.06400000303983688, 1.0400000493973494, 0.0, 0.0, 0.0, 0.0, 0.0, 1.7622074578906791E9, 0.0, 2025-11-03 17:04:17.890
31.0, 217.93893001787364, -74.88962666271254, 200.832627620548, -10.45676027610898, -0.06400000303983688, 0.06400000303983688, 1.0400000493973494, 0.0, 0.0, 0.0, 0.0, 0.0, 1.7622074579043174E9, 0.0, 2025-11-03 17:04:17.904
31.0, 189.77000355161726, -99.50190827110782, 170.6740743778646, -37.54859555512667, -0.06400000303983688, 0.06400000303983688, 1.0400000493973494, 0.0, 0.0, 0.0, 0.0, 0.0, 1.7622074579043174E9, 0.0, 2025-11-03 17:04:17.904
32.0, 218.00998811703175, -74.59043466625735, 196.80849526822567, -11.518891863524914, -0.06400000303983688, 0.06400000303983688, 1.0400000493973494, 0.0, 0.0, 0.0, 0.0, 0.0, 1.762207457919657E9, 0.0, 2025-11-03 17:04:17.919
32.0, 223.76569414883852, -64.70587908336893, 204.49398967716843, -1.2528664851561189, -0.06400000303983688, 0.06400000303983688, 1.0400000493973494, 0.0, 0.0, 0.0, 0.0, 0.0, 1.762207457919657E9, 0.0, 2025-11-03 17:04:17.919
33.0, 203.63007278740406, -86.80868782149628, 183.42713322676718, -20.229118860326707, -0.06400000303983688, 0.06400000303983688, 1.0400000493973494, 0.0, 0.0, 0.0, 0.0, 0.0, 1.7622074579350815E9, 0.0, 2025-11-03 17:04:17.935
33.0, 218.8477257071063, -75.65630615362898, 195.62668688222766, -13.28412464261055, -0.06400000303983688, 0.06400000303983688, 1.0400000493973494, 0.0, 0.0, 0.0, 0.0, 0.0, 1.7622074579350815E9, 0.0, 2025-11-03 17:04:17.935
34.0, 224.67448983807117, -75.22995755868033, 197.34330096188933, -11.717106561176479, -0.06400000303983688, 0.06400000303983688, 1.0400000493973494, 0.0, 0.0, 0.0, 0.0, 0.0, 1.7622074579356575E9, 0.0, 2025-11-03 17:04:17.935
34.0, 207.00720244739205, -88.96661009592935, 189.1641397587955, -14.832443224266171, -0.06400000303983688, 0.06400000303983688, 1.0400000493973494, 0.0, 0.0, 0.0, 0.0, 0.0, 1.7622074579356575E9, 0.0, 2025-11-03 17:04:17.935
35.0, 211.63345869258046, -82.16373207652941, 192.39541332051158, -14.11438243277371, -0.06400000303983688, 0.06400000303983688, 1.0400000493973494, 0.0, 0.0, 0.0, 0.0, 0.0, 1.7622074579500265E9, 0.0, 2025-11-03 17:04:17.950
35.0, 223.04763335734606, -71.77428999962285, 207.1006999462843, 4.637475945055485, -0.06400000303983688, 0.06400000303983688, 1.0400000493973494, 0.0, 0.0, 0.0, 0.0, 0.0, 1.7622074579500265E9, 0.0, 2025-11-03 17:04:17.950
36.0, 231.1108576618135, -56.06297028576955, 226.2602074192837, 16.694913402199745, -0.06400000303983688, 0.06400000303983688, 1.0400000493973494, 0.0, 0.0, 0.0, 0.0, 0.0, 1.7622074579507103E9, 0.0, 2025-11-03 17:04:17.950
36.0, 203.5029161889106, -80.4658174966462, 196.4270254727453, -13.800230836495757, -0.06400000303983688, 0.06400000303983688, 1.0400000493973494, 0.0, 0.0, 0.0, 0.0, 0.0, 1.7622074579507103E9, 0.0, 2025-11-03 17:04:17.950
37.0, 227.85714470036328, -60.95475942781195, 216.11385883949697, 5.684647932648659, -0.06400000303983688, 0.06400000303983688, 1.0400000493973494, 0.0, 0.0, 0.0, 0.0, 0.0, 1.7622074579642792E9, 0.0, 2025-11-03 17:04:17.964
37.0, 238.83375107031316, -45.19482101453468, 233.8484644293785, 18.721939178183675, -0.06400000303983688, 0.06400000303983688, 1.0400000493973494, 0.0, 0.0, 0.0, 0.0, 0.0, 1.7622074579642792E9, 0.0, 2025-11-03 17:04:17.964
38.0, 193.12095391191542, -90.42891097860411, 184.13397431839257, -24.040076915174723, -0.06400000303983688, 0.06400000303983688, 1.0400000493973494, 0.0, 0.0, 0.0, 0.0, 0.0, 1.7622074579799914E9, 0.0, 2025-11-03 17:04:17.979
38.0, 207.79258143808693, -75.73110415274277, 197.721030857414, -16.48173910472542, -0.06400000303983688, 0.06400000303983688, 1.0400000493973494, 0.0, 0.0, 0.0, 0.0, 0.0, 1.7622074579799914E9, 0.0, 2025-11-03 17:04:17.979
39.0, 235.16864911373705, -60.44239313388243, 215.75482844375074, 3.5940438574180007, -0.06400000303983688, 0.06400000303983688, 1.0400000493973494, 0.0, 0.0, 0.0, 0.0, 0.0, 1.7622074579806724E9, 0.0, 2025-11-03 17:04:17.980
39.0, 216.4728892352432, -69.77344352332875, 204.77822207380086, -2.778745667077601, -0.06400000303983688, 0.06400000303983688, 1.0400000493973494, 0.0, 0.0, 0.0, 0.0, 0.0, 1.7622074579806724E9, 0.0, 2025-11-03 17:04:17.980
40.0, 178.78217748180032, -111.5144669287838, 161.65343568474054, -45.645478959195316, -0.06400000303983688, 0.06400000303983688, 1.0400000493973494, 0.0, 0.0, 0.0, 0.0, 0.0, 1.7622074579943E9, 0.0, 2025-11-03 17:04:17.994
40.0, 210.1374987103045, -88.18497100519016, 187.69435907620937, -21.75873794220388, -0.06400000303983688, 0.06400000303983688, 1.0400000493973494, 0.0, 0.0, 0.0, 0.0, 0.0, 1.7622074579943E9, 0.0, 2025-11-03 17:04:17.994
41.0, 199.3217080384493, -93.11789904674515, 180.62594815995544, -28.666333160363138, -0.06400000303983688, 0.06400000303983688, 1.0400000493973494, 0.0, 0.0, 0.0, 0.0, 0.0, 1.7622074580099595E9, 0.0, 2025-11-03 17:04:18.009
41.0, 192.51135021913797, -104.33385901385918, 164.32746415305883, -44.033582078292966, -0.06400000303983688, 0.06400000303983688, 1.0400000493973494, 0.0, 0.0, 0.0, 0.0, 0.0, 1.7622074580099595E9, 0.0, 2025-11-03 17:04:18.009
42.0, 206.26296235620975, -95.70216991612688, 172.43556725699455, -35.07652168441564, -0.0800000037997961, 0.06400000303983688, 1.0400000493973494, 0.0, 0.0, 0.0, 0.0, 0.0, 1.7622074580106466E9, 0.0, 2025-11-03 17:04:18.010
42.0, 213.18925707414746, -89.01896869530901, 187.91501317359507, -13.66185453813523, -0.0800000037997961, 0.06400000303983688, 1.0400000493973494, 0.0, 0.0, 0.0, 0.0, 0.0, 1.7622074580106466E9, 0.0, 2025-11-03 17:04:18.010
43.0, 192.61980731785297, -107.93538267118856, 166.27595202997327, -33.793735999614, -0.0800000037997961, 0.06400000303983688, 1.0400000493973494, 0.0, 0.0, 0.0, 0.0, 0.0, 1.762207458024232E9, 0.0, 2025-11-03 17:04:18.024
43.0, 205.2494494682178, -96.09111951151863, 180.94383965618908, -24.025117315351963, -0.0800000037997961, 0.06400000303983688, 1.0400000493973494, 0.0, 0.0, 0.0, 0.0, 0.0, 1.762207458024232E9, 0.0, 2025-11-03 17:04:18.024
44.0, 225.96849522273988, -69.31717572873458, 209.14642522204667, 5.61732973344624, -0.0800000037997961, 0.06400000303983688, 1.0400000493973494, 0.0, 0.0, 0.0, 0.0, 0.0, 1.7622074580400865E9, 0.0, 2025-11-03 17:04:18.040
44.0, 217.3966445242986, -71.83786829886958, 205.38782576657832, 0.39642939530313015, -0.0800000037997961, 0.06400000303983688, 1.0400000493973494, 0.0, 0.0, 0.0, 0.0, 0.0, 1.7622074580400865E9, 0.0, 2025-11-03 17:04:18.040
45.0, 206.5471947528422, -84.85272014467046, 189.96447834931314, -16.92304729949683, -0.0800000037997961, 0.06400000303983688, 1.0400000493973494, 0.0, 0.0, 0.0, 0.0, 0.0, 1.7622074580406675E9, 0.0, 2025-11-03 17:04:18.040
45.0, 228.01422049850225, -73.0159367849119, 201.41979191359133, -9.585363586433232, -0.0800000037997961, 0.06400000303983688, 1.0400000493973494, 0.0, 0.0, 0.0, 0.0, 0.0, 1.7622074580406675E9, 0.0, 2025-11-03 17:04:18.040
46.0, 221.11410508025438, -75.64134655380622, 192.86290081497282, -13.66185453813523, -0.0800000037997961, 0.06400000303983688, 1.0400000493973494, 0.0, 0.0, 0.0, 0.0, 0.0, 1.7622074580542314E9, 0.0, 2025-11-03 17:04:18.054
46.0, 217.12737172748893, -79.62807990657166, 184.43690621480346, -16.83328970056027, -0.0800000037997961, 0.06400000303983688, 1.0400000493973494, 0.0, 0.0, 0.0, 0.0, 0.0, 1.7622074580542314E9, 0.0, 2025-11-03 17:04:18.054
47.0, 219.74904159642756, -81.39331268565729, 185.18862610589713, -16.13766830880195, -0.0800000037997961, 0.06400000303983688, 1.0400000493973494, 0.0, 0.0, 0.0, 0.0, 0.0, 1.7622074580700607E9, 0.0, 2025-11-03 17:04:18.070
47.0, 234.02049982734025, -64.18229308957234, 203.2074640924111, 0.12715659849345684, -0.0800000037997961, 0.06400000303983688, 1.0400000493973494, 0.0, 0.0, 0.0, 0.0, 0.0, 1.7622074580700607E9, 0.0, 2025-11-03 17:04:18.070
48.0, 206.11336635798216, -89.07880709460005, 177.95565959159285, -26.729064983315766, -0.0800000037997961, 0.06400000303983688, 1.0400000493973494, 0.0, 0.0, 0.0, 0.0, 0.0, 1.7622074580706668E9, 0.0, 2025-11-03 17:04:18.070
48.0, 192.462731519714, -101.70844924496487, 171.02936487365514, -28.9393458571285, -0.0800000037997961, 0.06400000303983688, 1.0400000493973494, 0.0, 0.0, 0.0, 0.0, 0.0, 1.7622074580706668E9, 0.0, 2025-11-03 17:04:18.070
49.0, 211.8054940905422, -92.14926495822147, 189.6839858526364, -17.951519787311554, -0.0800000037997961, 0.06400000303983688, 1.0400000493973494, 0.0, 0.0, 0.0, 0.0, 0.0, 1.7622074580843823E9, 0.0, 2025-11-03 17:04:18.084
49.0, 194.48227749578655, -100.5864792582579, 175.25545182358474, -30.9401923334226, -0.0800000037997961, 0.06400000303983688, 1.0400000493973494, 0.0, 0.0, 0.0, 0.0, 0.0, 1.7622074580843823E9, 0.0, 2025-11-03 17:04:18.084
50.0, 199.67699853423983, -100.2872872618027, 171.7436857651919, -35.158799483440816, -0.0800000037997961, 0.06400000303983688, 1.0400000493973494, 0.0, 0.0, 0.0, 0.0, 0.0, 1.7622074581000896E9, 0.0, 2025-11-03 17:04:18.100
50.0, 229.97766797523946, -74.73255086457357, 195.65660608187318, -10.198707179166377, -0.0800000037997961, 0.06400000303983688, 1.0400000493973494, 0.0, 0.0, 0.0, 0.0, 0.0, 1.7622074581000896E9, 0.0, 2025-11-03 17:04:18.100
51.0, 224.03870684560388, -72.89252008637413, 197.5415156595409, -9.454467087984085, -0.0800000037997961, 0.04800000227987766, 1.0400000493973494, 0.0, 0.0, 0.0, 0.0, 0.0, 1.7622074581006706E9, 0.0, 2025-11-03 17:04:18.100
51.0, 192.17101932317019, -98.97458237735555, 168.21322020702064, -36.17605227138847, -0.0800000037997961, 0.04800000227987766, 1.0400000493973494, 0.0, 0.0, 0.0, 0.0, 0.0, 1.7622074581006706E9, 0.0, 2025-11-03 17:04:18.100
52.0, 206.9847630476579, -91.2479490689002, 185.76457069907337, -19.421300469897687, -0.06400000303983688, 0.04800000227987766, 1.0400000493973494, 0.0, 0.0, 0.0, 0.0, 0.0, 1.7622074581143703E9, 0.0, 2025-11-03 17:04:18.114
52.0, 214.25886846147478, -79.51588290790096, 197.8668869556859, -12.652081550098956, -0.06400000303983688, 0.04800000227987766, 1.0400000493973494, 0.0, 0.0, 0.0, 0.0, 0.0, 1.7622074581143703E9, 0.0, 2025-11-03 17:04:18.114
53.0, 220.35864528920501, -77.70577132934704, 195.99319707788527, -11.578730262815952, -0.06400000303983688, 0.04800000227987766, 1.0400000493973494, 0.0, 0.0, 0.0, 0.0, 0.0, 1.762207458130007E9, 0.0, 2025-11-03 17:04:18.130
53.0, 211.66711779218167, -94.35580593207851, 177.34979579877108, -25.41636009886861, -0.06400000303983688, 0.04800000227987766, 1.0400000493973494, 0.0, 0.0, 0.0, 0.0, 0.0, 1.762207458130007E9, 0.0, 2025-11-03 17:04:18.130
54.0, 230.27312007173896, -76.80445544002578, 198.08754105307162, -4.1662485506385565, -0.06400000303983688, 0.04800000227987766, 1.0400000493973494, 0.0, 0.0, 0.0, 0.0, 0.0, 1.7622074581306636E9, 0.0, 2025-11-03 17:04:18.130
54.0, 192.9414387140423, -101.15120415156707, 169.75779888872057, -28.92064635735005, -0.06400000303983688, 0.04800000227987766, 1.0400000493973494, 0.0, 0.0, 0.0, 0.0, 0.0, 1.7622074581306636E9, 0.0, 2025-11-03 17:04:18.130
55.0, 215.1751439506188, -82.81821456877515, 188.67421286460012, -18.194613284431398, -0.06400000303983688, 0.04800000227987766, 1.0400000493973494, 0.0, 0.0, 0.0, 0.0, 0.0, 1.7622074581442988E9, 0.0, 2025-11-03 17:04:18.144
55.0, 235.82313160598278, -62.63397450791672, 207.0259019471705, -1.7652327790856361, -0.06400000303983688, 0.04800000227987766, 1.0400000493973494, 0.0, 0.0, 0.0, 0.0, 0.0, 1.7622074581442988E9, 0.0, 2025-11-03 17:04:18.144
56.0, 214.2850477611646, -77.91520572686568, 191.43051913194358, -19.230565572157502, -0.06400000303983688, 0.04800000227987766, 1.0400000493973494, 0.0, 0.0, 0.0, 0.0, 0.0, 1.762207458159933E9, 0.0, 2025-11-03 17:04:18.159
56.0, 210.24221590906382, -82.25722957542166, 185.54391660168767, -19.38764137029648, -0.06400000303983688, 0.04800000227987766, 1.0400000493973494, 0.0, 0.0, 0.0, 0.0, 0.0, 1.762207458159933E9, 0.0, 2025-11-03 17:04:18.159
57.0, 222.34453216567636, -78.44627152057365, 192.11118092387915, -14.028364733792841, -0.06400000303983688, 0.04800000227987766, 1.0400000493973494, 0.0, 0.0, 0.0, 0.0, 0.0, 1.7622074581606407E9, 0.0, 2025-11-03 17:04:18.160
57.0, 222.31087306607515, -76.98771053785458, 194.59821439441293, -9.738699484616518, -0.06400000303983688, 0.04800000227987766, 1.0400000493973494, 0.0, 0.0, 0.0, 0.0, 0.0, 1.7622074581606407E9, 0.0, 2025-11-03 17:04:18.160
58.0, 211.92891078907996, -89.62109258817509, 179.8256095694378, -26.1979991896078, -0.06400000303983688, 0.04800000227987766, 1.0400000493973494, 0.0, 0.0, 0.0, 0.0, 0.0, 1.7622074581743653E9, 0.0, 2025-11-03 17:04:18.174
58.0, 218.1408846154809, -82.18991137621924, 190.73489774018526, -18.1572142848745, -0.06400000303983688, 0.04800000227987766, 1.0400000493973494, 0.0, 0.0, 0.0, 0.0, 0.0, 1.7622074581743653E9, 0.0, 2025-11-03 17:04:18.174
59.0, 243.1196764195338, -68.61033463710919, 205.04375497065485, -4.944147741422057, -0.06400000303983688, 0.04800000227987766, 1.0400000493973494, 0.0, 0.0, 0.0, 0.0, 0.0, 1.7622074581901062E9, 0.0, 2025-11-03 17:04:18.190
59.0, 199.92757183127105, -98.17050388688222, 176.65043450705707, -29.04406305588782, -0.06400000303983688, 0.04800000227987766, 1.0400000493973494, 0.0, 0.0, 0.0, 0.0, 0.0, 1.7622074581901062E9, 0.0, 2025-11-03 17:04:18.190
60.0, 193.32290850952268, -109.8128124489449, 165.94684083387256, -40.828487816266716, -0.06400000303983688, 0.04800000227987766, 1.0400000493973494, 0.0, 0.0, 0.0, 0.0, 0.0, 1.7622074581907077E9, 0.0, 2025-11-03 17:04:18.190
60.0, 214.19155026227236, -91.77153506269678, 189.0556826600805, -19.507318168878555, -0.06400000303983688, 0.04800000227987766, 1.0400000493973494, 0.0, 0.0, 0.0, 0.0, 0.0, 1.7622074581907077E9, 0.0, 2025-11-03 17:04:18.190
61.0, 199.62090003490448, -98.87734497850761, 174.84406282845885, -24.410327010788023, -0.06400000303983688, 0.04800000227987766, 1.0400000493973494, 0.0, 0.0, 0.0, 0.0, 0.0, 1.7622074582043164E9, 0.0, 2025-11-03 17:04:18.204
61.0, 174.53365113213658, -126.95277394587174, 144.1394841922447, -54.42302415519953, -0.06400000303983688, 0.04800000227987766, 1.0400000493973494, 0.0, 0.0, 0.0, 0.0, 0.0, 1.7622074582043164E9, 0.0, 2025-11-03 17:04:18.204
62.0, 194.11576730012894, -113.49661390529945, 158.57175812125206, -42.37306649796665, -0.06400000303983688, 0.04800000227987766, 1.0400000493973494, 0.0, 0.0, 0.0, 0.0, 0.0, 1.7622074582199736E9, 0.0, 2025-11-03 17:04:18.219
62.0, 214.41594425961375, -87.56414761254564, 186.95759878493845, -15.27375141903758, -0.06400000303983688, 0.04800000227987766, 1.0400000493973494, 0.0, 0.0, 0.0, 0.0, 0.0, 1.7622074582199736E9, 0.0, 2025-11-03 17:04:18.219
63.0, 201.0607615178451, -97.7291956921108, 172.1139358608052, -26.680446283891797, -0.06400000303983688, 0.04800000227987766, 1.0400000493973494, 0.0, 0.0, 0.0, 0.0, 0.0, 1.762207458220653E9, 0.0, 2025-11-03 17:04:18.220
63.0, 191.00417053699493, -108.95263545913622, 162.94370116945356, -37.45135815627873, -0.06400000303983688, 0.04800000227987766, 1.0400000493973494, 0.0, 0.0, 0.0, 0.0, 0.0, 1.762207458220653E9, 0.0, 2025-11-03 17:04:18.220
64.0, 243.24309311807156, -75.73858395265415, 192.0139435250312, -15.763678313232958, -0.06400000303983688, 0.04800000227987766, 1.0400000493973494, 0.0, 0.0, 0.0, 0.0, 0.0, 1.7622074582342734E9, 0.0, 2025-11-03 17:04:18.234
64.0, 219.01228130515665, -84.33661395078525, 176.54197740834206, -30.95141203328967, -0.06400000303983688, 0.04800000227987766, 1.0400000493973494, 0.0, 0.0, 0.0, 0.0, 0.0, 1.7622074582342734E9, 0.0, 2025-11-03 17:04:18.234
65.0, 222.7746206605807, -81.54290868388489, 180.85034215729684, -27.181592877954245, -0.06400000303983688, 0.04800000227987766, 1.0400000493973494, 0.0, 0.0, 0.0, 0.0, 0.0, 1.7622074582499468E9, 0.0, 2025-11-03 17:04:18.249
65.0, 230.46759486943483, -75.52914955513552, 188.25160416960716, -23.067702926695347, -0.06400000303983688, 0.04800000227987766, 1.0400000493973494, 0.0, 0.0, 0.0, 0.0, 0.0, 1.7622074582499468E9, 0.0, 2025-11-03 17:04:18.249
66.0, 224.04618664551526, -83.62603295920417, 179.73585197050124, -26.18677948974073, -0.06400000303983688, 0.04800000227987766, 1.0400000493973494, 0.0, 0.0, 0.0, 0.0, 0.0, 1.7622074582506323E9, 0.0, 2025-11-03 17:04:18.250
66.0, 206.0273486590013, -97.69179669255391, 166.5938435262069, -40.099207324907184, -0.06400000303983688, 0.04800000227987766, 1.0400000493973494, 0.0, 0.0, 0.0, 0.0, 0.0, 1.7622074582506323E9, 0.0, 2025-11-03 17:04:18.250
67.0, 187.78037677519023, -116.55959196900949, 148.5151671404019, -59.09789909981191, -0.06400000303983688, 0.04800000227987766, 1.0400000493973494, 0.0, 0.0, 0.0, 0.0, 0.0, 1.7622074582643468E9, 0.0, 2025-11-03 17:04:18.264
67.0, 201.93589810747653, -102.81919953180477, 169.7877180883661, -40.858407015912235, -0.06400000303983688, 0.04800000227987766, 1.0400000493973494, 0.0, 0.0, 0.0, 0.0, 0.0, 1.7622074582643468E9, 0.0, 2025-11-03 17:04:18.264
68.0, 172.5664637554437, -122.85010369447991, 150.46365501731634, -57.51966131851077, -0.06400000303983688, 0.04800000227987766, 1.0400000493973494, 0.0, 0.0, 0.0, 0.0, 0.0, 1.7622074582799697E9, 0.0, 2025-11-03 17:04:18.279
68.0, 190.13277384731919, -109.12841075705364, 164.28632525354624, -44.912458567880094, -0.06400000303983688, 0.04800000227987766, 1.0400000493973494, 0.0, 0.0, 0.0, 0.0, 0.0, 1.7622074582799697E9, 0.0, 2025-11-03 17:04:18.279
69.0, 233.4856941336766, -62.420800210442394, 212.0635471874848, 5.8978222301229835, -0.06400000303983688, 0.04800000227987766, 1.0400000493973494, 0.0, 0.0, 0.0, 0.0, 0.0, 1.7622074582806551E9, 0.0, 2025-11-03 17:04:18.280
69.0, 189.55308935418725, -104.1767832157202, 169.3351901937276, -37.78794915229082, -0.06400000303983688, 0.04800000227987766, 1.0400000493973494, 0.0, 0.0, 0.0, 0.0, 0.0, 1.7622074582806551E9, 0.0, 2025-11-03 17:04:18.280
70.0, 164.2264868542552, -136.07065003784373, 135.53023449424654, -62.74804145656526, -0.06400000303983688, 0.04800000227987766, 1.0400000493973494, 0.0, 0.0, 0.0, 0.0, 0.0, 1.7622074582943156E9, 0.0, 2025-11-03 17:04:18.294
70.0, 198.74576344527304, -107.93912257114425, 168.72558650095016, -33.71519810054451, -0.06400000303983688, 0.04800000227987766, 1.0400000493973494, 0.0, 0.0, 0.0, 0.0, 0.0, 1.7622074582943156E9, 0.0, 2025-11-03 17:04:18.294
71.0, 204.70716397464275, -104.6629702099599, 171.96059996262193, -38.32649474591017, -0.06400000303983688, 0.04800000227987766, 1.0400000493973494, 0.0, 0.0, 0.0, 0.0, 0.0, 1.7622074583108788E9, 0.0, 2025-11-03 17:04:18.310
71.0, 202.9456710955128, -107.73342807358131, 154.05769887473434, -52.33989987988025, -0.06400000303983688, 0.04800000227987766, 1.0400000493973494, 0.0, 0.0, 0.0, 0.0, 0.0, 1.7622074583108788E9, 0.0, 2025-11-03 17:04:18.310
72.0, 220.97946868184954, -90.33915337966755, 171.22383967135102, -32.24167751800269, -0.06400000303983688, 0.04800000227987766, 1.0400000493973494, 0.0, 0.0, 0.0, 0.0, 0.0, 1.7622074583109207E9, 0.0, 2025-11-03 17:04:18.310
72.0, 219.59570569824427, -91.39006526721641, 169.63064229022712, -39.10065403673798, -0.06400000303983688, 0.04800000227987766, 1.0400000493973494, 0.0, 0.0, 0.0, 0.0, 0.0, 1.7622074583109207E9, 0.0, 2025-11-03 17:04:18.310
73.0, 216.6935433326289, -94.03417453588918, 157.88361652940512, -48.62617922388017, -0.06400000303983688, 0.04800000227987766, 1.0400000493973494, 0.0, 0.0, 0.0, 0.0, 0.0, 1.7622074583242657E9, 0.0, 2025-11-03 17:04:18.324
73.0, 213.76146176736802, -102.2918736380525, 147.2884799549356, -62.76674095634371, -0.06400000303983688, 0.04800000227987766, 1.0400000493973494, 0.0, 0.0, 0.0, 0.0, 0.0, 1.7622074583242657E9, 0.0, 2025-11-03 17:04:18.324
74.0, 197.2759827626869, -123.97955348109826, 129.9091648608446, -82.35259702429175, -0.06400000303983688, 0.04800000227987766, 1.0400000493973494, 0.0, 0.0, 0.0, 0.0, 0.0, 1.7622074583399563E9, 0.0, 2025-11-03 17:04:18.339
74.0, 175.09837602544576, -144.42932643881068, 102.37602138705552, -108.91336650960147, -0.06400000303983688, 0.04800000227987766, 1.0400000493973494, 0.0, 0.0, 0.0, 0.0, 0.0, 1.7622074583399563E9, 0.0, 2025-11-03 17:04:18.339
75.0, 179.70593277085572, -134.69810675410554, 116.21739112306386, -92.71959970146418, -0.06400000303983688, 0.04800000227987766, 1.0400000493973494, 0.0, 0.0, 0.0, 0.0, 0.0, 1.762207458340641E9, 0.0, 2025-11-03 17:04:18.340
75.0, 224.01626744586974, -95.72086941590533, 154.24095397256315, -61.390457772649825, -0.06400000303983688, 0.04800000227987766, 1.0400000493973494, 0.0, 0.0, 0.0, 0.0, 0.0, 1.762207458340641E9, 0.0, 2025-11-03 17:04:18.340
76.0, 219.09829900413752, -99.16905717505142, 153.26857998408377, -57.94974981341511, -0.06400000303983688, 0.04800000227987766, 1.0400000493973494, 0.0, 0.0, 0.0, 0.0, 0.0, 1.762207458354287E9, 0.0, 2025-11-03 17:04:18.354
76.0, 180.1958596650511, -137.88450151635334, 112.75424376409501, -96.84844925254583, -0.06400000303983688, 0.04800000227987766, 1.0400000493973494, 0.0, 0.0, 0.0, 0.0, 0.0, 1.762207458354287E9, 0.0, 2025-11-03 17:04:18.354
77.0, 146.34228526614606, -177.33670614892617, 81.73177363164723, -136.79432067926973, -0.06400000303983688, 0.04800000227987766, 1.0400000493973494, 0.0, 0.0, 0.0, 0.0, 0.0, 1.7622074583701148E9, 0.0, 2025-11-03 17:04:18.370
77.0, 174.00258533842862, -141.20553267700598, 114.79248923994601, -94.09214298520237, -0.06400000303983688, 0.04800000227987766, 1.0400000493973494, 0.0, 0.0, 0.0, 0.0, 0.0, 1.7622074583701148E9, 0.0, 2025-11-03 17:04:18.370
78.0, 171.27245837077498, -140.47625218564644, 109.94557889737189, -93.37034229375422, -0.06400000303983688, 0.04800000227987766, 1.0400000493973494, 0.0, 0.0, 0.0, 0.0, 0.0, 1.7622074583706455E9, 0.0, 2025-11-03 17:04:18.370
78.0, 193.00127711333334, -121.03625221597031, 131.00869544781744, -78.93806836474687, -0.06400000303983688, 0.04800000227987766, 1.0400000493973494, 0.0, 0.0, 0.0, 0.0, 0.0, 1.7622074583706455E9, 0.0, 2025-11-03 17:04:18.370
79.0, 219.52838749904186, -104.7714273086749, 148.20849534403533, -67.14990370441228, -0.06400000303983688, 0.04800000227987766, 1.0400000493973494, 0.0, 0.0, 0.0, 0.0, 0.0, 1.762207458384363E9, 0.0, 2025-11-03 17:04:18.384
79.0, 190.13651374727488, -126.71342034870759, 129.27338186837733, -79.28213916067034, -0.06400000303983688, 0.04800000227987766, 1.0400000493973494, 0.0, 0.0, 0.0, 0.0, 0.0, 1.762207458384363E9, 0.0, 2025-11-03 17:04:18.384
80.0, 169.76153878867626, -140.4238935862668, 112.95245846174657, -93.5984761910513, -0.06400000303983688, 0.04800000227987766, 1.0400000493973494, 0.0, 0.0, 0.0, 0.0, 0.0, 1.7622074583999836E9, 0.0, 2025-11-03 17:04:18.399
80.0, 199.63211973477155, -122.01610600436106, 136.59984588157386, -74.65588291548193, -0.06400000303983688, 0.04800000227987766, 1.0400000493973494, 0.0, 0.0, 0.0, 0.0, 0.0, 1.7622074583999836E9, 0.0, 2025-11-03 17:04:18.399
81.0, 233.31739863567054, -80.67525189416483, 179.376821574755, -33.30380910541862, -0.06400000303983688, 0.04800000227987766, 1.0400000493973494, 0.0, 0.0, 0.0, 0.0, 0.0, 1.7622074584006596E9, 0.0, 2025-11-03 17:04:18.400
81.0, 226.64915701467544, -89.99882248369977, 167.38296241685748, -42.1299730008468, -0.06400000303983688, 0.04800000227987766, 1.0400000493973494, 0.0, 0.0, 0.0, 0.0, 0.0, 1.7622074584006596E9, 0.0, 2025-11-03 17:04:18.400
82.0, 216.35321243666112, -100.44810295989737, 152.71881469059736, -61.24086177442223, -0.06400000303983688, 0.04800000227987766, 1.0400000493973494, 0.0, 0.0, 0.0, 0.0, 0.0, 1.7622074584144647E9, 0.0, 2025-11-03 17:04:18.414
82.0, 210.88547870144248, -102.72944193286821, 153.1863021850586, -62.972435453906655, -0.06400000303983688, 0.04800000227987766, 1.0400000493973494, 0.0, 0.0, 0.0, 0.0, 0.0, 1.7622074584144647E9, 0.0, 2025-11-03 17:04:18.414
83.0, 185.5289570018649, -129.31639071786776, 120.8735665678978, -92.66724110208452, -0.06400000303983688, 0.04800000227987766, 1.0400000493973494, 0.0, 0.0, 0.0, 0.0, 0.0, 1.762207458429959E9, 0.0, 2025-11-03 17:04:18.429
83.0, 171.87458226364106, -144.55648303730413, 102.69391288328916, -109.57906870171428, -0.06400000303983688, 0.04800000227987766, 1.0400000493973494, 0.0, 0.0, 0.0, 0.0, 0.0, 1.762207458429959E9, 0.0, 2025-11-03 17:04:18.429
84.0, 191.04156953655183, -126.68724104901776, 119.01483628991991, -94.21929958369583, -0.06400000303983688, 0.04800000227987766, 1.0400000493973494, 0.0, 0.0, 0.0, 0.0, 0.0, 1.762207458430633E9, 0.0, 2025-11-03 17:04:18.430
84.0, 166.1188762318343, -147.85881469817832, 98.08635613787919, -125.8027547094971, -0.06400000303983688, 0.04800000227987766, 1.0400000493973494, 0.0, 0.0, 0.0, 0.0, 0.0, 1.762207458430633E9, 0.0, 2025-11-03 17:04:18.430
85.0, 176.42978040967137, -134.90754115162417, 114.95330493804067, -118.96247769054025, -0.06400000303983688, 0.04800000227987766, 1.0400000493973494, 0.0, 0.0, 0.0, 0.0, 0.0, 1.7622074584442637E9, 0.0, 2025-11-03 17:04:18.444
85.0, 213.5071485703811, -107.1425238805823, 144.4349362887442, -97.42065394576639, -0.06400000303983688, 0.04800000227987766, 1.0400000493973494, 0.0, 0.0, 0.0, 0.0, 0.0, 1.7622074584442637E9, 0.0, 2025-11-03 17:04:18.444
86.0, 233.23512083664536, -80.16288560023531, 168.53111170325428, -69.08717188145965, -0.06400000303983688, 0.04800000227987766, 1.0400000493973494, 0.0, 0.0, 0.0, 0.0, 0.0, 1.7622074584599602E9, 0.0, 2025-11-03 17:04:18.459
86.0, 146.80229296069592, -160.11820675292984, 89.45840694010258, -143.41394360084087, -0.06400000303983688, 0.04800000227987766, 1.0400000493973494, 0.0, 0.0, 0.0, 0.0, 0.0, 1.7622074584599602E9, 0.0, 2025-11-03 17:04:18.459
87.0, 150.06348572205752, -161.7226238339208, 87.88016915880144, -159.88446300569922, -0.06400000303983688, 0.04800000227987766, 1.0400000493973494, 0.0, 0.0, 0.0, 0.0, 0.0, 1.7622074584606485E9, 0.0, 2025-11-03 17:04:18.460
87.0, 199.11975344084203, -114.6260636919178, 139.18785665091127, -107.83627532236278, -0.06400000303983688, 0.04800000227987766, 1.0400000493973494, 0.0, 0.0, 0.0, 0.0, 0.0, 1.7622074584606485E9, 0.0, 2025-11-03 17:04:18.460
88.0, 223.1822697557509, -81.3895727857016, 177.27499779965729, -64.73766823299229, -0.06400000303983688, 0.04800000227987766, 1.0400000493973494, 0.0, 0.0, 0.0, 0.0, 0.0, 1.7622074584743595E9, 0.0, 2025-11-03 17:04:18.474
88.0, 252.54048440791667, -49.32741046557203, 204.7595225740224, -25.831488993950188, -0.06400000303983688, 0.04800000227987766, 1.0400000493973494, 0.0, 0.0, 0.0, 0.0, 0.0, 1.7622074584743595E9, 0.0, 2025-11-03 17:04:18.474
89.0, 274.85646744351834, -32.05655247019604, 232.7040550429374, -0.06357829924672842, -0.06400000303983688, 0.04800000227987766, 1.0400000493973494, 0.0, 0.0, 0.0, 0.0, 0.0, 1.762207458489977E9, 0.0, 2025-11-03 17:04:18.489
89.0, 214.37480536010116, -80.62663319474086, 178.16509398911148, -53.383331967517734, -0.06400000303983688, 0.04800000227987766, 1.0400000493973494, 0.0, 0.0, 0.0, 0.0, 0.0, 1.762207458489977E9, 0.0, 2025-11-03 17:04:18.489
90.0, 191.2435241341591, -115.19452848518267, 145.64292397443205, -83.95701410528272, -0.06400000303983688, 0.04800000227987766, 1.0400000493973494, 0.0, 0.0, 0.0, 0.0, 0.0, 1.76220745849064E9, 0.0, 2025-11-03 17:04:18.490
90.0, 193.8726738030091, -109.77915334934369, 155.23576736077666, -75.56467860471457, -0.06400000303983688, 0.04800000227987766, 1.0400000493973494, 0.0, 0.0, 0.0, 0.0, 0.0, 1.76220745849064E9, 0.0, 2025-11-03 17:04:18.490
91.0, 198.14363955240697, -106.53666008776054, 158.6727354200557, -73.39179673045874, -0.06400000303983688, 0.06400000303983688, 1.0400000493973494, 0.0, 0.0, 0.0, 0.0, 0.0, 1.762207458504279E9, 0.0, 2025-11-03 17:04:18.504
91.0, 209.20252372138202, -91.57332036504522, 162.1134433792904, -71.70884175039828, -0.06400000303983688, 0.06400000303983688, 1.0400000493973494, 0.0, 0.0, 0.0, 0.0, 0.0, 1.762207458504279E9, 0.0, 2025-11-03 17:04:18.504
92.0, 183.16908012982458, -122.68928799638525, 131.59585974086076, -106.36649463977665, -0.06400000303983688, 0.06400000303983688, 1.0400000493973494, 0.0, 0.0, 0.0, 0.0, 0.0, 1.762207458519949E9, 0.0, 2025-11-03 17:04:18.519
92.0, 225.7029623258859, -84.0561214541085, 175.88001511618495, -57.83381291478872, -0.06400000303983688, 0.06400000303983688, 1.0400000493973494, 0.0, 0.0, 0.0, 0.0, 0.0, 1.762207458519949E9, 0.0, 2025-11-03 17:04:18.519
93.0, 196.37840677332133, -109.45004215324298, 156.73172734305263, -74.18839542102069, -0.06400000303983688, 0.06400000303983688, 1.0400000493973494, 0.0, 0.0, 0.0, 0.0, 0.0, 1.762207458520626E9, 0.0, 2025-11-03 17:04:18.520
93.0, 207.5420081410557, -103.1034319284372, 158.79615211859345, -77.04941888712347, -0.06400000303983688, 0.06400000303983688, 1.0400000493973494, 0.0, 0.0, 0.0, 0.0, 0.0, 1.762207458520626E9, 0.0, 2025-11-03 17:04:18.520
94.0, 234.91059601679444, -66.5309502617456, 194.77398969233036, -34.1265870956704, -0.06400000303983688, 0.06400000303983688, 1.0400000493973494, 0.0, 0.0, 0.0, 0.0, 0.0, 1.7622074585342777E9, 0.0, 2025-11-03 17:04:18.534
94.0, 222.85689845960587, -76.66233924170956, 188.33014206867665, -42.62363979499787, -0.06400000303983688, 0.06400000303983688, 1.0400000493973494, 0.0, 0.0, 0.0, 0.0, 0.0, 1.7622074585342777E9, 0.0, 2025-11-03 17:04:18.534
95.0, 198.577467947267, -107.0303268819116, 144.74534798506647, -91.03290482144803, -0.06400000303983688, 0.06400000303983688, 1.0400000493973494, 0.0, 0.0, 0.0, 0.0, 0.0, 1.76220745854993E9, 0.0, 2025-11-03 17:04:18.549
95.0, 230.4788145693019, -75.77598295221105, 177.25629829987884, -55.07002684753388, -0.06400000303983688, 0.06400000303983688, 1.0400000493973494, 0.0, 0.0, 0.0, 0.0, 0.0, 1.76220745854993E9, 0.0, 2025-11-03 17:04:18.549
96.0, 209.38577881921083, -88.79831459792331, 168.02996510919183, -68.5860252873972, -0.06400000303983688, 0.06400000303983688, 1.0400000493973494, 0.0, 0.0, 0.0, 0.0, 0.0, 1.7622074585506663E9, 0.0, 2025-11-03 17:04:18.550
96.0, 198.55502854753286, -104.18800291558728, 156.2193610491231, -76.73526729084551, -0.06400000303983688, 0.06400000303983688, 1.0400000493973494, 0.0, 0.0, 0.0, 0.0, 0.0, 1.7622074585506663E9, 0.0, 2025-11-03 17:04:18.550
97.0, 203.5365752885118, -103.41010372480378, 155.27316636033356, -77.5543053811416, -0.06400000303983688, 0.06400000303983688, 1.0400000493973494, 0.0, 0.0, 0.0, 0.0, 0.0, 1.7622074585651803E9, 0.0, 2025-11-03 17:04:18.565
97.0, 233.10048443824053, -67.50706415018067, 194.72911089286208, -36.864193863235414, -0.06400000303983688, 0.06400000303983688, 1.0400000493973494, 0.0, 0.0, 0.0, 0.0, 0.0, 1.7622074585651803E9, 0.0, 2025-11-03 17:04:18.565
98.0, 224.86522473581135, -68.04560974380001, 191.69231212884188, -35.618807177990675, -0.06400000303983688, 0.06400000303983688, 1.0400000493973494, 0.0, 0.0, 0.0, 0.0, 0.0, 1.7622074585799198E9, 0.0, 2025-11-03 17:04:18.579
98.0, 224.98116163443774, -65.70817227149382, 196.88703316729516, -30.424086139537394, -0.06400000303983688, 0.06400000303983688, 1.0400000493973494, 0.0, 0.0, 0.0, 0.0, 0.0, 1.7622074585799198E9, 0.0, 2025-11-03 17:04:18.579
99.0, 242.06876453198493, -61.42972672218457, 202.44078460149467, -27.136714078485966, -0.06400000303983688, 0.06400000303983688, 1.0400000493973494, 0.0, 0.0, 0.0, 0.0, 0.0, 1.762207458580645E9, 0.0, 2025-11-03 17:04:18.580
99.0, 202.78485539741814, -96.78300100332126, 165.60277003794909, -52.41469787899405, -0.06400000303983688, 0.06400000303983688, 1.0400000493973494, 0.0, 0.0, 0.0, 0.0, 0.0, 1.762207458580645E9, 0.0, 2025-11-03 17:04:18.580
100.0, 199.8714733319357, -105.81485939631239, 158.39598282333463, -70.02588677033782, -0.06400000303983688, 0.06400000303983688, 1.0400000493973494, 0.0, 0.0, 0.0, 0.0, 0.0, 1.7622074585949836E9, 0.0, 2025-11-03 17:04:18.594
100.0, 212.36647908389568, -93.0618005474098, 170.1916272835806, -57.94227001350373, -0.06400000303983688, 0.06400000303983688, 1.0400000493973494, 0.0, 0.0, 0.0, 0.0, 0.0, 1.7622074585949836E9, 0.0, 2025-11-03 17:04:18.594
0.0, 177.0842629019171, -126.97147344565019, 139.91900709224865, -88.06903410656378, -0.06400000303983688, 0.06400000303983688, 1.0400000493973494, 0.0, 0.0, 0.0, 0.0, 0.0, 1.762207458595684E9, 0.0, 2025-11-03 17:04:18.595
1.0, 163.29151186533272, -140.04242379078642, 124.84721027081832, -96.6932434043847, -0.06400000303983688, 0.0800000037997961, 1.0400000493973494, 0.0, 0.0, 0.0, 0.0, 0.0, 1.7622074586092608E9, 0.0, 2025-11-03 17:04:18.609
1.0, 209.49797581788152, -95.507695118431, 171.0948131228797, -53.100969520863146, -0.06400000303983688, 0.0800000037997961, 1.0400000493973494, 0.0, 0.0, 0.0, 0.0, 0.0, 1.7622074586092608E9, 0.0, 2025-11-03 17:04:18.609
2.0, 236.30557870026678, -65.98492486821488, 199.61903008492664, -28.35405151406303, -0.0800000037997961, 0.0800000037997961, 1.0400000493973494, 0.0, 0.0, 0.0, 0.0, 0.0, 1.762207458625098E9, 0.0, 2025-11-03 17:04:18.625
2.0, 223.1785298557952, -80.58175439527258, 176.5849862578325, -50.5241784513928, -0.0800000037997961, 0.0800000037997961, 1.0400000493973494, 0.0, 0.0, 0.0, 0.0, 0.0, 1.762207458625098E9, 0.0, 2025-11-03 17:04:18.625
3.0, 221.6264713741839, -86.95828381972387, 169.0603075469844, -59.2306655482389, -0.0800000037997961, 0.0800000037997961, 1.0400000493973494, 0.0, 0.0, 0.0, 0.0, 0.0, 1.7622074586257057E9, 0.0, 2025-11-03 17:04:18.625
3.0, 255.4950053729117, -51.548911039251834, 206.1900343070738, -23.338845673482865, -0.0800000037997961, 0.0800000037997961, 1.0400000493973494, 0.0, 0.0, 0.0, 0.0, 0.0, 1.7622074586257057E9, 0.0, 2025-11-03 17:04:18.625
4.0, 232.71527474280447, -69.72482482390478, 186.89963033562526, -39.98888027621433, -0.0800000037997961, 0.0800000037997961, 1.0400000493973494, 0.0, 0.0, 0.0, 0.0, 0.0, 1.762207458639244E9, 0.0, 2025-11-03 17:04:18.639
4.0, 212.2505421852693, -90.67574437567964, 164.5387685005553, -65.93256626883522, -0.0800000037997961, 0.0800000037997961, 1.0400000493973494, 0.0, 0.0, 0.0, 0.0, 0.0, 1.762207458639244E9, 0.0, 2025-11-03 17:04:18.639
5.0, 236.3317579999566, -64.53384368540719, 194.78707934217528, -36.48833391768858, -0.0800000037997961, 0.0800000037997961, 1.0400000493973494, 0.0, 0.0, 0.0, 0.0, 0.0, 1.7622074586549664E9, 0.0, 2025-11-03 17:04:18.654
5.0, 231.30159255955368, -69.27977672917768, 193.45193505799398, -38.242346996907145, -0.0800000037997961, 0.0800000037997961, 1.0400000493973494, 0.0, 0.0, 0.0, 0.0, 0.0, 1.7622074586549664E9, 0.0, 2025-11-03 17:04:18.654
6.0, 174.29803743492812, -133.21336647169665, 123.35873008845374, -115.95372817618772, -0.0800000037997961, 0.0800000037997961, 1.0400000493973494, 0.0, 0.0, 0.0, 0.0, 0.0, 1.7622074586556835E9, 0.0, 2025-11-03 17:04:18.655
6.0, 177.4919119970873, -130.59169660275802, 122.7827854952775, -106.39828378940001, -0.0800000037997961, 0.0800000037997961, 1.0400000493973494, 0.0, 0.0, 0.0, 0.0, 0.0, 1.7622074586556835E9, 0.0, 2025-11-03 17:04:18.655
7.0, 225.81889922451228, -83.65969205880538, 179.38991122459993, -45.66604840895161, -0.0800000037997961, 0.0800000037997961, 1.0400000493973494, 0.0, 0.0, 0.0, 0.0, 0.0, 1.7622074586692839E9, 0.0, 2025-11-03 17:04:18.669
7.0, 225.1120581328869, -74.99808376142755, 187.93558262335137, -32.37070406647399, -0.0800000037997961, 0.0800000037997961, 1.0400000493973494, 0.0, 0.0, 0.0, 0.0, 0.0, 1.7622074586692839E9, 0.0, 2025-11-03 17:04:18.669
8.0, 205.82539406139404, -101.37185824895278, 161.03822214202955, -57.34575597057119, -0.0800000037997961, 0.0800000037997961, 1.0400000493973494, 0.0, 0.0, 0.0, 0.0, 0.0, 1.7622074587013526E9, 0.0, 2025-11-03 17:04:18.701
8.0, 204.89041907247156, -106.37958428962156, 157.71345108142123, -60.49475173326209, -0.0800000037997961, 0.0800000037997961, 1.0400000493973494, 0.0, 0.0, 0.0, 0.0, 0.0, 1.7622074587013526E9, 0.0, 2025-11-03 17:04:18.701
9.0, 198.45779114868492, -99.14287787536159, 167.45589046599343, -49.20399376703426, -0.0800000037997961, 0.0800000037997961, 1.0400000493973494, 0.0, 0.0, 0.0, 0.0, 0.0, 1.7622074587020695E9, 0.0, 2025-11-03 17:04:18.702
9.0, 205.8777526607737, -90.05492098303512, 177.38532484835014, -42.06078485166654, -0.0800000037997961, 0.0800000037997961, 1.0400000493973494, 0.0, 0.0, 0.0, 0.0, 0.0, 1.7622074587020695E9, 0.0, 2025-11-03 17:04:18.702
10.0, 227.80478610098362, -78.23683712305501, 187.75606742547825, -35.73661402659491, -0.0800000037997961, 0.0800000037997961, 1.0400000493973494, 0.0, 0.0, 0.0, 0.0, 0.0, 1.762207458702802E9, 0.0, 2025-11-03 17:04:18.702
10.0, 233.9606614280492, -70.03523652022704, 200.9242551694624, -22.845178879331797, -0.0800000037997961, 0.0800000037997961, 1.0400000493973494, 0.0, 0.0, 0.0, 0.0, 0.0, 1.762207458702802E9, 0.0, 2025-11-03 17:04:18.702
11.0, 218.82528630737215, -80.60419379500672, 189.61479770345613, -34.4052096423693, -0.0800000037997961, 0.09600000455975533, 1.0400000493973494, 0.0, 0.0, 0.0, 0.0, 0.0, 1.7622074587035587E9, 0.0, 2025-11-03 17:04:18.703
11.0, 221.5516733750701, -84.18701795255765, 183.97128867032006, -38.578937992919236, -0.0800000037997961, 0.09600000455975533, 1.0400000493973494, 0.0, 0.0, 0.0, 0.0, 0.0, 1.7622074587035587E9, 0.0, 2025-11-03 17:04:18.703
12.0, 219.01228130515665, -87.01812221901491, 178.82892623124644, -42.32257784856483, -0.06400000303983688, 0.09600000455975533, 1.0400000493973494, 0.0, 0.0, 0.0, 0.0, 0.0, 1.7622074587143066E9, 0.0, 2025-11-03 17:04:18.714
12.0, 202.81103469710797, -104.22540191514418, 156.45310479635373, -58.733258854132146, -0.06400000303983688, 0.09600000455975533, 1.0400000493973494, 0.0, 0.0, 0.0, 0.0, 0.0, 1.7622074587143066E9, 0.0, 2025-11-03 17:04:18.714
13.0, 199.82659453246742, -104.06458621704951, 161.430911637377, -54.26033850712702, -0.06400000303983688, 0.09600000455975533, 1.0400000493973494, 0.0, 0.0, 0.0, 0.0, 0.0, 1.7622074587299647E9, 0.0, 2025-11-03 17:04:18.729
13.0, 223.22340865526348, -81.75608298135921, 182.52768728742376, -45.97272020531818, -0.06400000303983688, 0.09600000455975533, 1.0400000493973494, 0.0, 0.0, 0.0, 0.0, 0.0, 1.7622074587299647E9, 0.0, 2025-11-03 17:04:18.729
14.0, 201.67410511057824, -94.74849542742595, 171.23318942124024, -48.05210458068177, -0.06400000303983688, 0.09600000455975533, 1.0400000493973494, 0.0, 0.0, 0.0, 0.0, 0.0, 1.7622074587449763E9, 0.0, 2025-11-03 17:04:18.744
14.0, 195.4247322846204, -105.6241244985722, 159.89381275558844, -63.146340801846236, -0.06400000303983688, 0.09600000455975533, 1.0400000493973494, 0.0, 0.0, 0.0, 0.0, 0.0, 1.7622074587449763E9, 0.0, 2025-11-03 17:04:18.744
15.0, 253.4904189966619, -55.41222769347951, 205.9656403097324, -19.18381682271138, -0.06400000303983688, 0.09600000455975533, 1.0400000493973494, 0.0, 0.0, 0.0, 0.0, 0.0, 1.7622074587456877E9, 0.0, 2025-11-03 17:04:18.745
15.0, 223.87789114750922, -80.23394369939342, 188.79575961316004, -27.284440126735717, -0.06400000303983688, 0.09600000455975533, 1.0400000493973494, 0.0, 0.0, 0.0, 0.0, 0.0, 1.7622074587456877E9, 0.0, 2025-11-03 17:04:18.745
16.0, 194.67675229348242, -104.91354350699112, 158.36045377375558, -55.71515958989039, -0.06400000303983688, 0.09600000455975533, 1.0400000493973494, 0.0, 0.0, 0.0, 0.0, 0.0, 1.7622074587592685E9, 0.0, 2025-11-03 17:04:18.759
16.0, 193.92129250243306, -110.11200444540009, 148.3898804918863, -68.81602913467214, -0.06400000303983688, 0.09600000455975533, 1.0400000493973494, 0.0, 0.0, 0.0, 0.0, 0.0, 1.7622074587592685E9, 0.0, 2025-11-03 17:04:18.759
17.0, 203.4318580897525, -105.44460930069908, 155.798622304108, -61.76631771819666, -0.06400000303983688, 0.09600000455975533, 1.0400000493973494, 0.0, 0.0, 0.0, 0.0, 0.0, 1.7622074587749949E9, 0.0, 2025-11-03 17:04:18.774
17.0, 206.5023159533739, -93.00196214811876, 169.92796433670446, -40.47880717040971, -0.06400000303983688, 0.09600000455975533, 1.0400000493973494, 0.0, 0.0, 0.0, 0.0, 0.0, 1.7622074587749949E9, 0.0, 2025-11-03 17:04:18.774
18.0, 228.3657710943371, -73.4235858800821, 188.27217361936346, -24.76000765664503, -0.06400000303983688, 0.09600000455975533, 1.0400000493973494, 0.0, 0.0, 0.0, 0.0, 0.0, 1.7622074587756774E9, 0.0, 2025-11-03 17:04:18.775
18.0, 236.20834130141884, -77.99748352589086, 189.6297573032789, -26.37938433745876, -0.06400000303983688, 0.09600000455975533, 1.0400000493973494, 0.0, 0.0, 0.0, 0.0, 0.0, 1.7622074587756774E9, 0.0, 2025-11-03 17:04:18.775
19.0, 226.92964951135218, -78.17325882380828, 191.93353567598388, -13.607625988777727, -0.06400000303983688, 0.09600000455975533, 1.0400000493973494, 0.0, 0.0, 0.0, 0.0, 0.0, 1.7622074587893128E9, 0.0, 2025-11-03 17:04:18.789
19.0, 199.3591070380062, -102.71074243308976, 159.54974195966497, -53.108449320774525, -0.06400000303983688, 0.09600000455975533, 1.0400000493973494, 0.0, 0.0, 0.0, 0.0, 0.0, 1.7622074587893128E9, 0.0, 2025-11-03 17:04:18.789
20.0, 227.1091647092253, -82.73219686979428, 184.04982656938955, -33.91902264812961, -0.06400000303983688, 0.09600000455975533, 1.0400000493973494, 0.0, 0.0, 0.0, 0.0, 0.0, 1.7622074588050327E9, 0.0, 2025-11-03 17:04:18.805
20.0, 212.08972648717463, -88.08773360634223, 177.41898394795135, -35.422462430316955, -0.06400000303983688, 0.09600000455975533, 1.0400000493973494, 0.0, 0.0, 0.0, 0.0, 0.0, 1.7622074588050327E9, 0.0, 2025-11-03 17:04:18.805
21.0, 202.19769110437483, -92.22780285729095, 170.3991917311214, -43.35853013629094, -0.06400000303983688, 0.09600000455975533, 1.0400000493973494, 0.0, 0.0, 0.0, 0.0, 0.0, 1.762207458806012E9, 0.0, 2025-11-03 17:04:18.806
21.0, 223.5525198513642, -79.93101180298254, 183.63469767430797, -33.780646349769086, -0.06400000303983688, 0.09600000455975533, 1.0400000493973494, 0.0, 0.0, 0.0, 0.0, 0.0, 1.762207458806012E9, 0.0, 2025-11-03 17:04:18.806
22.0, 249.53734474349767, -59.01375135080889, 206.3022313057445, -5.069434389937669, -0.0800000037997961, 0.09600000455975533, 1.0400000493973494, 0.0, 0.0, 0.0, 0.0, 0.0, 1.7622074588192716E9, 0.0, 2025-11-03 17:04:18.819
22.0, 214.67025745660067, -89.96890328405425, 169.34080004366115, -36.593051116447896, -0.0800000037997961, 0.09600000455975533, 1.0400000493973494, 0.0, 0.0, 0.0, 0.0, 0.0, 1.7622074588192716E9, 0.0, 2025-11-03 17:04:18.819
23.0, 205.1671716691926, -104.53207371151075, 156.281069398392, -55.81239698873833, -0.0800000037997961, 0.09600000455975533, 1.0400000493973494, 0.0, 0.0, 0.0, 0.0, 0.0, 1.762207458834977E9, 0.0, 2025-11-03 17:04:18.834
23.0, 207.53078844118863, -100.15265086339787, 158.5773679711856, -51.919161134865135, -0.0800000037997961, 0.09600000455975533, 1.0400000493973494, 0.0, 0.0, 0.0, 0.0, 0.0, 1.762207458834977E9, 0.0, 2025-11-03 17:04:18.834
24.0, 213.01348177623004, -91.61445926455781, 178.03980734059587, -36.76134661445394, -0.0800000037997961, 0.09600000455975533, 1.0400000493973494, 0.0, 0.0, 0.0, 0.0, 0.0, 1.7622074588356695E9, 0.0, 2025-11-03 17:04:18.835
24.0, 213.03592117596418, -89.47897638985887, 178.36891853669658, -37.075498210731894, -0.0800000037997961, 0.09600000455975533, 1.0400000493973494, 0.0, 0.0, 0.0, 0.0, 0.0, 1.7622074588356695E9, 0.0, 2025-11-03 17:04:18.835
25.0, 204.1312193814665, -91.23672936903313, 178.30908013740554, -36.69776831520721, -0.0800000037997961, 0.09600000455975533, 1.0400000493973494, 0.0, 0.0, 0.0, 0.0, 0.0, 1.7622074588494408E9, 0.0, 2025-11-03 17:04:18.849
25.0, 222.8045398602262, -78.71928421733901, 193.2238011606969, -18.839746026787907, -0.0800000037997961, 0.09600000455975533, 1.0400000493973494, 0.0, 0.0, 0.0, 0.0, 0.0, 1.7622074588494408E9, 0.0, 2025-11-03 17:04:18.849
26.0, 231.82143865339458, -76.89795293891802, 185.20171575574204, -25.17513655172661, -0.0800000037997961, 0.09600000455975533, 1.0400000493973494, 0.0, 0.0, 0.0, 0.0, 0.0, 1.7622074588651426E9, 0.0, 2025-11-03 17:04:18.865
26.0, 178.55778348445892, -126.76577894808725, 142.17790666548535, -65.44637927459553, -0.0800000037997961, 0.09600000455975533, 1.0400000493973494, 0.0, 0.0, 0.0, 0.0, 0.0, 1.7622074588651426E9, 0.0, 2025-11-03 17:04:18.865
27.0, 230.49751406908035, -83.42407836159691, 188.38063071807846, -22.661923781502992, -0.0800000037997961, 0.09600000455975533, 1.0400000493973494, 0.0, 0.0, 0.0, 0.0, 0.0, 1.7622074588656723E9, 0.0, 2025-11-03 17:04:18.865
27.0, 229.04269298631698, -78.14333962416276, 190.882623788435, -17.46720274304971, -0.0800000037997961, 0.09600000455975533, 1.0400000493973494, 0.0, 0.0, 0.0, 0.0, 0.0, 1.7622074588656723E9, 0.0, 2025-11-03 17:04:18.865
28.0, 204.99887617118657, -90.85525957355276, 185.15683695627376, -18.847225826699287, -0.0800000037997961, 0.09600000455975533, 1.0400000493973494, 0.0, 0.0, 0.0, 0.0, 0.0, 1.7622074588792846E9, 0.0, 2025-11-03 17:04:18.879
28.0, 243.23561331816018, -62.63771440787241, 210.5993763548322, -0.6114736427552998, -0.0800000037997961, 0.09600000455975533, 1.0400000493973494, 0.0, 0.0, 0.0, 0.0, 0.0, 1.7622074588792846E9, 0.0, 2025-11-03 17:04:18.879
29.0, 185.22602510545403, -116.963501164224, 148.07946879556403, -59.70189294265583, -0.0800000037997961, 0.09600000455975533, 1.0400000493973494, 0.0, 0.0, 0.0, 0.0, 0.0, 1.7622074588950295E9, 0.0, 2025-11-03 17:04:18.895
29.0, 186.50507089029998, -117.49830685788766, 146.1571602183394, -63.4567524981685, -0.0800000037997961, 0.09600000455975533, 1.0400000493973494, 0.0, 0.0, 0.0, 0.0, 0.0, 1.7622074588950295E9, 0.0, 2025-11-03 17:04:18.895
30.0, 246.8259172756225, -62.13282791385427, 204.31634442927316, -11.109372818376869, -0.0800000037997961, 0.09600000455975533, 1.0400000493973494, 0.0, 0.0, 0.0, 0.0, 0.0, 1.7622074588956487E9, 0.0, 2025-11-03 17:04:18.895
30.0, 262.570896089077, -45.19108111457899, 224.72497848747298, 15.06618697149679, -0.0800000037997961, 0.09600000455975533, 1.0400000493973494, 0.0, 0.0, 0.0, 0.0, 0.0, 1.7622074588956487E9, 0.0, 2025-11-03 17:04:18.895
31.0, 211.11735249869525, -91.55462086526677, 177.89769114227965, -35.59823772823438, -0.0800000037997961, 0.12800000607967377, 1.0400000493973494, 0.0, 0.0, 0.0, 0.0, 0.0, 1.7622074589092667E9, 0.0, 2025-11-03 17:04:18.909
31.0, 228.4405690934509, -71.48257780307904, 199.67886848421767, -13.338353191968054, -0.0800000037997961, 0.12800000607967377, 1.0400000493973494, 0.0, 0.0, 0.0, 0.0, 0.0, 1.7622074589092667E9, 0.0, 2025-11-03 17:04:18.909
32.0, 253.8980680918321, -46.642162297386676, 223.32251600408927, 9.007549043279141, -0.0800000037997961, 0.12800000607967377, 1.0400000493973494, 0.0, 0.0, 0.0, 0.0, 0.0, 1.7622074589250424E9, 0.0, 2025-11-03 17:04:18.925
32.0, 216.3943513361737, -85.51842233678326, 182.85305858356878, -36.54069251706824, -0.0800000037997961, 0.12800000607967377, 1.0400000493973494, 0.0, 0.0, 0.0, 0.0, 0.0, 1.7622074589250424E9, 0.0, 2025-11-03 17:04:18.925
33.0, 201.93589810747653, -94.9915889245458, 169.16128484578803, -53.149588220287114, -0.0800000037997961, 0.12800000607967377, 1.0400000493973494, 0.0, 0.0, 0.0, 0.0, 0.0, 1.7622074589256587E9, 0.0, 2025-11-03 17:04:18.925
33.0, 228.1488568969071, -81.3521737861447, 184.1021851687692, -36.49581371759996, -0.0800000037997961, 0.12800000607967377, 1.0400000493973494, 0.0, 0.0, 0.0, 0.0, 0.0, 1.7622074589256587E9, 0.0, 2025-11-03 17:04:18.925
34.0, 234.5590454209596, -69.58644852554426, 199.9331816812046, -14.924070773180574, -0.0800000037997961, 0.12800000607967377, 1.0400000493973494, 0.0, 0.0, 0.0, 0.0, 0.0, 1.7622074589393663E9, 0.0, 2025-11-03 17:04:18.939
34.0, 178.4530662856996, -123.17173509066924, 151.24716405803338, -53.534797915723175, -0.0800000037997961, 0.12800000607967377, 1.0400000493973494, 0.0, 0.0, 0.0, 0.0, 0.0, 1.7622074589393663E9, 0.0, 2025-11-03 17:04:18.939
35.0, 254.1897802883759, -64.6796997836791, 205.17278151912615, -11.87231240933761, -0.0800000037997961, 0.12800000607967377, 1.0400000493973494, 0.0, 0.0, 0.0, 0.0, 0.0, 1.7622074589549327E9, 0.0, 2025-11-03 17:04:18.954
35.0, 231.7391608543694, -72.0173834967427, 204.6716349250637, -3.943724503275007, -0.0800000037997961, 0.12800000607967377, 1.0400000493973494, 0.0, 0.0, 0.0, 0.0, 0.0, 1.7622074589549327E9, 0.0, 2025-11-03 17:04:18.954
36.0, 205.00635597109795, -104.49093481199816, 169.55397434113547, -38.268526296596974, -0.0800000037997961, 0.12800000607967377, 1.0400000493973494, 0.0, 0.0, 0.0, 0.0, 0.0, 1.7622074589556427E9, 0.0, 2025-11-03 17:04:18.955
36.0, 207.31387424375862, -102.37415143707767, 162.93061151960865, -45.57255091005936, -0.0800000037997961, 0.12800000607967377, 1.0400000493973494, 0.0, 0.0, 0.0, 0.0, 0.0, 1.7622074589556427E9, 0.0, 2025-11-03 17:04:18.955
37.0, 240.86451674625278, -65.88394756941125, 210.21416665939614, 8.375505950767547, -0.0800000037997961, 0.12800000607967377, 1.0400000493973494, 0.0, 0.0, 0.0, 0.0, 0.0, 1.7622074589692996E9, 0.0, 2025-11-03 17:04:18.969
37.0, 214.62911855708808, -81.31103488663211, 196.5897111208178, -8.394205450545996, -0.0800000037997961, 0.12800000607967377, 1.0400000493973494, 0.0, 0.0, 0.0, 0.0, 0.0, 1.7622074589692996E9, 0.0, 2025-11-03 17:04:18.969
38.0, 204.41171187814325, -98.82124647917226, 169.909264836926, -39.28577908454463, -0.0800000037997961, 0.12800000607967377, 1.0400000493973494, 0.0, 0.0, 0.0, 0.0, 0.0, 1.762207458984949E9, 0.0, 2025-11-03 17:04:18.984
38.0, 193.52486310712993, -117.19911486143246, 151.22098475834355, -61.01459782710299, -0.0800000037997961, 0.12800000607967377, 1.0400000493973494, 0.0, 0.0, 0.0, 0.0, 0.0, 1.762207458984949E9, 0.0, 2025-11-03 17:04:18.984
39.0, 220.5867791865021, -86.68153122300282, 180.63155800988898, -25.58278564689681, -0.0800000037997961, 0.12800000607967377, 1.0400000493973494, 0.0, 0.0, 0.0, 0.0, 0.0, 1.7622074589856539E9, 0.0, 2025-11-03 17:04:18.985
39.0, 239.20026126597077, -63.47545199794695, 199.518052786123, -7.160038465168327, -0.0800000037997961, 0.12800000607967377, 1.0400000493973494, 0.0, 0.0, 0.0, 0.0, 0.0, 1.7622074589856539E9, 0.0, 2025-11-03 17:04:18.985
40.0, 251.02582492586225, -58.28073095949367, 203.55340483831242, -1.4978299322538078, -0.0800000037997961, 0.12800000607967377, 1.0400000493973494, 0.0, 0.0, 0.0, 0.0, 0.0, 1.7622074589992797E9, 0.0, 2025-11-03 17:04:18.999
40.0, 223.94894924666733, -88.319607403595, 172.34019980812445, -32.991527459118515, -0.0800000037997961, 0.12800000607967377, 1.0400000493973494, 0.0, 0.0, 0.0, 0.0, 0.0, 1.7622074589992797E9, 0.0, 2025-11-03 17:04:18.999
41.0, 220.03701389301568, -89.51637538941577, 162.52670232439414, -43.496906434651464, -0.0800000037997961, 0.144000006839633, 1.0400000493973494, 0.0, 0.0, 0.0, 0.0, 0.0, 1.76220745901498E9, 0.0, 2025-11-03 17:04:19.014
41.0, 226.86981111206114, -93.67140424018726, 164.40039220219478, -46.90395529428497, -0.0800000037997961, 0.144000006839633, 1.0400000493973494, 0.0, 0.0, 0.0, 0.0, 0.0, 1.76220745901498E9, 0.0, 2025-11-03 17:04:19.014
42.0, 210.30953410826623, -98.56693328218535, 164.67340489896014, -51.548911039251834, -0.0800000037997961, 0.144000006839633, 1.0400000493973494, 0.0, 0.0, 0.0, 0.0, 0.0, 1.7622074590156572E9, 0.0, 2025-11-03 17:04:19.015
42.0, 186.2021389938891, -115.41518258256838, 142.33498246362433, -66.81518265837803, -0.0800000037997961, 0.144000006839633, 1.0400000493973494, 0.0, 0.0, 0.0, 0.0, 0.0, 1.7622074590156572E9, 0.0, 2025-11-03 17:04:19.015
43.0, 202.07427440583706, -107.43423607712612, 148.25898399343714, -66.59078866103664, -0.0800000037997961, 0.144000006839633, 1.0400000493973494, 0.0, 0.0, 0.0, 0.0, 0.0, 1.7622074590294528E9, 0.0, 2025-11-03 17:04:19.029
43.0, 232.16550944931805, -85.00979594280943, 170.874159025494, -46.690780996810645, -0.0800000037997961, 0.144000006839633, 1.0400000493973494, 0.0, 0.0, 0.0, 0.0, 0.0, 1.7622074590294528E9, 0.0, 2025-11-03 17:04:19.029
44.0, 165.0829239441082, -135.25161194754764, 123.92345498176292, -88.40936500253156, -0.0800000037997961, 0.144000006839633, 1.0400000493973494, 0.0, 0.0, 0.0, 0.0, 0.0, 1.7622074590449412E9, 0.0, 2025-11-03 17:04:19.044
44.0, 160.72220059577376, -147.77653689915314, 111.98195442324504, -104.19548271549866, -0.0800000037997961, 0.144000006839633, 1.0400000493973494, 0.0, 0.0, 0.0, 0.0, 0.0, 1.7622074590449412E9, 0.0, 2025-11-03 17:04:19.044
45.0, 225.61320472694933, -86.78250852180645, 177.9575295415707, -42.50583294639364, -0.0800000037997961, 0.144000006839633, 1.0400000493973494, 0.0, 0.0, 0.0, 0.0, 0.0, 1.7622074590460515E9, 0.0, 2025-11-03 17:04:19.046
45.0, 218.5821928102523, -91.19559046952054, 175.24236217373982, -42.258999549318105, -0.0800000037997961, 0.144000006839633, 1.0400000493973494, 0.0, 0.0, 0.0, 0.0, 0.0, 1.7622074590460515E9, 0.0, 2025-11-03 17:04:19.046
46.0, 201.73768340982497, -103.23806832684204, 165.33162729116157, -53.179507419932634, -0.0800000037997961, 0.144000006839633, 1.0400000493973494, 0.0, 0.0, 0.0, 0.0, 0.0, 1.7622074590595148E9, 0.0, 2025-11-03 17:04:19.059
46.0, 186.43401279114187, -129.47346651600674, 134.65322795463726, -89.36303949123248, -0.0800000037997961, 0.144000006839633, 1.0400000493973494, 0.0, 0.0, 0.0, 0.0, 0.0, 1.7622074590595148E9, 0.0, 2025-11-03 17:04:19.059
47.0, 246.51550557930022, -65.9774450683035, 197.39752951124683, -26.573859135154635, -0.0800000037997961, 0.144000006839633, 1.0400000493973494, 0.0, 0.0, 0.0, 0.0, 0.0, 1.7622074590749936E9, 0.0, 2025-11-03 17:04:19.074
47.0, 232.80877224169672, -73.1991918827407, 184.71926866145805, -28.926256207283586, -0.0800000037997961, 0.144000006839633, 1.0400000493973494, 0.0, 0.0, 0.0, 0.0, 0.0, 1.7622074590749936E9, 0.0, 2025-11-03 17:04:19.074
48.0, 237.90251598134637, -71.47883790312335, 185.8823775476776, -38.182508597616106, -0.0800000037997961, 0.144000006839633, 1.0400000493973494, 0.0, 0.0, 0.0, 0.0, 0.0, 1.7622074590756495E9, 0.0, 2025-11-03 17:04:19.075
48.0, 255.79793726932257, -53.497398916166276, 205.05310472054407, -13.416891091037542, -0.0800000037997961, 0.144000006839633, 1.0400000493973494, 0.0, 0.0, 0.0, 0.0, 0.0, 1.7622074590756495E9, 0.0, 2025-11-03 17:04:19.075
49.0, 206.5808538524434, -99.70386286871508, 165.9113117842935, -55.105555897112936, -0.0800000037997961, 0.144000006839633, 1.0400000493973494, 0.0, 0.0, 0.0, 0.0, 0.0, 1.76220745908931E9, 0.0, 2025-11-03 17:04:19.089
49.0, 188.91730636171997, -111.24519413197413, 150.9816311611794, -75.47679095575586, -0.0800000037997961, 0.144000006839633, 1.0400000493973494, 0.0, 0.0, 0.0, 0.0, 0.0, 1.76220745908931E9, 0.0, 2025-11-03 17:04:19.089
50.0, 218.72804890852422, -79.90109260333702, 188.94161571143195, -30.201562092173845, -0.0800000037997961, 0.144000006839633, 1.0400000493973494, 0.0, 0.0, 0.0, 0.0, 0.0, 1.762207459105003E9, 0.0, 2025-11-03 17:04:19.105
50.0, 233.8148053297773, -61.934613216202706, 210.21416665939614, -6.887025768402964, -0.0800000037997961, 0.144000006839633, 1.0400000493973494, 0.0, 0.0, 0.0, 0.0, 0.0, 1.762207459105003E9, 0.0, 2025-11-03 17:04:19.105
51.0, 226.83241211250424, -68.9394458332099, 202.0798842557706, -18.091766035649925, -0.0800000037997961, 0.144000006839633, 1.0400000493973494, 0.0, 0.0, 0.0, 0.0, 0.0, 1.7622074591057506E9, 0.0, 2025-11-03 17:04:19.105
51.0, 217.01891462877393, -81.3147747865878, 182.86801818339154, -41.67183525627479, -0.0800000037997961, 0.144000006839633, 1.0400000493973494, 0.0, 0.0, 0.0, 0.0, 0.0, 1.7622074591057506E9, 0.0, 2025-11-03 17:04:19.105
52.0, 224.80538633652031, -78.07976132491603, 190.21318169636652, -30.280099991243333, -0.0800000037997961, 0.144000006839633, 1.0400000493973494, 0.0, 0.0, 0.0, 0.0, 0.0, 1.7622074591192632E9, 0.0, 2025-11-03 17:04:19.119
52.0, 190.87701393850148, -108.41782976547256, 162.63889932306483, -51.80322423623875, -0.0800000037997961, 0.144000006839633, 1.0400000493973494, 0.0, 0.0, 0.0, 0.0, 0.0, 1.7622074591192632E9, 0.0, 2025-11-03 17:04:19.119
53.0, 175.95107321534306, -123.34751038858667, 146.05992281949148, -67.346248452086, -0.0800000037997961, 0.144000006839633, 1.0400000493973494, 0.0, 0.0, 0.0, 0.0, 0.0, 1.7622074591350136E9, 0.0, 2025-11-03 17:04:19.135
53.0, 199.6545591345057, -104.2553211147897, 162.99418981885538, -58.20967286033556, -0.0800000037997961, 0.144000006839633, 1.0400000493973494, 0.0, 0.0, 0.0, 0.0, 0.0, 1.7622074591350136E9, 0.0, 2025-11-03 17:04:19.135
54.0, 214.57302005775273, -86.63291252357885, 183.4738819762133, -31.431989177595824, -0.0800000037997961, 0.144000006839633, 1.0400000493973494, 0.0, 0.0, 0.0, 0.0, 0.0, 1.7622074591356986E9, 0.0, 2025-11-03 17:04:19.135
54.0, 184.74731791112572, -120.42664852319285, 147.72417829977348, -66.56460936134681, -0.0800000037997961, 0.144000006839633, 1.0400000493973494, 0.0, 0.0, 0.0, 0.0, 0.0, 1.7622074591356986E9, 0.0, 2025-11-03 17:04:19.135
55.0, 217.4340435238555, -89.01148889539763, 181.2897804020904, -37.73746050288901, -0.0800000037997961, 0.144000006839633, 1.0400000493973494, 0.0, 0.0, 0.0, 0.0, 0.0, 1.7622074591492643E9, 0.0, 2025-11-03 17:04:19.149
55.0, 214.2177295619622, -88.57392060058191, 184.068526069168, -33.32811845513061, -0.0800000037997961, 0.144000006839633, 1.0400000493973494, 0.0, 0.0, 0.0, 0.0, 0.0, 1.7622074591492643E9, 0.0, 2025-11-03 17:04:19.149
56.0, 204.86423977278173, -87.06674091843888, 180.98684850567952, -35.56831852858886, -0.0800000037997961, 0.144000006839633, 1.0400000493973494, 0.0, 0.0, 0.0, 0.0, 0.0, 1.7622074591659372E9, 0.0, 2025-11-03 17:04:19.165
56.0, 227.26624050736427, -68.52805683808401, 196.67572881979868, -23.5856790705584, -0.0800000037997961, 0.144000006839633, 1.0400000493973494, 0.0, 0.0, 0.0, 0.0, 0.0, 1.7622074591659372E9, 0.0, 2025-11-03 17:04:19.165
57.0, 226.23776801954955, -74.82604836346582, 195.06383193889633, -24.40845706081018, -0.0800000037997961, 0.144000006839633, 1.0400000493973494, 0.0, 0.0, 0.0, 0.0, 0.0, 1.7622074591659546E9, 0.0, 2025-11-03 17:04:19.165
57.0, 217.96136941760778, -74.97564436169341, 189.2221082081087, -27.13484412850812, -0.0800000037997961, 0.144000006839633, 1.0400000493973494, 0.0, 0.0, 0.0, 0.0, 0.0, 1.7622074591659546E9, 0.0, 2025-11-03 17:04:19.165
58.0, 226.07695232145488, -67.55194294964895, 199.21886078966781, -13.828280086163431, -0.0800000037997961, 0.144000006839633, 1.0400000493973494, 0.0, 0.0, 0.0, 0.0, 0.0, 1.7622074591792607E9, 0.0, 2025-11-03 17:04:19.179
58.0, 236.4850938981399, -56.45939968107268, 213.62495541898534, -1.4753905325196683, -0.0800000037997961, 0.144000006839633, 1.0400000493973494, 0.0, 0.0, 0.0, 0.0, 0.0, 1.7622074591792607E9, 0.0, 2025-11-03 17:04:19.179
59.0, 203.89560568425804, -87.71374361077324, 184.28170036664233, -29.801392796915025, -0.0800000037997961, 0.144000006839633, 1.0400000493973494, 0.0, 0.0, 0.0, 0.0, 0.0, 1.7622074591950328E9, 0.0, 2025-11-03 17:04:19.195
59.0, 185.009110908024, -109.70809525018558, 157.17490548780188, -55.76003838935867, -0.0800000037997961, 0.144000006839633, 1.0400000493973494, 0.0, 0.0, 0.0, 0.0, 0.0, 1.7622074591950328E9, 0.0, 2025-11-03 17:04:19.195
60.0, 209.3558596195653, -87.86333960900083, 177.79297394352034, -36.11434392211959, -0.0800000037997961, 0.144000006839633, 1.0400000493973494, 0.0, 0.0, 0.0, 0.0, 0.0, 1.7622074591957376E9, 0.0, 2025-11-03 17:04:19.195
60.0, 235.41922241076827, -54.301477406639606, 213.5651170196943, -5.058214690070599, -0.0800000037997961, 0.144000006839633, 1.0400000493973494, 0.0, 0.0, 0.0, 0.0, 0.0, 1.7622074591957376E9, 0.0, 2025-11-03 17:04:19.195
61.0, 217.42656372394413, -69.13392063090578, 202.73062684806064, -13.704863387625664, -0.0800000037997961, 0.144000006839633, 1.0400000493973494, 0.0, 0.0, 0.0, 0.0, 0.0, 1.7622074592093103E9, 0.0, 2025-11-03 17:04:19.209
61.0, 220.03701389301568, -66.35891486378387, 199.16650219028816, -21.330519397277385, -0.0800000037997961, 0.144000006839633, 1.0400000493973494, 0.0, 0.0, 0.0, 0.0, 0.0, 1.7622074592093103E9, 0.0, 2025-11-03 17:04:19.209
62.0, 219.45732939988375, -73.03089638473466, 190.86018438870087, -25.377091149333864, -0.0800000037997961, 0.144000006839633, 1.0400000493973494, 0.0, 0.0, 0.0, 0.0, 0.0, 1.7622074592250223E9, 0.0, 2025-11-03 17:04:19.225
62.0, 197.55273535940796, -90.01752198347822, 175.05910707591102, -32.49038086505607, -0.0800000037997961, 0.144000006839633, 1.0400000493973494, 0.0, 0.0, 0.0, 0.0, 0.0, 1.7622074592250223E9, 0.0, 2025-11-03 17:04:19.225
63.0, 208.01323553547263, -90.27183518046513, 179.7003229209222, -35.49726042943075, -0.0800000037997961, 0.144000006839633, 1.0400000493973494, 0.0, 0.0, 0.0, 0.0, 0.0, 1.7622074592257278E9, 0.0, 2025-11-03 17:04:19.225
63.0, 217.60233902186155, -77.92268552677706, 194.89553644089028, -16.831419750582427, -0.0800000037997961, 0.144000006839633, 1.0400000493973494, 0.0, 0.0, 0.0, 0.0, 0.0, 1.7622074592257278E9, 0.0, 2025-11-03 17:04:19.225
64.0, 215.22002275008708, -82.79577516904101, 193.71372805489227, -15.974982660729438, -0.0800000037997961, 0.144000006839633, 1.0400000493973494, 0.0, 0.0, 0.0, 0.0, 0.0, 1.762207459239349E9, 0.0, 2025-11-03 17:04:19.239
64.0, 175.9323737155646, -131.02178509766236, 140.4912117854692, -66.02980366768315, -0.0800000037997961, 0.144000006839633, 1.0400000493973494, 0.0, 0.0, 0.0, 0.0, 0.0, 1.762207459239349E9, 0.0, 2025-11-03 17:04:19.239
65.0, 189.63536715321243, -113.11888400977477, 159.6544591584243, -53.534797915723175, -0.0800000037997961, 0.144000006839633, 1.0400000493973494, 0.0, 0.0, 0.0, 0.0, 0.0, 1.7622074592550128E9, 0.0, 2025-11-03 17:04:19.255
