%OpenBCI Raw EXG Data
%Number of channels = 4
%Sample Rate = 200 Hz
%Board = OpenBCI_GUI$BoardGanglionBLE
Sample Index, EXG Channel 0, EXG Channel 1, EXG Channel 2, EXG Channel 3, Accel Channel 0, Accel Channel 1, Accel Channel 2, Other, Other, Other, Other, Other, Timestamp, Marker Channel, Timestamp (Formatted)
0.0, 234.24863372463733, -65.52491717366502, 230.87524396460503, 5.1292727892287076, 0.0, 0.0, 0.0, 0.0, 0.0, 0.0, 0.0, 0.0, 1.762207085862995E9, 0.0, 2025-11-03 16:58:05.862
1.0, 215.0704267518595, -90.37655237922445, 204.43789117783308, -21.356698696967214, 0.0, -0.06400000303983688, 0.0, 0.0, 0.0, 0.0, 0.0, 0.0, 1.762207085876482E9, 0.0, 2025-11-03 16:58:05.876
1.0, 209.52789501752704, -97.49358199490234, 196.0605152770877, -34.53610614081845, 0.0, -0.06400000303983688, 0.0, 0.0, 0.0, 0.0, 0.0, 0.0, 1.762207085876482E9, 0.0, 2025-11-03 16:58:05.876
2.0, 244.79515159968287, -60.13946123747155, 231.4100496582687, 14.363085779827088, -0.04800000227987766, -0.06400000303983688, 0.0, 0.0, 0.0, 0.0, 0.0, 0.0, 1.7622070858930953E9, 0.0, 2025-11-03 16:58:05.893
2.0, 233.3286183355376, -72.3838936924003, 214.52440135832876, -17.811273538973182, -0.04800000227987766, -0.06400000303983688, 0.0, 0.0, 0.0, 0.0, 0.0, 0.0, 1.7622070858930953E9, 0.0, 2025-11-03 16:58:05.893
3.0, 241.57509773783386, -62.08794911438599, 225.89743712358177, -1.4978299322538078, -0.04800000227987766, -0.06400000303983688, 0.0, 0.0, 0.0, 0.0, 0.0, 0.0, 1.7622070858938353E9, 0.0, 2025-11-03 16:58:05.893
3.0, 255.44264677353203, -52.59608302684501, 241.1524890428409, 24.78618695633486, -0.04800000227987766, -0.06400000303983688, 0.0, 0.0, 0.0, 0.0, 0.0, 0.0, 1.7622070858938353E9, 0.0, 2025-11-03 16:58:05.893
4.0, 222.59884536266327, -80.58549429522827, 206.79028824996203, -21.251981498207897, -0.04800000227987766, -0.06400000303983688, 0.0, 0.0, 0.0, 0.0, 0.0, 0.0, 1.7622070859062905E9, 0.0, 2025-11-03 16:58:05.906
4.0, 206.6556518515572, -90.58598677674308, 200.03228903003037, -26.173689839895815, -0.04800000227987766, -0.06400000303983688, 0.0, 0.0, 0.0, 0.0, 0.0, 0.0, 1.7622070859062905E9, 0.0, 2025-11-03 16:58:05.906
5.0, 247.20364717114717, -62.06550971465185, 227.61031130328774, -2.496383220423013, -0.04800000227987766, -0.06400000303983688, 0.0, 0.0, 0.0, 0.0, 0.0, 0.0, 1.7622070859218943E9, 0.0, 2025-11-03 16:58:05.921
5.0, 263.62554787658155, -49.884655558969826, 236.8852631933987, 6.318560975138098, -0.04800000227987766, -0.06400000303983688, 0.0, 0.0, 0.0, 0.0, 0.0, 0.0, 1.7622070859218943E9, 0.0, 2025-11-03 16:58:05.921
6.0, 181.84889544546604, -120.13493632664904, 167.05011132080108, -65.8652480696328, -0.04800000227987766, -0.06400000303983688, 0.0, 0.0, 0.0, 0.0, 0.0, 0.0, 1.762207085922618E9, 0.0, 2025-11-03 16:58:05.922
6.0, 224.6670100381598, -83.81676785694435, 208.5779604287818, -18.619091929402202, -0.04800000227987766, -0.06400000303983688, 0.0, 0.0, 0.0, 0.0, 0.0, 0.0, 1.762207085922618E9, 0.0, 2025-11-03 16:58:05.922
7.0, 275.15565943997353, -35.73661402659491, 260.5588299129158, 48.94220077013597, -0.04800000227987766, -0.06400000303983688, 0.0, 0.0, 0.0, 0.0, 0.0, 0.0, 1.7622070859363472E9, 0.0, 2025-11-03 16:58:05.936
7.0, 233.41463603451848, -75.59646775433794, 214.8759519541636, -9.08234704239294, -0.04800000227987766, -0.06400000303983688, 0.0, 0.0, 0.0, 0.0, 0.0, 0.0, 1.7622070859363472E9, 0.0, 2025-11-03 16:58:05.936
8.0, 206.74914935044944, -98.74644848005846, 192.85542101506144, -34.240654044318944, -0.04800000227987766, -0.06400000303983688, 0.0, 0.0, 0.0, 0.0, 0.0, 0.0, 1.7622070859519835E9, 0.0, 2025-11-03 16:58:05.951
8.0, 234.5590454209596, -72.04356279643252, 218.9225237062201, 1.284655634779483, -0.04800000227987766, -0.06400000303983688, 0.0, 0.0, 0.0, 0.0, 0.0, 0.0, 1.7622070859519835E9, 0.0, 2025-11-03 16:58:05.951
9.0, 243.99107310920954, -57.85064246458933, 239.34985726419836, 25.795959944371134, -0.04800000227987766, -0.06400000303983688, 0.0, 0.0, 0.0, 0.0, 0.0, 0.0, 1.7622070859526043E9, 0.0, 2025-11-03 16:58:05.952
9.0, 202.7960750972852, -106.00559429405257, 181.8638550452888, -56.321023382712156, -0.04800000227987766, -0.06400000303983688, 0.0, 0.0, 0.0, 0.0, 0.0, 0.0, 1.7622070859526043E9, 0.0, 2025-11-03 16:58:05.952
10.0, 234.75352021865547, -78.00870322575793, 212.7629084791988, -13.132658694405109, -0.04800000227987766, -0.06400000303983688, 0.5280000250786543, 0.0, 0.0, 0.0, 0.0, 0.0, 1.76220708596634E9, 0.0, 2025-11-03 16:58:05.966
10.0, 246.88949557486922, -58.011458162683994, 234.41692922264338, 11.909711408894509, -0.04800000227987766, -0.06400000303983688, 0.5280000250786543, 0.0, 0.0, 0.0, 0.0, 0.0, 1.76220708596634E9, 0.0, 2025-11-03 16:58:05.966
11.0, 230.54613276850432, -74.5717351664789, 211.85037289001048, -5.080654089804739, -0.04800000227987766, -0.01600000075995922, 0.5280000250786543, 0.0, 0.0, 0.0, 0.0, 0.0, 1.7622070859819899E9, 0.0, 2025-11-03 16:58:05.981
11.0, 256.84884915687144, -48.643008773680776, 242.27071912959218, 18.899584426078945, -0.04800000227987766, -0.01600000075995922, 0.5280000250786543, 0.0, 0.0, 0.0, 0.0, 0.0, 1.7622070859819899E9, 0.0, 2025-11-03 16:58:05.981
12.0, 220.75881458446383, -86.43843772588298, 206.16198505740613, -19.04918042430654, -0.03200000151991844, -0.01600000075995922, 0.5280000250786543, 0.0, 0.0, 0.0, 0.0, 0.0, 1.7622070859826171E9, 0.0, 2025-11-03 16:58:05.982
12.0, 220.90841058269143, -73.61806067777798, 215.1377449510619, 2.2233705236576498, -0.03200000151991844, -0.01600000075995922, 0.5280000250786543, 0.0, 0.0, 0.0, 0.0, 0.0, 1.7622070859826171E9, 0.0, 2025-11-03 16:58:05.982
13.0, 204.52390887681395, -96.76430150354281, 187.87761417403817, -43.070557839702815, -0.03200000151991844, -0.01600000075995922, 0.5280000250786543, 0.0, 0.0, 0.0, 0.0, 0.0, 1.762207085996306E9, 0.0, 2025-11-03 16:58:05.996
13.0, 233.00698693934828, -70.54012301424518, 225.0372601337731, 1.6212466307915747, -0.03200000151991844, -0.01600000075995922, 0.5280000250786543, 0.0, 0.0, 0.0, 0.0, 0.0, 1.762207085996306E9, 0.0, 2025-11-03 16:58:05.996
14.0, 233.80732552986592, -63.8644015933387, 222.35201196558774, -13.308433992322534, -0.03200000151991844, -0.01600000075995922, 0.5280000250786543, 0.0, 0.0, 0.0, 0.0, 0.0, 1.7622070860118856E9, 0.0, 2025-11-03 16:58:06.011
14.0, 220.87101158313453, -91.03851467138156, 195.200338287279, -36.222801020834595, -0.03200000151991844, -0.01600000075995922, 0.5280000250786543, 0.0, 0.0, 0.0, 0.0, 0.0, 1.7622070860118856E9, 0.0, 2025-11-03 16:58:06.011
15.0, 266.48657134268433, -37.36347050732002, 249.24189264699817, 21.225802198518068, -0.03200000151991844, -0.01600000075995922, 0.5280000250786543, 0.0, 0.0, 0.0, 0.0, 0.0, 1.7622070860126152E9, 0.0, 2025-11-03 16:58:06.012
15.0, 248.2321196589619, -57.140061473008245, 232.19542864896357, 4.515929196495563, -0.03200000151991844, -0.01600000075995922, 0.5280000250786543, 0.0, 0.0, 0.0, 0.0, 0.0, 1.7622070860126152E9, 0.0, 2025-11-03 16:58:06.012
16.0, 217.16851062700152, -85.44736423762515, 200.81392812076956, -30.093104993458837, -0.03200000151991844, -0.01600000075995922, 0.5280000250786543, 0.0, 0.0, 0.0, 0.0, 0.0, 1.762207086026384E9, 0.0, 2025-11-03 16:58:06.026
16.0, 232.52453984506428, -70.0127971204929, 215.78474764339626, -17.321346644777805, -0.03200000151991844, -0.01600000075995922, 0.5280000250786543, 0.0, 0.0, 0.0, 0.0, 0.0, 1.762207086026384E9, 0.0, 2025-11-03 16:58:06.026
17.0, 238.93472836911678, -61.998191515449435, 225.6244244268164, -0.24870334705337882, -0.03200000151991844, -0.01600000075995922, 0.5280000250786543, 0.0, 0.0, 0.0, 0.0, 0.0, 1.7622070860420077E9, 0.0, 2025-11-03 16:58:06.042
17.0, 198.47275074850768, -104.06084631709382, 182.0845091426745, -38.90056938910857, -0.03200000151991844, -0.01600000075995922, 0.5280000250786543, 0.0, 0.0, 0.0, 0.0, 0.0, 1.7622070860420077E9, 0.0, 2025-11-03 16:58:06.042
18.0, 239.8547437582165, -68.88708723383024, 219.19927630294114, 6.363439774606377, -0.03200000151991844, -0.01600000075995922, 0.5280000250786543, 0.0, 0.0, 0.0, 0.0, 0.0, 1.7622070860426078E9, 0.0, 2025-11-03 16:58:06.042
18.0, 258.62530163582414, -50.5241784513928, 238.8225313704461, 11.352466315496713, -0.03200000151991844, -0.01600000075995922, 0.5280000250786543, 0.0, 0.0, 0.0, 0.0, 0.0, 1.7622070860426078E9, 0.0, 2025-11-03 16:58:06.042
19.0, 225.46360872872174, -80.36110029788688, 210.34693310782313, -1.9204386272467673, -0.03200000151991844, -0.01600000075995922, 0.5280000250786543, 0.0, 0.0, 0.0, 0.0, 0.0, 1.7622070860563147E9, 0.0, 2025-11-03 16:58:06.056
19.0, 210.41799120698124, -97.68431689264253, 195.22651758696884, -15.799207362812012, -0.03200000151991844, -0.01600000075995922, 0.5280000250786543, 0.0, 0.0, 0.0, 0.0, 0.0, 1.7622070860563147E9, 0.0, 2025-11-03 16:58:06.056
20.0, 210.68726400379092, -90.02874168334529, 204.0975602818653, -22.33655248535797, -0.03200000151991844, -0.01600000075995922, 0.7840000372380018, 0.0, 0.0, 0.0, 0.0, 0.0, 1.7622070860719724E9, 0.0, 2025-11-03 16:58:06.071
20.0, 261.69949939940125, -41.59703725716099, 260.4615925140679, 45.834343906957656, -0.03200000151991844, -0.01600000075995922, 0.7840000372380018, 0.0, 0.0, 0.0, 0.0, 0.0, 1.7622070860719724E9, 0.0, 2025-11-03 16:58:06.071
21.0, 197.36948026157916, -110.84502483671531, 191.41181963216513, -27.086225429084152, -0.03200000151991844, -0.01600000075995922, 0.7840000372380018, 0.0, 0.0, 0.0, 0.0, 0.0, 1.7622070860726492E9, 0.0, 2025-11-03 16:58:06.072
21.0, 216.15873763896525, -95.86672551417723, 207.15679844561964, -14.961469772737473, -0.03200000151991844, -0.01600000075995922, 0.7840000372380018, 0.0, 0.0, 0.0, 0.0, 0.0, 1.7622070860726492E9, 0.0, 2025-11-03 16:58:06.072
22.0, 234.9666945161298, -72.75414378801361, 231.84387805312872, 15.91888416139409, -0.04800000227987766, -0.01600000075995922, 0.7840000372380018, 0.0, 0.0, 0.0, 0.0, 0.0, 1.762207086086301E9, 0.0, 2025-11-03 16:58:06.086
22.0, 231.62322395574301, -75.83956125145778, 220.33246598951519, -5.095613689627498, -0.04800000227987766, -0.01600000075995922, 0.7840000372380018, 0.0, 0.0, 0.0, 0.0, 0.0, 1.762207086086301E9, 0.0, 2025-11-03 16:58:06.086
23.0, 211.29686769656837, -88.31586750363931, 206.43873765412718, -24.240161562804133, -0.04800000227987766, -0.01600000075995922, 0.7840000372380018, 0.0, 0.0, 0.0, 0.0, 0.0, 1.7622070861019764E9, 0.0, 2025-11-03 16:58:06.101
23.0, 239.53311236202717, -69.48921112669632, 232.2964059477672, 8.382985750678927, -0.04800000227987766, -0.01600000075995922, 0.7840000372380018, 0.0, 0.0, 0.0, 0.0, 0.0, 1.7622070861019764E9, 0.0, 2025-11-03 16:58:06.101
24.0, 223.93398964684457, -84.59840694768354, 207.51582884136587, -18.570473229978234, -0.04800000227987766, -0.01600000075995922, 0.7840000372380018, 0.0, 0.0, 0.0, 0.0, 0.0, 1.7622070861026757E9, 0.0, 2025-11-03 16:58:06.102
24.0, 228.6649630907923, -75.45809145597741, 212.5497341817245, -8.091273554135114, -0.04800000227987766, -0.01600000075995922, 0.7840000372380018, 0.0, 0.0, 0.0, 0.0, 0.0, 1.7622070861026757E9, 0.0, 2025-11-03 16:58:06.102
25.0, 254.37303538620472, -59.68693334283307, 229.41294308193028, 5.731396682094783, -0.04800000227987766, -0.01600000075995922, 0.7840000372380018, 0.0, 0.0, 0.0, 0.0, 0.0, 1.7622070861163535E9, 0.0, 2025-11-03 16:58:06.116
25.0, 246.6314424779266, -64.60116188460961, 220.56807968672365, 0.8583070398308337, -0.04800000227987766, -0.01600000075995922, 0.7840000372380018, 0.0, 0.0, 0.0, 0.0, 0.0, 1.7622070861163535E9, 0.0, 2025-11-03 16:58:06.116
26.0, 221.323539477773, -95.13370512286201, 184.39950721524656, -31.013120382558554, -0.04800000227987766, -0.01600000075995922, 0.7840000372380018, 0.0, 0.0, 0.0, 0.0, 0.0, 1.7622070861320212E9, 0.0, 2025-11-03 16:58:06.132
26.0, 243.0822774199769, -75.28605605801567, 212.1346052866429, -2.253289723303169, -0.04800000227987766, -0.01600000075995922, 0.7840000372380018, 0.0, 0.0, 0.0, 0.0, 0.0, 1.7622070861320212E9, 0.0, 2025-11-03 16:58:06.132
27.0, 223.18600965570658, -87.16023841733113, 203.23364339210093, -6.973043467383832, -0.04800000227987766, -0.01600000075995922, 0.7840000372380018, 0.0, 0.0, 0.0, 0.0, 0.0, 1.76220708613268E9, 0.0, 2025-11-03 16:58:06.132
27.0, 235.75581340678036, -70.64110031304881, 215.82962644286454, -6.341000374872237, -0.04800000227987766, -0.01600000075995922, 0.7840000372380018, 0.0, 0.0, 0.0, 0.0, 0.0, 1.76220708613268E9, 0.0, 2025-11-03 16:58:06.132
28.0, 209.3184606200084, -109.11719105718657, 184.15267381817102, -31.054259282071143, -0.04800000227987766, -0.01600000075995922, 0.7840000372380018, 0.0, 0.0, 0.0, 0.0, 0.0, 1.7622070861464596E9, 0.0, 2025-11-03 16:58:06.146
28.0, 239.50693306233734, -79.52710260776803, 207.85989963728935, -18.26006153365597, -0.04800000227987766, -0.01600000075995922, 0.7840000372380018, 0.0, 0.0, 0.0, 0.0, 0.0, 1.7622070861464596E9, 0.0, 2025-11-03 16:58:06.146
29.0, 223.2869869545102, -90.84777977364138, 193.98861070163548, -23.47722197184339, -0.04800000227987766, -0.01600000075995922, 0.7840000372380018, 0.0, 0.0, 0.0, 0.0, 0.0, 1.762207086161975E9, 0.0, 2025-11-03 16:58:06.161
29.0, 217.63225822150707, -86.38233922654763, 199.47504393663257, -27.041346629615873, -0.04800000227987766, -0.01600000075995922, 0.7840000372380018, 0.0, 0.0, 0.0, 0.0, 0.0, 1.762207086161975E9, 0.0, 2025-11-03 16:58:06.161
30.0, 248.24333935882896, -60.382554734591395, 221.8097264720127, -4.815121192950755, -0.04800000227987766, -0.01600000075995922, 0.9120000433176756, 0.0, 0.0, 0.0, 0.0, 0.0, 1.7622070861626494E9, 0.0, 2025-11-03 16:58:06.162
30.0, 270.77997649181634, -41.64565595658496, 247.6748745655641, 26.233528239186853, -0.04800000227987766, -0.01600000075995922, 0.9120000433176756, 0.0, 0.0, 0.0, 0.0, 0.0, 1.7622070861626494E9, 0.0, 2025-11-03 16:58:06.162
31.0, 233.67642903141677, -73.88359357463196, 214.93953025341034, -5.555621384177357, -0.04800000227987766, -0.01600000075995922, 0.9120000433176756, 0.0, 0.0, 0.0, 0.0, 0.0, 1.7622070861763573E9, 0.0, 2025-11-03 16:58:06.176
31.0, 226.96704851090908, -81.6850248822011, 221.91444367077202, 6.879545968491584, -0.04800000227987766, -0.01600000075995922, 0.9120000433176756, 0.0, 0.0, 0.0, 0.0, 0.0, 1.7622070861763573E9, 0.0, 2025-11-03 16:58:06.176
32.0, 248.77814505249262, -60.764024530071765, 240.12401655502617, 15.11854557087645, -0.06400000303983688, -0.01600000075995922, 0.9120000433176756, 0.0, 0.0, 0.0, 0.0, 0.0, 1.7622070861919684E9, 0.0, 2025-11-03 16:58:06.191
32.0, 230.8453247649595, -71.81916879909113, 226.00589422229677, 2.1485725245438516, -0.06400000303983688, -0.01600000075995922, 0.9120000433176756, 0.0, 0.0, 0.0, 0.0, 0.0, 1.7622070861919684E9, 0.0, 2025-11-03 16:58:06.191
33.0, 223.6946360496804, -84.90133884409443, 209.19878382142633, -17.010934948455542, -0.06400000303983688, -0.01600000075995922, 0.9120000433176756, 0.0, 0.0, 0.0, 0.0, 0.0, 1.7622070861926548E9, 0.0, 2025-11-03 16:58:06.192
33.0, 251.35119622200727, -53.501138816121966, 250.33394343405962, 34.27431314392015, -0.06400000303983688, -0.01600000075995922, 0.9120000433176756, 0.0, 0.0, 0.0, 0.0, 0.0, 1.7622070861926548E9, 0.0, 2025-11-03 16:58:06.192
34.0, 199.41520553734154, -101.31949964957312, 189.92707934975624, -31.278653279412538, -0.06400000303983688, -0.01600000075995922, 0.9120000433176756, 0.0, 0.0, 0.0, 0.0, 0.0, 1.7622070862062495E9, 0.0, 2025-11-03 16:58:06.206
34.0, 245.50947249121964, -62.14404761372134, 225.7702805250883, 0.16642554802820086, -0.06400000303983688, -0.01600000075995922, 0.9120000433176756, 0.0, 0.0, 0.0, 0.0, 0.0, 1.7622070862062495E9, 0.0, 2025-11-03 16:58:06.206
35.0, 230.31799887120724, -80.6116735949181, 208.10673303436488, -18.2862408333458, -0.06400000303983688, -0.01600000075995922, 0.9120000433176756, 0.0, 0.0, 0.0, 0.0, 0.0, 1.7622070862219913E9, 0.0, 2025-11-03 16:58:06.221
35.0, 215.26116164959967, -96.01632151240483, 189.77748335152864, -33.21592145645991, -0.06400000303983688, -0.01600000075995922, 0.9120000433176756, 0.0, 0.0, 0.0, 0.0, 0.0, 1.7622070862219913E9, 0.0, 2025-11-03 16:58:06.221
36.0, 223.35056525375694, -82.2796689751558, 196.52800277154893, -35.841331225354224, -0.06400000303983688, -0.01600000075995922, 0.9120000433176756, 0.0, 0.0, 0.0, 0.0, 0.0, 1.7622070862226443E9, 0.0, 2025-11-03 16:58:06.222
36.0, 259.7136125229299, -49.18529426725581, 234.22993422485888, 6.8608464687131345, -0.06400000303983688, -0.01600000075995922, 0.9120000433176756, 0.0, 0.0, 0.0, 0.0, 0.0, 1.7622070862226443E9, 0.0, 2025-11-03 16:58:06.222
37.0, 209.1015464225784, -99.65150426933542, 191.08270843606442, -34.255613644141704, -0.06400000303983688, -0.01600000075995922, 0.9120000433176756, 0.0, 0.0, 0.0, 0.0, 0.0, 1.7622070862362683E9, 0.0, 2025-11-03 16:58:06.236
37.0, 219.9173370944336, -92.70277015166357, 193.33038830943406, -32.28842626744881, -0.06400000303983688, -0.01600000075995922, 0.9120000433176756, 0.0, 0.0, 0.0, 0.0, 0.0, 1.7622070862362683E9, 0.0, 2025-11-03 16:58:06.236
38.0, 285.6273793159053, -20.34692570893094, 266.69600574020296, 49.907094958703965, -0.06400000303983688, -0.01600000075995922, 0.9120000433176756, 0.0, 0.0, 0.0, 0.0, 0.0, 1.7622070862519226E9, 0.0, 2025-11-03 16:58:06.251
38.0, 244.01351250894368, -56.23500568373129, 240.86077684629709, 19.213736022356898, -0.06400000303983688, -0.01600000075995922, 0.9120000433176756, 0.0, 0.0, 0.0, 0.0, 0.0, 1.7622070862519226E9, 0.0, 2025-11-03 16:58:06.251
39.0, 189.3174756569788, -112.16146962111816, 180.10236216615885, -41.68679485609755, -0.06400000303983688, -0.01600000075995922, 0.9120000433176756, 0.0, 0.0, 0.0, 0.0, 0.0, 1.7622070862526484E9, 0.0, 2025-11-03 16:58:06.252
39.0, 234.09903772640973, -78.06480172509328, 214.97692925296724, -11.797514410223812, -0.06400000303983688, -0.01600000075995922, 0.9120000433176756, 0.0, 0.0, 0.0, 0.0, 0.0, 1.7622070862526484E9, 0.0, 2025-11-03 16:58:06.252
40.0, 249.4139280449599, -62.379661310929805, 233.9980604276061, 15.271881469059736, -0.06400000303983688, -0.01600000075995922, 0.9760000463575125, 0.0, 0.0, 0.0, 0.0, 0.0, 1.7622070862662108E9, 0.0, 2025-11-03 16:58:06.266
40.0, 252.005678714253, -56.17142738448456, 241.60501693747938, 29.52090030023828, -0.06400000303983688, -0.01600000075995922, 0.9760000463575125, 0.0, 0.0, 0.0, 0.0, 0.0, 1.7622070862662108E9, 0.0, 2025-11-03 16:58:06.266
41.0, 210.2085568094626, -94.31466703256592, 199.759276333265, -10.578307024668902, -0.06400000303983688, -0.01600000075995922, 0.9760000463575125, 0.0, 0.0, 0.0, 0.0, 0.0, 1.7622070862819417E9, 0.0, 2025-11-03 16:58:06.281
41.0, 226.44720241706818, -77.76560972863808, 213.79886076692492, -16.169457458425313, -0.06400000303983688, -0.01600000075995922, 0.9760000463575125, 0.0, 0.0, 0.0, 0.0, 0.0, 1.7622070862819417E9, 0.0, 2025-11-03 16:58:06.281
42.0, 261.5349438013509, -42.86486334213987, 248.40415505692363, 17.721515940036625, -0.06400000303983688, -0.01600000075995922, 0.9760000463575125, 0.0, 0.0, 0.0, 0.0, 0.0, 1.7622070862826805E9, 0.0, 2025-11-03 16:58:06.282
42.0, 223.60487845074385, -85.52216223673895, 196.21385117527097, -33.844224649015814, -0.06400000303983688, -0.01600000075995922, 0.9760000463575125, 0.0, 0.0, 0.0, 0.0, 0.0, 1.7622070862826805E9, 0.0, 2025-11-03 16:58:06.282
43.0, 207.56070764083415, -90.55980747705325, 197.75095005705953, -31.091658281628042, -0.06400000303983688, -0.01600000075995922, 0.9760000463575125, 0.0, 0.0, 0.0, 0.0, 0.0, 1.7622070862965024E9, 0.0, 2025-11-03 16:58:06.296
43.0, 290.0629006633535, -21.19214309891686, 267.5748822297901, 36.41727581853047, -0.06400000303983688, -0.01600000075995922, 0.9760000463575125, 0.0, 0.0, 0.0, 0.0, 0.0, 1.7622070862965024E9, 0.0, 2025-11-03 16:58:06.296
44.0, 199.10479384101927, -107.09016528120264, 178.43810668587685, -42.03460555197671, -0.06400000303983688, -0.01600000075995922, 0.9760000463575125, 0.0, 0.0, 0.0, 0.0, 0.0, 1.7622070863119497E9, 0.0, 2025-11-03 16:58:06.311
44.0, 205.657098563388, -107.42301637725905, 180.36041526310146, -42.81250474276021, -0.06400000303983688, -0.01600000075995922, 0.9760000463575125, 0.0, 0.0, 0.0, 0.0, 0.0, 1.7622070863119497E9, 0.0, 2025-11-03 16:58:06.311
45.0, 258.1129353418946, -63.202439301181585, 221.34223897755146, -0.8396075400523841, -0.06400000303983688, -0.01600000075995922, 0.9760000463575125, 0.0, 0.0, 0.0, 0.0, 0.0, 1.7622070863126557E9, 0.0, 2025-11-03 16:58:06.312
45.0, 258.66644053533673, -51.40305494097993, 241.77331243548542, 14.849272774066776, -0.06400000303983688, -0.01600000075995922, 0.9760000463575125, 0.0, 0.0, 0.0, 0.0, 0.0, 1.7622070863126557E9, 0.0, 2025-11-03 16:58:06.312
46.0, 209.11276612244546, -101.4354365481995, 189.40349335595965, -19.48674871912226, -0.06400000303983688, -0.01600000075995922, 0.9760000463575125, 0.0, 0.0, 0.0, 0.0, 0.0, 1.7622070863263376E9, 0.0, 2025-11-03 16:58:06.326
46.0, 222.770880760625, -94.92801062529907, 190.66009974107146, -32.52777986461297, -0.06400000303983688, -0.01600000075995922, 0.9760000463575125, 0.0, 0.0, 0.0, 0.0, 0.0, 1.7622070863263376E9, 0.0, 2025-11-03 16:58:06.326
47.0, 248.16106155980378, -71.58729500183836, 216.49158873502165, -12.609072700608522, -0.06400000303983688, -0.01600000075995922, 0.9760000463575125, 0.0, 0.0, 0.0, 0.0, 0.0, 1.7622070863420367E9, 0.0, 2025-11-03 16:58:06.342
47.0, 238.80009197071195, -74.64279326563701, 212.09346638713032, -10.383832226973027, -0.06400000303983688, -0.01600000075995922, 0.9760000463575125, 0.0, 0.0, 0.0, 0.0, 0.0, 1.7622070863420367E9, 0.0, 2025-11-03 16:58:06.342
48.0, 250.58825663104653, -58.64350125519559, 230.37783727049828, 16.506048454437405, -0.06400000303983688, -0.01600000075995922, 0.9760000463575125, 0.0, 0.0, 0.0, 0.0, 0.0, 1.7622070863426533E9, 0.0, 2025-11-03 16:58:06.342
48.0, 238.89732936955988, -82.9491110672243, 207.18671764526516, -5.43594458559528, -0.06400000303983688, -0.01600000075995922, 0.9760000463575125, 0.0, 0.0, 0.0, 0.0, 0.0, 1.7622070863426533E9, 0.0, 2025-11-03 16:58:06.342
49.0, 252.92943400330842, -60.05344353849068, 232.0009538512677, 8.764455546159297, -0.06400000303983688, -0.01600000075995922, 0.9760000463575125, 0.0, 0.0, 0.0, 0.0, 0.0, 1.76220708635637E9, 0.0, 2025-11-03 16:58:06.356
49.0, 235.1125506144017, -85.19679094059393, 209.93554411269724, -15.806687162723392, -0.06400000303983688, -0.01600000075995922, 0.9760000463575125, 0.0, 0.0, 0.0, 0.0, 0.0, 1.76220708635637E9, 0.0, 2025-11-03 16:58:06.356
50.0, 185.70099239982665, -123.34003058867529, 175.14699472486973, -33.73576755030081, -0.06400000303983688, -0.01600000075995922, 1.0240000486373901, 0.0, 0.0, 0.0, 0.0, 0.0, 1.7622070863721583E9, 0.0, 2025-11-03 16:58:06.372
50.0, 244.29026510566473, -60.17312033707276, 237.75665988307446, 18.514374730642885, -0.06400000303983688, -0.01600000075995922, 1.0240000486373901, 0.0, 0.0, 0.0, 0.0, 0.0, 1.7622070863721583E9, 0.0, 2025-11-03 16:58:06.372
51.0, 261.28437050431967, -43.23137353779748, 254.75824508164078, 25.94555594259873, -0.06400000303983688, -0.01600000075995922, 1.0240000486373901, 0.0, 0.0, 0.0, 0.0, 0.0, 1.7622070863726468E9, 0.0, 2025-11-03 16:58:06.372
51.0, 221.37215817719698, -86.53193522477522, 203.89934558421373, -19.643824517261237, -0.06400000303983688, -0.01600000075995922, 1.0240000486373901, 0.0, 0.0, 0.0, 0.0, 0.0, 1.7622070863726468E9, 0.0, 2025-11-03 16:58:06.372
52.0, 223.56747945118695, -88.42432460235432, 200.5371755240485, -27.763147321064025, -0.06400000303983688, -0.01600000075995922, 1.0240000486373901, 0.0, 0.0, 0.0, 0.0, 0.0, 1.7622070863863597E9, 0.0, 2025-11-03 16:58:06.386
52.0, 208.877152425237, -94.4717428307049, 191.78206972777843, -34.218214644584805, -0.06400000303983688, -0.01600000075995922, 1.0240000486373901, 0.0, 0.0, 0.0, 0.0, 0.0, 1.7622070863863597E9, 0.0, 2025-11-03 16:58:06.386
53.0, 231.42874915804714, -75.84330115141347, 210.93035750091076, -8.356806450989097, -0.06400000303983688, -0.01600000075995922, 1.0240000486373901, 0.0, 0.0, 0.0, 0.0, 0.0, 1.7622070864021747E9, 0.0, 2025-11-03 16:58:06.402
53.0, 266.3594147441909, -49.944493958260864, 238.46350097469985, 14.464063078630716, -0.06400000303983688, -0.01600000075995922, 1.0240000486373901, 0.0, 0.0, 0.0, 0.0, 0.0, 1.7622070864021747E9, 0.0, 2025-11-03 16:58:06.402
54.0, 219.6218849979341, -86.17664472898468, 204.64732557535172, -8.940230844076723, -0.06400000303983688, -0.01600000075995922, 1.0240000486373901, 0.0, 0.0, 0.0, 0.0, 0.0, 1.7622070864026268E9, 0.0, 2025-11-03 16:58:06.402
54.0, 258.95067293196917, -55.165394296403974, 227.0007076105103, 15.544894165825099, -0.06400000303983688, -0.01600000075995922, 1.0240000486373901, 0.0, 0.0, 0.0, 0.0, 0.0, 1.7622070864026268E9, 0.0, 2025-11-03 16:58:06.402
55.0, 276.8760134195909, -43.59788373345509, 242.01640593260527, 18.27876103343442, -0.06400000303983688, -0.01600000075995922, 1.0240000486373901, 0.0, 0.0, 0.0, 0.0, 0.0, 1.7622070864163477E9, 0.0, 2025-11-03 16:58:06.416
55.0, 222.6287645623088, -84.74426304595545, 203.14014589320868, -11.86483260942623, -0.06400000303983688, -0.01600000075995922, 1.0240000486373901, 0.0, 0.0, 0.0, 0.0, 0.0, 1.7622070864163477E9, 0.0, 2025-11-03 16:58:06.416
56.0, 216.8842782303691, -84.72930344613269, 201.96207740716636, -19.299753721337765, -0.06400000303983688, -0.01600000075995922, 1.0240000486373901, 0.0, 0.0, 0.0, 0.0, 0.0, 1.7622070864320242E9, 0.0, 2025-11-03 16:58:06.432
56.0, 291.1100726509467, -20.36936510866508, 271.40079988446087, 49.66774136153981, -0.06400000303983688, -0.01600000075995922, 1.0240000486373901, 0.0, 0.0, 0.0, 0.0, 0.0, 1.7622070864320242E9, 0.0, 2025-11-03 16:58:06.432
57.0, 205.34668686706573, -100.18630996299908, 190.35716784466058, -38.02917269943282, -0.06400000303983688, -0.01600000075995922, 1.0240000486373901, 0.0, 0.0, 0.0, 0.0, 0.0, 1.762207086432638E9, 0.0, 2025-11-03 16:58:06.432
57.0, 236.91144249308854, -66.5683492613025, 219.24041520245373, 0.7610696409828961, -0.06400000303983688, -0.01600000075995922, 1.0240000486373901, 0.0, 0.0, 0.0, 0.0, 0.0, 1.762207086432638E9, 0.0, 2025-11-03 16:58:06.432
58.0, 221.805986572057, -83.37919956212863, 211.27068839687854, -12.373459003400058, -0.06400000303983688, -0.01600000075995922, 1.0240000486373901, 0.0, 0.0, 0.0, 0.0, 0.0, 1.7622070864463513E9, 0.0, 2025-11-03 16:58:06.446
58.0, 251.36241592187434, -52.308110730256885, 241.1936279423535, 19.438130019698292, -0.06400000303983688, -0.01600000075995922, 1.0240000486373901, 0.0, 0.0, 0.0, 0.0, 0.0, 1.7622070864463513E9, 0.0, 2025-11-03 16:58:06.446
59.0, 218.55975341051817, -85.48102333722636, 208.53682152926922, -9.265602140221745, -0.06400000303983688, -0.01600000075995922, 1.0240000486373901, 0.0, 0.0, 0.0, 0.0, 0.0, 1.7622070864619231E9, 0.0, 2025-11-03 16:58:06.461
59.0, 210.51896850578487, -107.4379759770818, 177.65272769518197, -49.60416306229308, -0.06400000303983688, -0.01600000075995922, 1.0240000486373901, 0.0, 0.0, 0.0, 0.0, 0.0, 1.7622070864619231E9, 0.0, 2025-11-03 16:58:06.461
60.0, 288.8436932777986, -17.661677540745586, 274.2019849512726, 46.21581370243803, -0.06400000303983688, -0.01600000075995922, 1.0240000486373901, 0.0, 0.0, 0.0, 0.0, 0.0, 1.762207086462644E9, 0.0, 2025-11-03 16:58:06.462
60.0, 194.43365879636258, -105.30997290229425, 190.15521324705333, -26.914190031122416, -0.06400000303983688, -0.01600000075995922, 1.0240000486373901, 0.0, 0.0, 0.0, 0.0, 0.0, 1.762207086462644E9, 0.0, 2025-11-03 16:58:06.462
61.0, 206.52475535310805, -95.9153442136012, 186.10116169508547, -42.43103494727984, -0.06400000303983688, -0.01600000075995922, 1.0240000486373901, 0.0, 0.0, 0.0, 0.0, 0.0, 1.7622070864763143E9, 0.0, 2025-11-03 16:58:06.476
61.0, 291.91415114142, -21.835405891295522, 266.7521042395383, 35.66929582739249, -0.06400000303983688, -0.01600000075995922, 1.0240000486373901, 0.0, 0.0, 0.0, 0.0, 0.0, 1.7622070864763143E9, 0.0, 2025-11-03 16:58:06.476
62.0, 238.4822004744783, -65.66703337198123, 219.7303420966491, -12.489395902026445, -0.06400000303983688, -0.01600000075995922, 1.0240000486373901, 0.0, 0.0, 0.0, 0.0, 0.0, 1.7622070864919171E9, 0.0, 2025-11-03 16:58:06.491
62.0, 202.62777959927917, -90.58598677674308, 203.06534789409488, -4.011042702477425, -0.06400000303983688, -0.01600000075995922, 1.0240000486373901, 0.0, 0.0, 0.0, 0.0, 0.0, 1.7622070864919171E9, 0.0, 2025-11-03 16:58:06.491
63.0, 250.99964562617242, -54.757745201233774, 233.02942633908242, 13.50290879001841, -0.06400000303983688, -0.01600000075995922, 1.0240000486373901, 0.0, 0.0, 0.0, 0.0, 0.0, 1.762207086492623E9, 0.0, 2025-11-03 16:58:06.492
63.0, 229.64481687918305, -78.4238321208395, 207.9459173362702, -23.94096956634894, -0.06400000303983688, -0.01600000075995922, 1.0240000486373901, 0.0, 0.0, 0.0, 0.0, 0.0, 1.762207086492623E9, 0.0, 2025-11-03 16:58:06.492
64.0, 245.2252400945872, -63.150080701801926, 221.8097264720127, -6.591573671903461, -0.06400000303983688, -0.01600000075995922, 1.0240000486373901, 0.0, 0.0, 0.0, 0.0, 0.0, 1.7622070865063365E9, 0.0, 2025-11-03 16:58:06.506
64.0, 221.35719857737422, -101.34193904930726, 181.35522865131497, -52.10615613264963, -0.06400000303983688, -0.01600000075995922, 1.0240000486373901, 0.0, 0.0, 0.0, 0.0, 0.0, 1.7622070865063365E9, 0.0, 2025-11-03 16:58:06.506
65.0, 206.2442628564313, -103.24180822679773, 188.49095776677132, -32.153789869043976, -0.06400000303983688, -0.01600000075995922, 1.0240000486373901, 0.0, 0.0, 0.0, 0.0, 0.0, 1.7622070865219505E9, 0.0, 2025-11-03 16:58:06.521
65.0, 261.66210039984435, -51.31329734204337, 236.15598270203918, 11.947110408451408, -0.06400000303983688, -0.01600000075995922, 1.0240000486373901, 0.0, 0.0, 0.0, 0.0, 0.0, 1.7622070865219505E9, 0.0, 2025-11-03 16:58:06.521
66.0, 276.4010461252183, -34.3678106428124, 254.98637897893786, 37.62526350421831, -0.06400000303983688, -0.01600000075995922, 1.0240000486373901, 0.0, 0.0, 0.0, 0.0, 0.0, 1.762207086522637E9, 0.0, 2025-11-03 16:58:06.522
66.0, 187.17451298236847, -126.6348824496381, 161.45522098708898, -57.947879863437265, -0.06400000303983688, -0.01600000075995922, 1.0240000486373901, 0.0, 0.0, 0.0, 0.0, 0.0, 1.762207086522637E9, 0.0, 2025-11-03 16:58:06.522
67.0, 252.49934550840408, -59.77295104181394, 235.2584067126736, 14.422924179118127, -0.06400000303983688, -0.01600000075995922, 1.0240000486373901, 0.0, 0.0, 0.0, 0.0, 0.0, 1.762207086536338E9, 0.0, 2025-11-03 16:58:06.536
67.0, 252.70130010601133, -58.9726124512963, 235.53515930939466, 17.09321274748072, -0.06400000303983688, -0.01600000075995922, 1.0240000486373901, 0.0, 0.0, 0.0, 0.0, 0.0, 1.762207086536338E9, 0.0, 2025-11-03 16:58:06.536
68.0, 198.33437445014715, -103.90751041891053, 193.99235060159117, -22.011181189212948, -0.06400000303983688, -0.01600000075995922, 1.0240000486373901, 0.0, 0.0, 0.0, 0.0, 0.0, 1.7622070865520349E9, 0.0, 2025-11-03 16:58:06.552
68.0, 241.67981493659317, -79.32888791011646, 217.1759904269129, -5.708957282360643, -0.06400000303983688, -0.01600000075995922, 1.0240000486373901, 0.0, 0.0, 0.0, 0.0, 0.0, 1.7622070865520349E9, 0.0, 2025-11-03 16:58:06.552
69.0, 247.61877606622875, -62.820969505701214, 229.7383143780753, 7.889318956527859, -0.06400000303983688, -0.01600000075995922, 1.0240000486373901, 0.0, 0.0, 0.0, 0.0, 0.0, 1.7622070865526433E9, 0.0, 2025-11-03 16:58:06.552
69.0, 230.86028436478227, -78.22935732314363, 203.78714858554304, -20.74709500418976, -0.06400000303983688, -0.01600000075995922, 1.0240000486373901, 0.0, 0.0, 0.0, 0.0, 0.0, 1.7622070865526433E9, 0.0, 2025-11-03 16:58:06.552
70.0, 231.1819157609716, -69.04042313201353, 221.68630977347493, -2.4664640207774937, -0.06400000303983688, -0.01600000075995922, 1.0400000493973494, 0.0, 0.0, 0.0, 0.0, 0.0, 1.762207086566306E9, 0.0, 2025-11-03 16:58:06.566
70.0, 240.28857215307653, -53.916267711203545, 242.6671485248953, 24.184063063468784, -0.06400000303983688, -0.01600000075995922, 1.0400000493973494, 0.0, 0.0, 0.0, 0.0, 0.0, 1.762207086566306E9, 0.0, 2025-11-03 16:58:06.566
71.0, 219.64806429762393, -89.31068089185283, 194.89366649091244, -32.07525196997449, -0.06400000303983688, -0.01600000075995922, 1.0400000493973494, 0.0, 0.0, 0.0, 0.0, 0.0, 1.7622070865819793E9, 0.0, 2025-11-03 16:58:06.581
71.0, 224.72684843745083, -74.86344736302271, 212.9499034769833, -12.410858002956957, -0.06400000303983688, -0.01600000075995922, 1.0400000493973494, 0.0, 0.0, 0.0, 0.0, 0.0, 1.7622070865819793E9, 0.0, 2025-11-03 16:58:06.581
72.0, 272.0478025767952, -36.79500571405515, 251.8186837164685, 26.042793341446668, -0.06400000303983688, -0.01600000075995922, 1.0400000493973494, 0.0, 0.0, 0.0, 0.0, 0.0, 1.7622070865826504E9, 0.0, 2025-11-03 16:58:06.582
72.0, 210.4703498063609, -88.47668320173398, 200.5409154240042, -15.578553265426308, -0.06400000303983688, -0.01600000075995922, 1.0400000493973494, 0.0, 0.0, 0.0, 0.0, 0.0, 1.7622070865826504E9, 0.0, 2025-11-03 16:58:06.582
73.0, 247.20738707110286, -54.86994219990447, 232.20290844887495, 8.491442849393934, -0.06400000303983688, -0.01600000075995922, 1.0400000493973494, 0.0, 0.0, 0.0, 0.0, 0.0, 1.7622070865963216E9, 0.0, 2025-11-03 16:58:06.596
73.0, 321.7435931880027, 0.3982993452809751, 283.81726773735136, 47.99974598130211, -0.06400000303983688, -0.01600000075995922, 1.0400000493973494, 0.0, 0.0, 0.0, 0.0, 0.0, 1.7622070865963216E9, 0.0, 2025-11-03 16:58:06.596
74.0, 179.47779887355864, -121.31300481269136, 167.39418211672455, -60.98467862745747, -0.06400000303983688, -0.01600000075995922, 1.0400000493973494, 0.0, 0.0, 0.0, 0.0, 0.0, 1.7622070866119137E9, 0.0, 2025-11-03 16:58:06.611
74.0, 278.0540819056332, -25.840838743839413, 259.92304692044854, 30.889703684020787, -0.06400000303983688, -0.01600000075995922, 1.0400000493973494, 0.0, 0.0, 0.0, 0.0, 0.0, 1.7622070866119137E9, 0.0, 2025-11-03 16:58:06.611
75.0, 196.33352797385305, -110.10452464548871, 181.4599458500743, -42.41981524741277, -0.06400000303983688, -0.01600000075995922, 1.0400000493973494, 0.0, 0.0, 0.0, 0.0, 0.0, 1.7622070866126318E9, 0.0, 2025-11-03 16:58:06.612
75.0, 280.915105371736, -38.661215791944414, 248.69586725346744, 20.492781807202846, -0.06400000303983688, -0.01600000075995922, 1.0400000493973494, 0.0, 0.0, 0.0, 0.0, 0.0, 1.7622070866126318E9, 0.0, 2025-11-03 16:58:06.612
76.0, 189.36609435640275, -115.10477088624611, 173.8230701405555, -38.39194299513474, -0.06400000303983688, -0.01600000075995922, 1.0400000493973494, 0.0, 0.0, 0.0, 0.0, 0.0, 1.7622070866262996E9, 0.0, 2025-11-03 16:58:06.626
76.0, 223.70585574954748, -81.6850248822011, 210.88547870144248, -8.985109643545002, -0.06400000303983688, -0.01600000075995922, 1.0400000493973494, 0.0, 0.0, 0.0, 0.0, 0.0, 1.7622070866262996E9, 0.0, 2025-11-03 16:58:06.626
77.0, 219.9173370944336, -81.72990368166938, 212.67315088026226, -9.493736037518829, -0.06400000303983688, -0.01600000075995922, 1.0400000493973494, 0.0, 0.0, 0.0, 0.0, 0.0, 1.7622070866419184E9, 0.0, 2025-11-03 16:58:06.641
77.0, 208.18527093343437, -94.28848773287609, 198.02770265378058, -17.687856840435416, -0.06400000303983688, -0.01600000075995922, 1.0400000493973494, 0.0, 0.0, 0.0, 0.0, 0.0, 1.7622070866419184E9, 0.0, 2025-11-03 16:58:06.641
78.0, 263.99205807223916, -55.887194987852126, 233.1453632377088, 11.561900713015348, -0.06400000303983688, -0.01600000075995922, 1.0400000493973494, 0.0, 0.0, 0.0, 0.0, 0.0, 1.762207086642624E9, 0.0, 2025-11-03 16:58:06.642
78.0, 198.11372035276145, -95.7283492158167, 203.08404739387333, -22.441269684117287, -0.06400000303983688, -0.01600000075995922, 1.0400000493973494, 0.0, 0.0, 0.0, 0.0, 0.0, 1.762207086642624E9, 0.0, 2025-11-03 16:58:06.642
79.0, 176.72523250617087, -120.7781991190277, 175.90993431583047, -44.86944971838966, -0.06400000303983688, -0.01600000075995922, 1.0400000493973494, 0.0, 0.0, 0.0, 0.0, 0.0, 1.7622070866563556E9, 0.0, 2025-11-03 16:58:06.656
79.0, 296.1776370909065, -11.569380512926728, 284.45679062977433, 62.734951806720346, -0.06400000303983688, -0.01600000075995922, 1.0400000493973494, 0.0, 0.0, 0.0, 0.0, 0.0, 1.7622070866563556E9, 0.0, 2025-11-03 16:58:06.656
80.0, 182.66793353576213, -127.73815293656662, 164.46584045141935, -61.04451702674851, -0.06400000303983688, -0.01600000075995922, 1.0400000493973494, 0.0, 0.0, 0.0, 0.0, 0.0, 1.7622070866719582E9, 0.0, 2025-11-03 16:58:06.671
80.0, 232.82747174147516, -73.12439388362691, 217.26948792580515, -5.641639083158225, -0.06400000303983688, -0.01600000075995922, 1.0400000493973494, 0.0, 0.0, 0.0, 0.0, 0.0, 1.7622070866719582E9, 0.0, 2025-11-03 16:58:06.671
81.0, 229.7794532775879, -68.88708723383024, 221.29736017808318, 5.181631388608366, -0.06400000303983688, -0.01600000075995922, 1.0400000493973494, 0.0, 0.0, 0.0, 0.0, 0.0, 1.762207086673038E9, 0.0, 2025-11-03 16:58:06.673
81.0, 237.64072298444808, -65.39776057517156, 227.90950329974294, -8.23712965240702, -0.06400000303983688, -0.01600000075995922, 1.0400000493973494, 0.0, 0.0, 0.0, 0.0, 0.0, 1.762207086673038E9, 0.0, 2025-11-03 16:58:06.673
82.0, 222.1388376681134, -84.19075785251334, 214.20650986209512, -12.975582896266133, -0.06400000303983688, -0.01600000075995922, 1.0400000493973494, 0.0, 0.0, 0.0, 0.0, 0.0, 1.7622070866863036E9, 0.0, 2025-11-03 16:58:06.686
82.0, 295.7325889961794, -22.613305082079023, 264.40344706736505, 36.585571316536516, -0.06400000303983688, -0.01600000075995922, 1.0400000493973494, 0.0, 0.0, 0.0, 0.0, 0.0, 1.7622070866863036E9, 0.0, 2025-11-03 16:58:06.686
83.0, 189.833581850864, -112.56537881633267, 175.3377296226099, -52.82421692414209, -0.06400000303983688, -0.01600000075995922, 1.0400000493973494, 0.0, 0.0, 0.0, 0.0, 0.0, 1.7622070867020776E9, 0.0, 2025-11-03 16:58:06.702
83.0, 234.80213891807944, -65.14344737818465, 225.774020425044, 0.16642554802820086, -0.06400000303983688, -0.01600000075995922, 1.0400000493973494, 0.0, 0.0, 0.0, 0.0, 0.0, 1.7622070867020776E9, 0.0, 2025-11-03 16:58:06.702
84.0, 269.91979950200766, -34.00130044715479, 256.5197379607707, 39.068864887114614, -0.06400000303983688, -0.01600000075995922, 1.0400000493973494, 0.0, 0.0, 0.0, 0.0, 0.0, 1.762207086702632E9, 0.0, 2025-11-03 16:58:06.702
84.0, 207.78510163817555, -99.7674411679618, 186.31807589251548, -41.65313575649634, -0.06400000303983688, -0.01600000075995922, 1.0400000493973494, 0.0, 0.0, 0.0, 0.0, 0.0, 1.762207086702632E9, 0.0, 2025-11-03 16:58:06.702
85.0, 206.63695235177875, -102.33675243752077, 186.35547489207238, -40.16465557413176, -0.06400000303983688, -0.01600000075995922, 1.0400000493973494, 0.0, 0.0, 0.0, 0.0, 0.0, 1.7622070867164536E9, 0.0, 2025-11-03 16:58:06.716
85.0, 244.7801919998601, -54.53335120389238, 239.13668296672404, 13.764701786916703, -0.06400000303983688, -0.01600000075995922, 1.0400000493973494, 0.0, 0.0, 0.0, 0.0, 0.0, 1.7622070867164536E9, 0.0, 2025-11-03 16:58:06.716
86.0, 238.97586726862937, -53.6357752145268, 241.47786033898592, 17.05955364787951, -0.06400000303983688, -0.01600000075995922, 1.0400000493973494, 0.0, 0.0, 0.0, 0.0, 0.0, 1.7622070867320015E9, 0.0, 2025-11-03 16:58:06.732
86.0, 226.31630591861904, -84.40019225003198, 203.11396659351885, -25.309772950131446, -0.06400000303983688, -0.01600000075995922, 1.0400000493973494, 0.0, 0.0, 0.0, 0.0, 0.0, 1.7622070867320015E9, 0.0, 2025-11-03 16:58:06.732
87.0, 226.2901266189292, -77.67959202965721, 214.98066915292293, -12.313620604109019, -0.06400000303983688, -0.01600000075995922, 1.0400000493973494, 0.0, 0.0, 0.0, 0.0, 0.0, 1.762207086732646E9, 0.0, 2025-11-03 16:58:06.732
87.0, 266.0527429478243, -47.30786448949948, 242.0051862327382, 15.47757596662268, -0.06400000303983688, -0.01600000075995922, 1.0400000493973494, 0.0, 0.0, 0.0, 0.0, 0.0, 1.762207086732646E9, 0.0, 2025-11-03 16:58:06.732
88.0, 185.21854530554265, -122.01610600436106, 174.66454763058573, -49.42838776437566, -0.06400000303983688, -0.01600000075995922, 1.0400000493973494, 0.0, 0.0, 0.0, 0.0, 0.0, 1.7622070867463188E9, 0.0, 2025-11-03 16:58:06.746
88.0, 209.9168446129188, -98.29018068546429, 198.51762954797596, -28.903816807549447, -0.06400000303983688, -0.01600000075995922, 1.0400000493973494, 0.0, 0.0, 0.0, 0.0, 0.0, 1.7622070867463188E9, 0.0, 2025-11-03 16:58:06.746
89.0, 230.98370106332004, -56.564116879832, 241.93786803353578, 27.348018425982445, -0.06400000303983688, -0.01600000075995922, 1.0400000493973494, 0.0, 0.0, 0.0, 0.0, 0.0, 1.7622070867619262E9, 0.0, 2025-11-03 16:58:06.761
89.0, 274.37028044927865, -37.19517500931397, 246.72867987677455, 15.660831064451486, -0.06400000303983688, -0.01600000075995922, 1.0400000493973494, 0.0, 0.0, 0.0, 0.0, 0.0, 1.7622070867619262E9, 0.0, 2025-11-03 16:58:06.761
90.0, 199.99489003047347, -102.41529033659026, 191.11262763570994, -40.0748979751952, -0.06400000303983688, -0.01600000075995922, 1.0400000493973494, 0.0, 0.0, 0.0, 0.0, 0.0, 1.762207086762637E9, 0.0, 2025-11-03 16:58:06.762
90.0, 219.1394379036501, -77.86658702744171, 210.01782191172242, -8.872912644874305, -0.06400000303983688, -0.01600000075995922, 1.0400000493973494, 0.0, 0.0, 0.0, 0.0, 0.0, 1.762207086762637E9, 0.0, 2025-11-03 16:58:06.762
91.0, 236.94510159268975, -64.14115419005975, 226.1106114210561, 12.2463024049066, -0.06400000303983688, -0.01600000075995922, 1.0400000493973494, 0.0, 0.0, 0.0, 0.0, 0.0, 1.762207086776327E9, 0.0, 2025-11-03 16:58:06.776
91.0, 224.67074993811548, -85.4660637374036, 195.92587887868285, -29.98090799478814, -0.06400000303983688, -0.01600000075995922, 1.0400000493973494, 0.0, 0.0, 0.0, 0.0, 0.0, 1.762207086776327E9, 0.0, 2025-11-03 16:58:06.776
92.0, 274.908826042898, -34.42016924219206, 255.64834127109498, 28.683162710163742, -0.06400000303983688, -0.01600000075995922, 1.0400000493973494, 0.0, 0.0, 0.0, 0.0, 0.0, 1.7622070867919483E9, 0.0, 2025-11-03 16:58:06.791
92.0, 183.0120043316856, -110.95348193543032, 178.677460283041, -44.08407072769478, -0.06400000303983688, -0.01600000075995922, 1.0400000493973494, 0.0, 0.0, 0.0, 0.0, 0.0, 1.7622070867919483E9, 0.0, 2025-11-03 16:58:06.791
93.0, 207.53078844118863, -101.42047694837674, 179.25714477617294, -44.229926825966686, -0.06400000303983688, -0.01600000075995922, 1.0400000493973494, 0.0, 0.0, 0.0, 0.0, 0.0, 1.7622070867926517E9, 0.0, 2025-11-03 16:58:06.792
93.0, 258.4906652374193, -49.17781446734443, 243.1570754190907, 14.931550573091954, -0.06400000303983688, -0.01600000075995922, 1.0400000493973494, 0.0, 0.0, 0.0, 0.0, 0.0, 1.7622070867926517E9, 0.0, 2025-11-03 16:58:06.792
94.0, 264.8671946618706, -47.20314729074016, 241.88176953420043, 10.481069625820965, -0.06400000303983688, -0.01600000075995922, 1.0400000493973494, 0.0, 0.0, 0.0, 0.0, 0.0, 1.7622070868226287E9, 0.0, 2025-11-03 16:58:06.822
94.0, 188.30396276898682, -108.17099636839703, 182.73525173496455, -44.42814152361825, -0.06400000303983688, -0.01600000075995922, 1.0400000493973494, 0.0, 0.0, 0.0, 0.0, 0.0, 1.7622070868226287E9, 0.0, 2025-11-03 16:58:06.822
95.0, 246.93811427429318, -51.75834543677047, 247.75715236458927, 25.257414350751787, -0.06400000303983688, -0.01600000075995922, 1.0400000493973494, 0.0, 0.0, 0.0, 0.0, 0.0, 1.7622070868233333E9, 0.0, 2025-11-03 16:58:06.823
95.0, 203.9479642836377, -90.22695638099685, 202.52680230047554, -12.829726797994226, -0.06400000303983688, -0.01600000075995922, 1.0400000493973494, 0.0, 0.0, 0.0, 0.0, 0.0, 1.7622070868233333E9, 0.0, 2025-11-03 16:58:06.823
96.0, 235.1499496139586, -72.72422458836809, 217.3592455247417, -1.8867795276455581, -0.06400000303983688, -0.01600000075995922, 1.0400000493973494, 0.0, 0.0, 0.0, 0.0, 0.0, 1.7622070868240783E9, 0.0, 2025-11-03 16:58:06.824
96.0, 269.39995340816677, -41.028572463896126, 250.72663292940706, 24.191542863380164, -0.06400000303983688, -0.01600000075995922, 1.0400000493973494, 0.0, 0.0, 0.0, 0.0, 0.0, 1.7622070868240783E9, 0.0, 2025-11-03 16:58:06.824
97.0, 235.00783341564238, -68.18772594211623, 236.08492460288107, 16.199376658070832, -0.06400000303983688, -0.01600000075995922, 1.0400000493973494, 0.0, 0.0, 0.0, 0.0, 0.0, 1.762207086836395E9, 0.0, 2025-11-03 16:58:06.836
97.0, 175.36764882225543, -132.5252248798497, 163.4897265629843, -56.97924577491358, -0.06400000303983688, -0.01600000075995922, 1.0400000493973494, 0.0, 0.0, 0.0, 0.0, 0.0, 1.762207086836395E9, 0.0, 2025-11-03 16:58:06.836
98.0, 217.89779111836106, -88.57018070062622, 208.12917243409902, -11.666617911774665, -0.06400000303983688, -0.01600000075995922, 1.0400000493973494, 0.0, 0.0, 0.0, 0.0, 0.0, 1.7622070868519485E9, 0.0, 2025-11-03 16:58:06.851
98.0, 287.029841799289, -20.638637905474752, 280.7617694735527, 65.8652480696328, -0.06400000303983688, -0.01600000075995922, 1.0400000493973494, 0.0, 0.0, 0.0, 0.0, 0.0, 1.7622070868519485E9, 0.0, 2025-11-03 16:58:06.851
99.0, 213.42487077135593, -91.36388596752658, 196.73743716906756, -34.37529044272378, -0.06400000303983688, -0.01600000075995922, 1.0400000493973494, 0.0, 0.0, 0.0, 0.0, 0.0, 1.7622070868526568E9, 0.0, 2025-11-03 16:58:06.852
99.0, 203.2074640924111, -99.22889557434246, 188.25908396951854, -41.077191163320094, -0.06400000303983688, -0.01600000075995922, 1.0400000493973494, 0.0, 0.0, 0.0, 0.0, 0.0, 1.7622070868526568E9, 0.0, 2025-11-03 16:58:06.852
100.0, 252.57040360756218, -54.353836006019264, 233.3286183355376, 6.666371671017259, -0.06400000303983688, -0.01600000075995922, 1.0400000493973494, 0.0, 0.0, 0.0, 0.0, 0.0, 1.7622070868671317E9, 0.0, 2025-11-03 16:58:06.867
100.0, 225.31775263044983, -86.82364742131904, 204.40049217827618, -15.08862637123093, -0.06400000303983688, -0.01600000075995922, 1.0400000493973494, 0.0, 0.0, 0.0, 0.0, 0.0, 1.7622070868671317E9, 0.0, 2025-11-03 16:58:06.867
0.0, 239.14042286667973, -66.17191986599937, 220.00335479341447, -4.095190451480448, -0.06400000303983688, -0.01600000075995922, 1.0400000493973494, 0.0, 0.0, 0.0, 0.0, 0.0, 1.7622070868676665E9, 0.0, 2025-11-03 16:58:06.867
1.0, 253.7484720936045, -58.27325115958229, 235.46410121023655, 18.92763367574662, -0.06400000303983688, -0.01600000075995922, 1.0400000493973494, 0.0, 0.0, 0.0, 0.0, 0.0, 1.7622070868813276E9, 0.0, 2025-11-03 16:58:06.881
1.0, 232.7414540424943, -77.70203142939135, 213.45478997100145, -11.66848786175251, -0.06400000303983688, -0.01600000075995922, 1.0400000493973494, 0.0, 0.0, 0.0, 0.0, 0.0, 1.7622070868813276E9, 0.0, 2025-11-03 16:58:06.881
2.0, 207.2802151441574, -97.83391289087012, 188.95470536127687, -44.37391297426075, -0.06400000303983688, -0.01600000075995922, 1.0400000493973494, 0.0, 0.0, 0.0, 0.0, 0.0, 1.7622070868969512E9, 0.0, 2025-11-03 16:58:06.896
2.0, 237.737960383296, -65.54735657339916, 221.12158488016576, -4.121369751170278, -0.06400000303983688, -0.01600000075995922, 1.0400000493973494, 0.0, 0.0, 0.0, 0.0, 0.0, 1.7622070868969512E9, 0.0, 2025-11-03 16:58:06.896
3.0, 230.67702926695347, -73.29268938163295, 218.29796041361988, -8.657868397422135, -0.06400000303983688, -0.01600000075995922, 1.0400000493973494, 0.0, 0.0, 0.0, 0.0, 0.0, 1.7622070868976748E9, 0.0, 2025-11-03 16:58:06.897
3.0, 243.66196191310883, -59.83652934106067, 233.1865021372214, 13.228026143275201, -0.06400000303983688, -0.01600000075995922, 1.0400000493973494, 0.0, 0.0, 0.0, 0.0, 0.0, 1.7622070868976748E9, 0.0, 2025-11-03 16:58:06.897
4.0, 225.19433593191206, -85.53712183656171, 199.67325863428414, -25.7529510948807, -0.06400000303983688, -0.01600000075995922, 1.0400000493973494, 0.0, 0.0, 0.0, 0.0, 0.0, 1.762207086911343E9, 0.0, 2025-11-03 16:58:06.911
4.0, 260.5588299129158, -47.22932659042999, 249.57100384309888, 31.4600384272635, -0.06400000303983688, -0.01600000075995922, 1.0400000493973494, 0.0, 0.0, 0.0, 0.0, 0.0, 1.762207086911343E9, 0.0, 2025-11-03 16:58:06.911
5.0, 210.74336250312626, -101.48405524762347, 191.18368573486805, -41.37825310975313, -0.06400000303983688, -0.01600000075995922, 1.0400000493973494, 0.0, 0.0, 0.0, 0.0, 0.0, 1.7622070869269571E9, 0.0, 2025-11-03 16:58:06.926
5.0, 222.66990346182138, -83.60359355947003, 210.78076150268316, -18.47510578110814, -0.06400000303983688, -0.01600000075995922, 1.0400000493973494, 0.0, 0.0, 0.0, 0.0, 0.0, 1.7622070869269571E9, 0.0, 2025-11-03 16:58:06.926
6.0, 247.65617506578565, -64.85547508159652, 227.58413200359792, -3.7174605559557676, -0.06400000303983688, -0.01600000075995922, 1.0400000493973494, 0.0, 0.0, 0.0, 0.0, 0.0, 1.7622070869276528E9, 0.0, 2025-11-03 16:58:06.927
6.0, 260.06516311876476, -35.9610080239363, 265.3795609558001, 45.01717576663941, -0.06400000303983688, -0.01600000075995922, 1.0400000493973494, 0.0, 0.0, 0.0, 0.0, 0.0, 1.7622070869276528E9, 0.0, 2025-11-03 16:58:06.927
7.0, 186.74068458750844, -115.72559427889064, 178.7111193826422, -40.465717520564795, -0.06400000303983688, -0.01600000075995922, 1.0400000493973494, 0.0, 0.0, 0.0, 0.0, 0.0, 1.7622070869413157E9, 0.0, 2025-11-03 16:58:06.941
7.0, 284.6138664279133, -22.886317778844386, 264.9307729611173, 46.25134275201708, -0.06400000303983688, -0.01600000075995922, 1.0400000493973494, 0.0, 0.0, 0.0, 0.0, 0.0, 1.7622070869413157E9, 0.0, 2025-11-03 16:58:06.941
8.0, 202.6502189990133, -102.00764124142006, 192.6833856170997, -25.81278949417174, -0.06400000303983688, -0.01600000075995922, 1.0400000493973494, 0.0, 0.0, 0.0, 0.0, 0.0, 1.762207086956958E9, 0.0, 2025-11-03 16:58:06.956
8.0, 202.171511804685, -110.83380513684824, 181.57588274870068, -39.426025332883, -0.06400000303983688, -0.01600000075995922, 1.0400000493973494, 0.0, 0.0, 0.0, 0.0, 0.0, 1.762207086956958E9, 0.0, 2025-11-03 16:58:06.956
9.0, 249.21571334730834, -62.15152741363272, 228.7397610899061, 9.484386287629604, -0.06400000303983688, -0.01600000075995922, 1.0400000493973494, 0.0, 0.0, 0.0, 0.0, 0.0, 1.7622070869576588E9, 0.0, 2025-11-03 16:58:06.957
9.0, 229.27082688361406, -85.42492483789101, 204.73708317428827, -25.109688302502036, -0.06400000303983688, -0.01600000075995922, 1.0400000493973494, 0.0, 0.0, 0.0, 0.0, 0.0, 1.7622070869576588E9, 0.0, 2025-11-03 16:58:06.957
10.0, 268.30042282119393, -40.50498647009954, 252.53300460800529, 27.241431277245283, -0.06400000303983688, -0.01600000075995922, 1.0400000493973494, 0.0, 0.0, 0.0, 0.0, 0.0, 1.7622070869713328E9, 0.0, 2025-11-03 16:58:06.971
10.0, 209.60643291659653, -95.79566741501912, 195.6528661819175, -20.633028055541217, -0.06400000303983688, -0.01600000075995922, 1.0400000493973494, 0.0, 0.0, 0.0, 0.0, 0.0, 1.7622070869713328E9, 0.0, 2025-11-03 16:58:06.971
11.0, 209.07536712288857, -95.92282401351258, 193.33786810934544, -26.92727968096733, -0.06400000303983688, -0.01600000075995922, 1.0400000493973494, 0.0, 0.0, 0.0, 0.0, 0.0, 1.7622070869870293E9, 0.0, 2025-11-03 16:58:06.987
11.0, 256.5982758598402, -52.60730272671208, 237.9997533801943, 11.174821067601442, -0.06400000303983688, -0.01600000075995922, 1.0400000493973494, 0.0, 0.0, 0.0, 0.0, 0.0, 1.7622070869870293E9, 0.0, 2025-11-03 16:58:06.987
12.0, 216.1063790395856, -80.54809529567137, 205.8403536612168, -19.978545563295484, -0.06400000303983688, -0.01600000075995922, 1.0400000493973494, 0.0, 0.0, 0.0, 0.0, 0.0, 1.7622070869876747E9, 0.0, 2025-11-03 16:58:06.987
12.0, 268.951165413484, -36.12556362198666, 255.0798764778301, 29.02910345606506, -0.06400000303983688, -0.01600000075995922, 1.0400000493973494, 0.0, 0.0, 0.0, 0.0, 0.0, 1.7622070869876747E9, 0.0, 2025-11-03 16:58:06.987
13.0, 241.30956484097987, -67.19291255390272, 227.49811430461705, -1.7502731792628765, -0.06400000303983688, -0.01600000075995922, 1.0400000493973494, 0.0, 0.0, 0.0, 0.0, 0.0, 1.7622070870013933E9, 0.0, 2025-11-03 16:58:07.001
13.0, 219.08707930427045, -90.83282017381862, 195.93709857854992, -27.77997687086463, -0.06400000303983688, -0.01600000075995922, 1.0400000493973494, 0.0, 0.0, 0.0, 0.0, 0.0, 1.7622070870013933E9, 0.0, 2025-11-03 16:58:07.001
14.0, 238.97212736867368, -68.70009223604575, 216.8468792308122, -12.169634455814958, -0.06400000303983688, -0.01600000075995922, 1.0400000493973494, 0.0, 0.0, 0.0, 0.0, 0.0, 1.762207087016961E9, 0.0, 2025-11-03 16:58:07.016
14.0, 225.04847983364016, -84.29921495122835, 204.8343205731362, -27.252650977112353, -0.06400000303983688, -0.01600000075995922, 1.0400000493973494, 0.0, 0.0, 0.0, 0.0, 0.0, 1.762207087016961E9, 0.0, 2025-11-03 16:58:07.016
15.0, 267.1634932346642, -46.301831401418895, 247.0764905726537, 27.233951477333903, -0.06400000303983688, -0.01600000075995922, 1.0400000493973494, 0.0, 0.0, 0.0, 0.0, 0.0, 1.7622070870176573E9, 0.0, 2025-11-03 16:58:07.017
15.0, 194.11202740017325, -107.65115027455613, 191.22856453433633, -28.756090759299695, -0.06400000303983688, -0.01600000075995922, 1.0400000493973494, 0.0, 0.0, 0.0, 0.0, 0.0, 1.7622070870176573E9, 0.0, 2025-11-03 16:58:07.017
16.0, 186.5686491895467, -114.12117719789967, 179.5301574729383, -42.877952991984785, -0.06400000303983688, -0.01600000075995922, 1.0400000493973494, 0.0, 0.0, 0.0, 0.0, 0.0, 1.762207087031466E9, 0.0, 2025-11-03 16:58:07.031
16.0, 288.1368521861732, -12.321100404020399, 287.138298898004, 64.0308271413669, -0.06400000303983688, -0.01600000075995922, 1.0400000493973494, 0.0, 0.0, 0.0, 0.0, 0.0, 1.762207087031466E9, 0.0, 2025-11-03 16:58:07.031
17.0, 197.6088338587433, -109.30418605497107, 183.93201972078532, -39.38488643337041, -0.06400000303983688, -0.01600000075995922, 1.0400000493973494, 0.0, 0.0, 0.0, 0.0, 0.0, 1.7622070870469677E9, 0.0, 2025-11-03 16:58:07.046
17.0, 176.26148491166532, -124.88460927037522, 170.87228907551616, -54.935390449129045, -0.06400000303983688, -0.01600000075995922, 1.0400000493973494, 0.0, 0.0, 0.0, 0.0, 0.0, 1.7622070870469677E9, 0.0, 2025-11-03 16:58:07.046
18.0, 254.7507652817294, -53.60959591483697, 239.62660986091942, 8.392335500568151, -0.06400000303983688, -0.01600000075995922, 1.0400000493973494, 0.0, 0.0, 0.0, 0.0, 0.0, 1.7622070870476396E9, 0.0, 2025-11-03 16:58:07.047
18.0, 310.16860282514244, 2.1186533248983324, 292.9089645296335, 66.49168131221086, -0.06400000303983688, -0.01600000075995922, 1.0400000493973494, 0.0, 0.0, 0.0, 0.0, 0.0, 1.7622070870476396E9, 0.0, 2025-11-03 16:58:07.047
19.0, 154.98145416378975, -133.28816447081044, 158.46704092249274, -64.47961513604969, -0.06400000303983688, -0.01600000075995922, 1.0400000493973494, 0.0, 0.0, 0.0, 0.0, 0.0, 1.762207087061349E9, 0.0, 2025-11-03 16:58:07.061
19.0, 248.84546325169504, -61.949572816025466, 226.3686645179987, -8.272658701986074, -0.06400000303983688, -0.01600000075995922, 1.0400000493973494, 0.0, 0.0, 0.0, 0.0, 0.0, 1.762207087061349E9, 0.0, 2025-11-03 16:58:07.061
20.0, 244.49969950318336, -58.011458162683994, 237.15827589016408, 5.662208532914519, -0.06400000303983688, -0.01600000075995922, 1.0400000493973494, 0.0, 0.0, 0.0, 0.0, 0.0, 1.7622070870769467E9, 0.0, 2025-11-03 16:58:07.076
20.0, 173.88290853984654, -124.49565967498347, 165.6700882371515, -56.20695643406361, -0.06400000303983688, -0.01600000075995922, 1.0400000493973494, 0.0, 0.0, 0.0, 0.0, 0.0, 1.7622070870769467E9, 0.0, 2025-11-03 16:58:07.076
21.0, 289.1840241737664, -17.714036140125245, 270.5630622943863, 40.035629025660455, -0.06400000303983688, -0.01600000075995922, 1.0400000493973494, 0.0, 0.0, 0.0, 0.0, 0.0, 1.7622070870776443E9, 0.0, 2025-11-03 16:58:07.077
21.0, 240.524185850285, -69.18627923028544, 221.2188222790137, -5.142362439073622, -0.06400000303983688, -0.01600000075995922, 1.0400000493973494, 0.0, 0.0, 0.0, 0.0, 0.0, 1.7622070870776443E9, 0.0, 2025-11-03 16:58:07.077
22.0, 210.05148101132363, -98.1742437868379, 191.54271613061428, -31.37402072828263, -0.06400000303983688, -0.01600000075995922, 1.0400000493973494, 0.0, 0.0, 0.0, 0.0, 0.0, 1.7622070870913277E9, 0.0, 2025-11-03 16:58:07.091
22.0, 198.1735587520525, -100.6201383578591, 194.49349719565362, -29.691065748222172, -0.06400000303983688, -0.01600000075995922, 1.0400000493973494, 0.0, 0.0, 0.0, 0.0, 0.0, 1.7622070870913277E9, 0.0, 2025-11-03 16:58:07.091
23.0, 267.455205431208, -44.667495120782405, 252.40584800951183, 28.296083064749837, -0.06400000303983688, -0.01600000075995922, 1.0400000493973494, 0.0, 0.0, 0.0, 0.0, 0.0, 1.7622070871071315E9, 0.0, 2025-11-03 16:58:07.107
23.0, 210.88921860139817, -83.94018455548212, 219.9883951935917, 3.306071560829878, -0.06400000303983688, -0.01600000075995922, 1.0400000493973494, 0.0, 0.0, 0.0, 0.0, 0.0, 1.7622070871071315E9, 0.0, 2025-11-03 16:58:07.107
24.0, 204.89789887238294, -99.79362046765164, 191.55767573043704, -34.29488259367645, -0.06400000303983688, -0.01600000075995922, 1.0400000493973494, 0.0, 0.0, 0.0, 0.0, 0.0, 1.7622070871076596E9, 0.0, 2025-11-03 16:58:07.107
24.0, 230.6658095670864, -68.62903413688764, 230.67702926695347, 2.139222774654627, -0.06400000303983688, -0.01600000075995922, 1.0400000493973494, 0.0, 0.0, 0.0, 0.0, 0.0, 1.7622070871076596E9, 0.0, 2025-11-03 16:58:07.107
25.0, 256.06347016617656, -55.78247778909281, 239.2227006657049, 10.905548270791769, -0.06400000303983688, -0.01600000075995922, 1.0400000493973494, 0.0, 0.0, 0.0, 0.0, 0.0, 1.762207087121322E9, 0.0, 2025-11-03 16:58:07.121
25.0, 220.59799888636917, -88.34952660324052, 200.55587502382696, -24.803016506135464, -0.06400000303983688, -0.01600000075995922, 1.0400000493973494, 0.0, 0.0, 0.0, 0.0, 0.0, 1.762207087121322E9, 0.0, 2025-11-03 16:58:07.121
26.0, 180.7493648584932, -127.0425315448083, 160.58008439745754, -63.67179674562067, -0.06400000303983688, -0.01600000075995922, 1.0400000493973494, 0.0, 0.0, 0.0, 0.0, 0.0, 1.762207087137041E9, 0.0, 2025-11-03 16:58:07.137
26.0, 234.72360101900995, -79.62434000661597, 210.01034211181104, -22.716152330860496, -0.06400000303983688, -0.01600000075995922, 1.0400000493973494, 0.0, 0.0, 0.0, 0.0, 0.0, 1.762207087137041E9, 0.0, 2025-11-03 16:58:07.137
27.0, 266.2098187459633, -30.224001491907984, 257.36121545080096, 27.637860672548413, -0.06400000303983688, -0.01600000075995922, 1.0400000493973494, 0.0, 0.0, 0.0, 0.0, 0.0, 1.7622070871376758E9, 0.0, 2025-11-03 16:58:07.137
27.0, 243.46374721545726, -71.11232770746574, 220.6952362852171, -7.995906105265021, -0.06400000303983688, -0.01600000075995922, 1.0400000493973494, 0.0, 0.0, 0.0, 0.0, 0.0, 1.7622070871376758E9, 0.0, 2025-11-03 16:58:07.137
28.0, 219.86871839500964, -104.00848771771416, 184.70243911165744, -50.22685640491545, -0.06400000303983688, -0.01600000075995922, 1.0400000493973494, 0.0, 0.0, 0.0, 0.0, 0.0, 1.7622070871513147E9, 0.0, 2025-11-03 16:58:07.151
28.0, 256.84510925691575, -58.97635235125199, 229.08757178578526, 3.1976144621148705, -0.06400000303983688, -0.01600000075995922, 1.0400000493973494, 0.0, 0.0, 0.0, 0.0, 0.0, 1.7622070871513147E9, 0.0, 2025-11-03 16:58:07.151
29.0, 217.71453602053225, -82.35072707431391, 211.00141560006887, -17.166140796616673, -0.06400000303983688, -0.01600000075995922, 1.0400000493973494, 0.0, 0.0, 0.0, 0.0, 0.0, 1.7622070871669717E9, 0.0, 2025-11-03 16:58:07.166
29.0, 271.47559788357466, -44.663755220826715, 244.69043440092355, 7.180607914924622, -0.06400000303983688, -0.01600000075995922, 1.0400000493973494, 0.0, 0.0, 0.0, 0.0, 0.0, 1.7622070871669717E9, 0.0, 2025-11-03 16:58:07.166
30.0, 209.75976881477982, -92.79626765055582, 206.9847630476579, -20.438553257845342, -0.06400000303983688, -0.01600000075995922, 1.0400000493973494, 0.0, 0.0, 0.0, 0.0, 0.0, 1.762207087167657E9, 0.0, 2025-11-03 16:58:07.167
30.0, 197.08150796499103, -102.56862623477355, 186.830442186445, -38.68926504161209, -0.06400000303983688, -0.01600000075995922, 1.0400000493973494, 0.0, 0.0, 0.0, 0.0, 0.0, 1.762207087167657E9, 0.0, 2025-11-03 16:58:07.167
31.0, 254.17482068855315, -54.750265401322395, 236.8852631933987, 8.497052699327469, -0.06400000303983688, -0.01600000075995922, 1.0400000493973494, 0.0, 0.0, 0.0, 0.0, 0.0, 1.7622070871813986E9, 0.0, 2025-11-03 16:58:07.181
31.0, 240.3334509525448, -56.98672557482496, 241.95656753331423, 11.65352826192975, -0.06400000303983688, -0.01600000075995922, 1.0400000493973494, 0.0, 0.0, 0.0, 0.0, 0.0, 1.7622070871813986E9, 0.0, 2025-11-03 16:58:07.181
32.0, 234.7086414191872, -65.09856857871637, 231.1145975617692, 6.83279721904546, -0.06400000303983688, -0.01600000075995922, 1.0400000493973494, 0.0, 0.0, 0.0, 0.0, 0.0, 1.7622070871969702E9, 0.0, 2025-11-03 16:58:07.196
32.0, 202.7287568980828, -99.18401677487418, 196.56914167106152, -34.377160392701626, -0.06400000303983688, -0.01600000075995922, 1.0400000493973494, 0.0, 0.0, 0.0, 0.0, 0.0, 1.7622070871969702E9, 0.0, 2025-11-03 16:58:07.196
33.0, 223.83301234804094, -80.54061549576, 214.61041905730963, -26.261577488854527, -0.06400000303983688, -0.01600000075995922, 1.0400000493973494, 0.0, 0.0, 0.0, 0.0, 0.0, 1.7622070871976557E9, 0.0, 2025-11-03 16:58:07.197
33.0, 220.05197349283844, -74.73255086457357, 227.70754870213568, -1.970927276648581, -0.06400000303983688, -0.01600000075995922, 1.0400000493973494, 0.0, 0.0, 0.0, 0.0, 0.0, 1.7622070871976557E9, 0.0, 2025-11-03 16:58:07.197
34.0, 232.38990344665945, -73.92473247414455, 220.64287768583745, -4.323324348777533, -0.06400000303983688, -0.01600000075995922, 1.0400000493973494, 0.0, 0.0, 0.0, 0.0, 0.0, 1.762207087211422E9, 0.0, 2025-11-03 16:58:07.211
34.0, 225.47108852863312, -81.73738348158076, 215.55287384614348, -11.171081167645752, -0.06400000303983688, -0.01600000075995922, 1.0400000493973494, 0.0, 0.0, 0.0, 0.0, 0.0, 1.762207087211422E9, 0.0, 2025-11-03 16:58:07.211
35.0, 251.27639822289348, -54.92978059919551, 239.58173106145114, 0.19821469765156507, -0.06400000303983688, -0.01600000075995922, 1.0400000493973494, 0.0, 0.0, 0.0, 0.0, 0.0, 1.7622070872269318E9, 0.0, 2025-11-03 16:58:07.226
35.0, 191.92044602613896, -108.81799906073138, 185.42797970306128, -40.24880332313478, -0.06400000303983688, -0.01600000075995922, 1.0400000493973494, 0.0, 0.0, 0.0, 0.0, 0.0, 1.7622070872269318E9, 0.0, 2025-11-03 16:58:07.226
36.0, 216.40931093599647, -78.95489791454747, 207.18297774530947, -28.17640626616776, -0.06400000303983688, -0.01600000075995922, 1.0400000493973494, 0.0, 0.0, 0.0, 0.0, 0.0, 1.7622070872276468E9, 0.0, 2025-11-03 16:58:07.227
36.0, 292.31058053672314, -21.300600197631866, 262.1669868938625, 18.07493648584932, -0.06400000303983688, -0.01600000075995922, 1.0400000493973494, 0.0, 0.0, 0.0, 0.0, 0.0, 1.7622070872276468E9, 0.0, 2025-11-03 16:58:07.227
37.0, 242.80552482325584, -64.00277789169922, 222.43054986465722, -13.433720640838146, -0.06400000303983688, -0.01600000075995922, 1.0400000493973494, 0.0, 0.0, 0.0, 0.0, 0.0, 1.762207087241321E9, 0.0, 2025-11-03 16:58:07.241
37.0, 165.2624391419813, -123.75141958380118, 165.42699474003166, -66.5851788111031, -0.06400000303983688, -0.01600000075995922, 1.0400000493973494, 0.0, 0.0, 0.0, 0.0, 0.0, 1.762207087241321E9, 0.0, 2025-11-03 16:58:07.241
38.0, 244.73157330043614, -60.778984129894525, 230.90516316425055, -1.0770911872386932, -0.06400000303983688, -0.01600000075995922, 1.0400000493973494, 0.0, 0.0, 0.0, 0.0, 0.0, 1.7622070872569656E9, 0.0, 2025-11-03 16:58:07.256
38.0, 261.0076179075986, -41.7802923549898, 247.33080376964062, 19.75789146590978, -0.06400000303983688, -0.01600000075995922, 1.0400000493973494, 0.0, 0.0, 0.0, 0.0, 0.0, 1.7622070872569656E9, 0.0, 2025-11-03 16:58:07.256
39.0, 210.33571340795606, -93.17773744603619, 199.99489003047347, -29.77334354724735, -0.06400000303983688, -0.01600000075995922, 1.0400000493973494, 0.0, 0.0, 0.0, 0.0, 0.0, 1.762207087257649E9, 0.0, 2025-11-03 16:58:07.257
39.0, 204.3518734788522, -96.56982670584694, 200.96726401895285, -25.042370103299618, -0.06400000303983688, -0.01600000075995922, 1.0400000493973494, 0.0, 0.0, 0.0, 0.0, 0.0, 1.762207087257649E9, 0.0, 2025-11-03 16:58:07.257
40.0, 246.18265448324382, -56.64639467885718, 241.7396533358842, 6.918814918026328, -0.06400000303983688, -0.01600000075995922, 1.0400000493973494, 0.0, 0.0, 0.0, 0.0, 0.0, 1.7622070872713475E9, 0.0, 2025-11-03 16:58:07.271
40.0, 203.9105652840808, -92.5793534531258, 202.70631749834865, -29.533989950083196, -0.06400000303983688, -0.01600000075995922, 1.0400000493973494, 0.0, 0.0, 0.0, 0.0, 0.0, 1.7622070872713475E9, 0.0, 2025-11-03 16:58:07.271
41.0, 280.75054977368563, -13.10647939471528, 284.8756594248116, 56.932497025467455, -0.06400000303983688, -0.01600000075995922, 1.0400000493973494, 0.0, 0.0, 0.0, 0.0, 0.0, 1.7622070872869384E9, 0.0, 2025-11-03 16:58:07.286
41.0, 204.0265021827072, -100.02175436494872, 195.85856067948043, -34.466917991638184, -0.06400000303983688, -0.01600000075995922, 1.0400000493973494, 0.0, 0.0, 0.0, 0.0, 0.0, 1.7622070872869384E9, 0.0, 2025-11-03 16:58:07.286
42.0, 229.5214001806453, -67.7164985476993, 231.43248905800283, 8.755105796270072, -0.06400000303983688, -0.01600000075995922, 1.0400000493973494, 0.0, 0.0, 0.0, 0.0, 0.0, 1.7622070872876449E9, 0.0, 2025-11-03 16:58:07.287
42.0, 198.7644629450515, -95.07760662352666, 205.96003045979887, -16.223686007782817, -0.06400000303983688, -0.01600000075995922, 1.0400000493973494, 0.0, 0.0, 0.0, 0.0, 0.0, 1.7622070872876449E9, 0.0, 2025-11-03 16:58:07.287
43.0, 225.5197072280571, -76.03029614919797, 220.0257941931486, -5.415375135838985, -0.06400000303983688, -0.01600000075995922, 1.0400000493973494, 0.0, 0.0, 0.0, 0.0, 0.0, 1.7622070873014233E9, 0.0, 2025-11-03 16:58:07.301
43.0, 213.59316626936197, -80.82110799243674, 213.22665607370436, -6.197014226578176, -0.06400000303983688, -0.01600000075995922, 1.0400000493973494, 0.0, 0.0, 0.0, 0.0, 0.0, 1.7622070873014233E9, 0.0, 2025-11-03 16:58:07.301
44.0, 232.4759211456403, -60.21051933662966, 240.24369335360825, 13.635675238445401, -0.06400000303983688, -0.01600000075995922, 1.0400000493973494, 0.0, 0.0, 0.0, 0.0, 0.0, 1.762207087316986E9, 0.0, 2025-11-03 16:58:07.316
44.0, 251.39233512151986, -45.63986910926178, 251.6391685185954, 21.27629084791988, -0.06400000303983688, -0.01600000075995922, 1.0400000493973494, 0.0, 0.0, 0.0, 0.0, 0.0, 1.762207087316986E9, 0.0, 2025-11-03 16:58:07.316
45.0, 236.73192729521543, -62.52177750924602, 227.34103850647807, -6.350350124761462, -0.06400000303983688, -0.01600000075995922, 1.0400000493973494, 0.0, 0.0, 0.0, 0.0, 0.0, 1.762207087317701E9, 0.0, 2025-11-03 16:58:07.317
45.0, 217.85291231889278, -78.98481711419299, 209.6213925164193, -17.783224289305508, -0.06400000303983688, -0.01600000075995922, 1.0400000493973494, 0.0, 0.0, 0.0, 0.0, 0.0, 1.762207087317701E9, 0.0, 2025-11-03 16:58:07.317
46.0, 256.7927506575361, -54.11074250889942, 230.41523627005517, -6.754259319975972, -0.06400000303983688, -0.01600000075995922, 1.0400000493973494, 0.0, 0.0, 0.0, 0.0, 0.0, 1.7622070873313837E9, 0.0, 2025-11-03 16:58:07.331
46.0, 258.02317774295807, -44.97790681710467, 249.9375140387565, 16.90434779971838, -0.06400000303983688, -0.01600000075995922, 1.0400000493973494, 0.0, 0.0, 0.0, 0.0, 0.0, 1.7622070873313837E9, 0.0, 2025-11-03 16:58:07.331
47.0, 174.70194663014263, -122.1881414023228, 163.23167346604168, -69.23676787968725, -0.06400000303983688, -0.01600000075995922, 1.0400000493973494, 0.0, 0.0, 0.0, 0.0, 0.0, 1.762207087347018E9, 0.0, 2025-11-03 16:58:07.347
47.0, 256.456159661524, -42.41233544750139, 251.95332011487335, 26.10076179075986, -0.06400000303983688, -0.01600000075995922, 1.0400000493973494, 0.0, 0.0, 0.0, 0.0, 0.0, 1.762207087347018E9, 0.0, 2025-11-03 16:58:07.347
48.0, 244.5258788028732, -69.89686022186652, 219.30399350170046, -16.53409770410508, -0.06400000303983688, -0.01600000075995922, 1.0400000493973494, 0.0, 0.0, 0.0, 0.0, 0.0, 1.7622070873477309E9, 0.0, 2025-11-03 16:58:07.347
48.0, 220.8448322834447, -82.4255250734277, 211.6222389927134, -2.1990611739456654, -0.06400000303983688, -0.01600000075995922, 1.0400000493973494, 0.0, 0.0, 0.0, 0.0, 0.0, 1.7622070873477309E9, 0.0, 2025-11-03 16:58:07.347
49.0, 196.51678307168186, -102.94261623034254, 190.3496880447492, -42.470303896814585, -0.06400000303983688, -0.01600000075995922, 1.0400000493973494, 0.0, 0.0, 0.0, 0.0, 0.0, 1.762207087361333E9, 0.0, 2025-11-03 16:58:07.361
49.0, 234.58148482069373, -65.18458627769724, 231.71672145463526, 7.25914581399411, -0.06400000303983688, -0.01600000075995922, 1.0400000493973494, 0.0, 0.0, 0.0, 0.0, 0.0, 1.762207087361333E9, 0.0, 2025-11-03 16:58:07.361
50.0, 223.09999195672572, -82.86309336824343, 209.79342791438103, -15.053097321651876, -0.06400000303983688, -0.01600000075995922, 1.0400000493973494, 0.0, 0.0, 0.0, 0.0, 0.0, 1.7622070873771129E9, 0.0, 2025-11-03 16:58:07.377
50.0, 236.68330859579146, -62.51429770933464, 227.3709577061236, 3.709980756044388, -0.06400000303983688, -0.01600000075995922, 1.0400000493973494, 0.0, 0.0, 0.0, 0.0, 0.0, 1.7622070873771129E9, 0.0, 2025-11-03 16:58:07.377
51.0, 206.49857605341822, -98.48091558320448, 194.84504779148847, -28.13900726661086, -0.06400000303983688, -0.01600000075995922, 1.0400000493973494, 0.0, 0.0, 0.0, 0.0, 0.0, 1.762207087377718E9, 0.0, 2025-11-03 16:58:07.377
51.0, 252.7461789054796, -57.536490868311375, 233.27999963611364, 5.837983830831945, -0.06400000303983688, -0.01600000075995922, 1.0400000493973494, 0.0, 0.0, 0.0, 0.0, 0.0, 1.762207087377718E9, 0.0, 2025-11-03 16:58:07.377
52.0, 219.18431670311838, -75.13272015983239, 220.7363751847297, -1.5744978813454509, -0.06400000303983688, -0.01600000075995922, 1.0400000493973494, 0.0, 0.0, 0.0, 0.0, 0.0, 1.762207087391357E9, 0.0, 2025-11-03 16:58:07.391
52.0, 198.13989965245128, -98.92596367793158, 193.82031520362943, -42.60494029521942, -0.06400000303983688, -0.01600000075995922, 1.0400000493973494, 0.0, 0.0, 0.0, 0.0, 0.0, 1.762207087391357E9, 0.0, 2025-11-03 16:58:07.391
53.0, 241.7396533358842, -72.82520188717172, 223.9265098469332, -15.644001514650881, -0.06400000303983688, -0.01600000075995922, 1.0400000493973494, 0.0, 0.0, 0.0, 0.0, 0.0, 1.7622070874070296E9, 0.0, 2025-11-03 16:58:07.407
53.0, 234.4057095227763, -60.92484022816643, 233.1865021372214, 2.976960364729166, -0.06400000303983688, -0.01600000075995922, 1.0400000493973494, 0.0, 0.0, 0.0, 0.0, 0.0, 1.7622070874070296E9, 0.0, 2025-11-03 16:58:07.407
54.0, 271.29982258565724, -35.837591325398535, 256.25420506391674, 24.369188111275434, -0.06400000303983688, -0.01600000075995922, 1.0400000493973494, 0.0, 0.0, 0.0, 0.0, 0.0, 1.7622070874076862E9, 0.0, 2025-11-03 16:58:07.407
54.0, 171.73246606532484, -128.710526925046, 161.46644068695605, -66.0690726172179, -0.06400000303983688, -0.01600000075995922, 1.0400000493973494, 0.0, 0.0, 0.0, 0.0, 0.0, 1.7622070874076862E9, 0.0, 2025-11-03 16:58:07.407
55.0, 252.80975720472634, -51.6349287382327, 236.82542479410768, 6.402708724141121, -0.06400000303983688, -0.01600000075995922, 1.0400000493973494, 0.0, 0.0, 0.0, 0.0, 0.0, 1.7622070874213328E9, 0.0, 2025-11-03 16:58:07.421
55.0, 200.33522092644125, -107.44919567694888, 184.13023441843688, -48.076413930393755, -0.06400000303983688, -0.01600000075995922, 1.0400000493973494, 0.0, 0.0, 0.0, 0.0, 0.0, 1.7622070874213328E9, 0.0, 2025-11-03 16:58:07.421
56.0, 238.17926857806742, -69.60140812536702, 216.764601431787, -15.255051919259131, -0.06400000303983688, -0.01600000075995922, 1.0400000493973494, 0.0, 0.0, 0.0, 0.0, 0.0, 1.762207087437013E9, 0.0, 2025-11-03 16:58:07.437
56.0, 257.73520544636995, -37.382170007098466, 257.0882027540356, 23.265917624346912, -0.06400000303983688, -0.01600000075995922, 1.0400000493973494, 0.0, 0.0, 0.0, 0.0, 0.0, 1.762207087437013E9, 0.0, 2025-11-03 16:58:07.437
57.0, 206.73792965058237, -94.22864933358505, 197.43679846078157, -31.665732924826443, -0.06400000303983688, -0.01600000075995922, 1.0400000493973494, 0.0, 0.0, 0.0, 0.0, 0.0, 1.7622070874376893E9, 0.0, 2025-11-03 16:58:07.437
57.0, 241.36192344035953, -61.8261561174877, 225.01108083408326, -1.5221392819657922, -0.06400000303983688, -0.01600000075995922, 1.0400000493973494, 0.0, 0.0, 0.0, 0.0, 0.0, 1.7622070874376893E9, 0.0, 2025-11-03 16:58:07.437
58.0, 243.97611350938678, -55.83109648851678, 238.80383187066764, 16.12270870897919, -0.06400000303983688, -0.01600000075995922, 1.0400000493973494, 0.0, 0.0, 0.0, 0.0, 0.0, 1.7622070874513361E9, 0.0, 2025-11-03 16:58:07.451
58.0, 194.8338280916214, -96.90641770185903, 200.2753825271502, -22.9742054278031, -0.06400000303983688, -0.01600000075995922, 1.0400000493973494, 0.0, 0.0, 0.0, 0.0, 0.0, 1.7622070874513361E9, 0.0, 2025-11-03 16:58:07.451
59.0, 264.91955326125026, -34.45008844183758, 259.99784491956234, 37.256883358582854, -0.06400000303983688, -0.01600000075995922, 1.0400000493973494, 0.0, 0.0, 0.0, 0.0, 0.0, 1.76220708746699E9, 0.0, 2025-11-03 16:58:07.466
59.0, 231.54468605667353, -82.22357047582045, 208.877152425237, -23.093882226385176, -0.06400000303983688, -0.01600000075995922, 1.0400000493973494, 0.0, 0.0, 0.0, 0.0, 0.0, 1.76220708746699E9, 0.0, 2025-11-03 16:58:07.466
60.0, 259.2386452285573, -33.24210075614974, 265.3122427565977, 39.598060730844736, -0.06400000303983688, -0.01600000075995922, 1.0400000493973494, 0.0, 0.0, 0.0, 0.0, 0.0, 1.762207087467696E9, 0.0, 2025-11-03 16:58:07.467
60.0, 165.8234241353348, -121.32048461260274, 169.14071539603174, -57.28404762130231, -0.06400000303983688, -0.01600000075995922, 1.0400000493973494, 0.0, 0.0, 0.0, 0.0, 0.0, 1.762207087467696E9, 0.0, 2025-11-03 16:58:07.467
61.0, 204.67724477499723, -88.51782210124657, 202.93819129560143, -31.213205030187964, -0.06400000303983688, -0.01600000075995922, 1.0400000493973494, 0.0, 0.0, 0.0, 0.0, 0.0, 1.762207087481372E9, 0.0, 2025-11-03 16:58:07.481
61.0, 314.49566707387567, 14.632358576636761, 301.42097682878375, 76.56697179283947, -0.06400000303983688, -0.01600000075995922, 1.0400000493973494, 0.0, 0.0, 0.0, 0.0, 0.0, 1.762207087481372E9, 0.0, 2025-11-03 16:58:07.481
62.0, 259.69491302315146, -51.69850703747943, 233.02194653917104, 6.107256627641618, -0.04800000227987766, -0.01600000075995922, 1.0400000493973494, 0.0, 0.0, 0.0, 0.0, 0.0, 1.762207087497013E9, 0.0, 2025-11-03 16:58:07.497
62.0, 143.8814310953021, -162.9455711194314, 130.01762195955962, -90.16898793168366, -0.04800000227987766, -0.01600000075995922, 1.0400000493973494, 0.0, 0.0, 0.0, 0.0, 0.0, 1.762207087497013E9, 0.0, 2025-11-03 16:58:07.497
63.0, 250.21052673552185, -60.03100413875654, 235.09759101457894, 11.313197365961969, -0.04800000227987766, -0.01600000075995922, 1.0400000493973494, 0.0, 0.0, 0.0, 0.0, 0.0, 1.7622070874976952E9, 0.0, 2025-11-03 16:58:07.497
63.0, 267.84415502659976, -42.01590605219826, 251.29509772267193, 27.74257787130773, -0.04800000227987766, -0.01600000075995922, 1.0400000493973494, 0.0, 0.0, 0.0, 0.0, 0.0, 1.7622070874976952E9, 0.0, 2025-11-03 16:58:07.497
64.0, 189.88968035019934, -117.0382991633378, 172.03165806178004, -53.41325116716325, -0.04800000227987766, -0.01600000075995922, 1.0400000493973494, 0.0, 0.0, 0.0, 0.0, 0.0, 1.7622070875113184E9, 0.0, 2025-11-03 16:58:07.511
64.0, 234.76100001856685, -59.41018074611202, 235.4865406099707, 15.026918021962047, -0.04800000227987766, -0.01600000075995922, 1.0400000493973494, 0.0, 0.0, 0.0, 0.0, 0.0, 1.7622070875113184E9, 0.0, 2025-11-03 16:58:07.511
65.0, 243.9723736094311, -56.02557128621265, 236.84038439393044, 4.917968441732228, -0.04800000227987766, -0.01600000075995922, 1.0400000493973494, 0.0, 0.0, 0.0, 0.0, 0.0, 1.7622070875269797E9, 0.0, 2025-11-03 16:58:07.526
65.0, 249.002539049834, -55.43092719325796, 229.6597764790058, 6.694420920684934, -0.04800000227987766, -0.01600000075995922, 1.0400000493973494, 0.0, 0.0, 0.0, 0.0, 0.0, 1.7622070875269797E9, 0.0, 2025-11-03 16:58:07.526
66.0, 226.44720241706818, -76.01159664941952, 209.04544792324305, -22.58151593245566, -0.04800000227987766, -0.01600000075995922, 1.0400000493973494, 0.0, 0.0, 0.0, 0.0, 0.0, 1.7622070875277195E9, 0.0, 2025-11-03 16:58:07.527
66.0, 214.5505806580186, -87.16397831728682, 205.4701035656035, -22.226225436665118, -0.04800000227987766, -0.01600000075995922, 1.0400000493973494, 0.0, 0.0, 0.0, 0.0, 0.0, 1.7622070875277195E9, 0.0, 2025-11-03 16:58:07.527
67.0, 242.53625202644616, -59.33538274699822, 229.6261173794046, 1.8811696777120233, -0.04800000227987766, -0.01600000075995922, 1.0400000493973494, 0.0, 0.0, 0.0, 0.0, 0.0, 1.7622070875417492E9, 0.0, 2025-11-03 16:58:07.541
67.0, 232.1842089490965, -60.737845230381936, 237.34527088794857, 11.773205060511827, -0.04800000227987766, -0.01600000075995922, 1.0400000493973494, 0.0, 0.0, 0.0, 0.0, 0.0, 1.7622070875417492E9, 0.0, 2025-11-03 16:58:07.541
68.0, 273.80929545592517, -33.436575553845614, 254.93028047960252, 27.450865674763918, -0.04800000227987766, -0.01600000075995922, 1.0400000493973494, 0.0, 0.0, 0.0, 0.0, 0.0, 1.7622070875570192E9, 0.0, 2025-11-03 16:58:07.557
68.0, 253.1538280006498, -53.01121192192659, 238.76269297115505, 11.002785669639707, -0.04800000227987766, -0.01600000075995922, 1.0400000493973494, 0.0, 0.0, 0.0, 0.0, 0.0, 1.7622070875570192E9, 0.0, 2025-11-03 16:58:07.557
69.0, 181.69181964732707, -112.69627531478181, 178.51290468499064, -51.01597529556602, -0.04800000227987766, -0.01600000075995922, 1.0400000493973494, 0.0, 0.0, 0.0, 0.0, 0.0, 1.76220708755774E9, 0.0, 2025-11-03 16:58:07.557
69.0, 277.85960710793734, -30.874744084198028, 256.62445515953004, 27.170373178087175, -0.04800000227987766, -0.01600000075995922, 1.0400000493973494, 0.0, 0.0, 0.0, 0.0, 0.0, 1.76220708755774E9, 0.0, 2025-11-03 16:58:07.557
70.0, 212.86762567795813, -87.96057700784877, 207.9459173362702, -14.570650227367878, -0.04800000227987766, -0.01600000075995922, 1.0400000493973494, 0.0, 0.0, 0.0, 0.0, 0.0, 1.762207087571338E9, 0.0, 2025-11-03 16:58:07.571
70.0, 198.82056144438684, -95.13370512286201, 200.61945332307369, -22.824609429575503, -0.04800000227987766, -0.01600000075995922, 1.0400000493973494, 0.0, 0.0, 0.0, 0.0, 0.0, 1.762207087571338E9, 0.0, 2025-11-03 16:58:07.571
71.0, 241.1898880423978, -68.71131193591282, 224.6258711386472, -0.5385455936193466, -0.04800000227987766, -0.01600000075995922, 1.0400000493973494, 0.0, 0.0, 0.0, 0.0, 0.0, 1.7622070875870464E9, 0.0, 2025-11-03 16:58:07.587
71.0, 274.7255709450692, -40.8153981664218, 254.2346590878442, 28.875767557881773, -0.04800000227987766, -0.01600000075995922, 1.0400000493973494, 0.0, 0.0, 0.0, 0.0, 0.0, 1.7622070875870464E9, 0.0, 2025-11-03 16:58:07.587
72.0, 219.52838749904186, -88.37196600297466, 203.5440550884232, -10.0790303805843, -0.06400000303983688, -0.01600000075995922, 1.0400000493973494, 0.0, 0.0, 0.0, 0.0, 0.0, 1.7622070875876944E9, 0.0, 2025-11-03 16:58:07.587
72.0, 189.43341255560517, -115.89762967685238, 178.43810668587685, -44.9835166670382, -0.06400000303983688, -0.01600000075995922, 1.0400000493973494, 0.0, 0.0, 0.0, 0.0, 0.0, 1.7622070875876944E9, 0.0, 2025-11-03 16:58:07.587
73.0, 254.57498998381197, -58.19097336055711, 233.2986991358921, 8.388595600612462, -0.06400000303983688, -0.01600000075995922, 1.0400000493973494, 0.0, 0.0, 0.0, 0.0, 0.0, 1.7622070876013384E9, 0.0, 2025-11-03 16:58:07.601
73.0, 222.82697925996035, -73.4235858800821, 221.35719857737422, 8.05200460460037, -0.06400000303983688, -0.01600000075995922, 1.0400000493973494, 0.0, 0.0, 0.0, 0.0, 0.0, 1.7622070876013384E9, 0.0, 2025-11-03 16:58:07.601
74.0, 202.82973419688642, -106.76105408510193, 185.09512860700488, -39.7214774293825, -0.06400000303983688, -0.01600000075995922, 1.0400000493973494, 0.0, 0.0, 0.0, 0.0, 0.0, 1.7622070876169765E9, 0.0, 2025-11-03 16:58:07.616
74.0, 342.4925581421703, 17.728995739948004, 310.8604843169451, 91.28347811847925, -0.06400000303983688, -0.01600000075995922, 1.0400000493973494, 0.0, 0.0, 0.0, 0.0, 0.0, 1.7622070876169765E9, 0.0, 2025-11-03 16:58:07.616
75.0, 204.01154258288443, -90.95623687235638, 207.27273534424603, -12.05369755718857, -0.06400000303983688, -0.01600000075995922, 1.0400000493973494, 0.0, 0.0, 0.0, 0.0, 0.0, 1.7622070876177022E9, 0.0, 2025-11-03 16:58:07.617
75.0, 164.42844145186245, -128.77410522429273, 169.39128869306296, -55.61231234110892, -0.06400000303983688, -0.01600000075995922, 1.0400000493973494, 0.0, 0.0, 0.0, 0.0, 0.0, 1.7622070876177022E9, 0.0, 2025-11-03 16:58:07.617
76.0, 228.63504389114678, -70.36808761628345, 222.04534016922116, -10.916767970658839, -0.06400000303983688, -0.01600000075995922, 1.0400000493973494, 0.0, 0.0, 0.0, 0.0, 0.0, 1.7622070876314046E9, 0.0, 2025-11-03 16:58:07.631
76.0, 267.9750515250489, -43.025679040234536, 249.76173874083906, 18.340469382703304, -0.06400000303983688, -0.01600000075995922, 1.0400000493973494, 0.0, 0.0, 0.0, 0.0, 0.0, 1.7622070876314046E9, 0.0, 2025-11-03 16:58:07.631
77.0, 220.75507468450814, -84.53108874848112, 203.70487078651786, -18.325509782880545, -0.06400000303983688, -0.01600000075995922, 1.0400000493973494, 0.0, 0.0, 0.0, 0.0, 0.0, 1.7622070876469924E9, 0.0, 2025-11-03 16:58:07.646
77.0, 250.8612693278119, -47.75291258422658, 245.01206579711288, 29.522770250216126, -0.06400000303983688, -0.01600000075995922, 1.0400000493973494, 0.0, 0.0, 0.0, 0.0, 0.0, 1.7622070876469924E9, 0.0, 2025-11-03 16:58:07.646
78.0, 252.75739860534668, -55.954513187054545, 231.0697187623009, 7.034751816652715, -0.06400000303983688, -0.01600000075995922, 1.0400000493973494, 0.0, 0.0, 0.0, 0.0, 0.0, 1.7622070876476884E9, 0.0, 2025-11-03 16:58:07.647
78.0, 218.2530816141516, -88.7272564987652, 196.3858865732327, -31.875167322345078, -0.06400000303983688, -0.01600000075995922, 1.0400000493973494, 0.0, 0.0, 0.0, 0.0, 0.0, 1.7622070876476884E9, 0.0, 2025-11-03 16:58:07.647
79.0, 213.66422436852008, -83.11740656523034, 215.81466684304178, -10.48293957579881, -0.06400000303983688, -0.01600000075995922, 1.0400000493973494, 0.0, 0.0, 0.0, 0.0, 0.0, 1.7622070876613681E9, 0.0, 2025-11-03 16:58:07.661
79.0, 221.72370877303183, -90.9861560720019, 198.95893774274737, -33.33372830506414, -0.06400000303983688, -0.01600000075995922, 1.0400000493973494, 0.0, 0.0, 0.0, 0.0, 0.0, 1.7622070876613681E9, 0.0, 2025-11-03 16:58:07.661
80.0, 262.6456940881908, -41.443701358977705, 254.43287378549576, 24.877814505249262, -0.06400000303983688, -0.01600000075995922, 1.0400000493973494, 0.0, 0.0, 0.0, 0.0, 0.0, 1.7622070876769843E9, 0.0, 2025-11-03 16:58:07.676
80.0, 190.0542359482497, -103.67937652161345, 189.2800766574219, -35.674905677326024, -0.06400000303983688, -0.01600000075995922, 1.0400000493973494, 0.0, 0.0, 0.0, 0.0, 0.0, 1.7622070876769843E9, 0.0, 2025-11-03 16:58:07.676
81.0, 226.89225051179528, -71.06370900804177, 227.19892230816185, 6.926294717937708, -0.06400000303983688, -0.01600000075995922, 1.0400000493973494, 0.0, 0.0, 0.0, 0.0, 0.0, 1.7622070876776812E9, 0.0, 2025-11-03 16:58:07.677
81.0, 258.50562483724207, -50.16888795560226, 252.50308540835977, 25.37896109931171, -0.06400000303983688, -0.01600000075995922, 1.0400000493973494, 0.0, 0.0, 0.0, 0.0, 0.0, 1.7622070876776812E9, 0.0, 2025-11-03 16:58:07.677
82.0, 253.56147709582, -63.79708339413628, 235.04523241519928, 8.231519802473485, -0.06400000303983688, -0.01600000075995922, 1.0400000493973494, 0.0, 0.0, 0.0, 0.0, 0.0, 1.7622070876913445E9, 0.0, 2025-11-03 16:58:07.691
82.0, 181.33652915153652, -116.45113487029448, 183.91332022100687, -43.88024618010968, -0.06400000303983688, -0.01600000075995922, 1.0400000493973494, 0.0, 0.0, 0.0, 0.0, 0.0, 1.7622070876913445E9, 0.0, 2025-11-03 16:58:07.691
83.0, 293.5896263215691, -13.746002287138253, 283.3535201428458, 60.50784138310701, -0.06400000303983688, -0.01600000075995922, 1.0400000493973494, 0.0, 0.0, 0.0, 0.0, 0.0, 1.7622070877069798E9, 0.0, 2025-11-03 16:58:07.706
83.0, 198.81682154443115, -111.79121952550486, 181.0448169549927, -45.312627863138914, -0.06400000303983688, -0.01600000075995922, 1.0400000493973494, 0.0, 0.0, 0.0, 0.0, 0.0, 1.7622070877069798E9, 0.0, 2025-11-03 16:58:07.706
84.0, 222.8868176592514, -76.55014224303886, 213.73902236763388, -13.841369736008346, -0.06400000303983688, -0.01600000075995922, 1.0400000493973494, 0.0, 0.0, 0.0, 0.0, 0.0, 1.7622070877076857E9, 0.0, 2025-11-03 16:58:07.707
84.0, 217.64721782132983, -84.15709875291213, 208.7238165270537, -24.14479411393404, -0.06400000303983688, -0.01600000075995922, 1.0400000493973494, 0.0, 0.0, 0.0, 0.0, 0.0, 1.7622070877076857E9, 0.0, 2025-11-03 16:58:07.707
85.0, 259.7884105220437, -41.78403225494549, 246.0106190852821, 16.646294702775776, -0.06400000303983688, -0.01600000075995922, 1.0400000493973494, 0.0, 0.0, 0.0, 0.0, 0.0, 1.7622070877213905E9, 0.0, 2025-11-03 16:58:07.721
85.0, 208.81731402594596, -97.27292789751664, 193.85771420318633, -35.192458583042026, -0.06400000303983688, -0.01600000075995922, 1.0400000493973494, 0.0, 0.0, 0.0, 0.0, 0.0, 1.7622070877213905E9, 0.0, 2025-11-03 16:58:07.721
86.0, 241.87428973428905, -54.50343200424686, 244.6717349011451, 30.62230083718896, -0.06400000303983688, -0.01600000075995922, 1.0400000493973494, 0.0, 0.0, 0.0, 0.0, 0.0, 1.7622070877370946E9, 0.0, 2025-11-03 16:58:07.737
86.0, 241.814451334998, -69.09652163134888, 219.7752208961174, -17.28207769524306, -0.06400000303983688, -0.01600000075995922, 1.0400000493973494, 0.0, 0.0, 0.0, 0.0, 0.0, 1.7622070877370946E9, 0.0, 2025-11-03 16:58:07.737
87.0, 190.7161982404068, -116.6680490677245, 173.09752954915166, -50.40263170283288, -0.06400000303983688, -0.01600000075995922, 1.0400000493973494, 0.0, 0.0, 0.0, 0.0, 0.0, 1.7622070877377243E9, 0.0, 2025-11-03 16:58:07.737
87.0, 231.65688305534422, -83.11740656523034, 200.96726401895285, -24.810496306046844, -0.06400000303983688, -0.01600000075995922, 1.0400000493973494, 0.0, 0.0, 0.0, 0.0, 0.0, 1.7622070877377243E9, 0.0, 2025-11-03 16:58:07.737
88.0, 322.8580833747983, 10.593266624491662, 294.6629776088521, 61.97762206569314, -0.06400000303983688, -0.01600000075995922, 1.0400000493973494, 0.0, 0.0, 0.0, 0.0, 0.0, 1.7622070877513437E9, 0.0, 2025-11-03 16:58:07.751
88.0, 193.644539905712, -109.13215065700933, 180.05748336669058, -41.31841471046209, -0.06400000303983688, -0.01600000075995922, 1.0400000493973494, 0.0, 0.0, 0.0, 0.0, 0.0, 1.7622070877513437E9, 0.0, 2025-11-03 16:58:07.751
89.0, 202.26874920353293, -105.74006139719859, 182.3051632400602, -43.19958438817412, -0.06400000303983688, -0.01600000075995922, 1.0400000493973494, 0.0, 0.0, 0.0, 0.0, 0.0, 1.7622070877670848E9, 0.0, 2025-11-03 16:58:07.767
89.0, 269.47475140728056, -45.19482101453468, 244.72409350052476, 21.74377834238112, -0.06400000303983688, -0.01600000075995922, 1.0400000493973494, 0.0, 0.0, 0.0, 0.0, 0.0, 1.7622070877670848E9, 0.0, 2025-11-03 16:58:07.767
90.0, 289.0306882755831, -22.115898387972265, 267.9339126255363, 37.89266635105014, -0.06400000303983688, -0.01600000075995922, 1.0400000493973494, 0.0, 0.0, 0.0, 0.0, 0.0, 1.762207087767722E9, 0.0, 2025-11-03 16:58:07.767
90.0, 174.25315863545984, -118.73247384326532, 171.83718326408416, -54.3968448555097, -0.06400000303983688, -0.01600000075995922, 1.0400000493973494, 0.0, 0.0, 0.0, 0.0, 0.0, 1.762207087767722E9, 0.0, 2025-11-03 16:58:07.767
91.0, 239.39473606366664, -79.86743350373581, 207.32883384358138, -22.832089229486883, -0.06400000303983688, -0.01600000075995922, 1.0400000493973494, 0.0, 0.0, 0.0, 0.0, 0.0, 1.762207087781346E9, 0.0, 2025-11-03 16:58:07.781
91.0, 212.49737558234483, -94.77093482716009, 202.20143100433052, -21.220192348584533, -0.06400000303983688, -0.01600000075995922, 1.0400000493973494, 0.0, 0.0, 0.0, 0.0, 0.0, 1.762207087781346E9, 0.0, 2025-11-03 16:58:07.781
92.0, 268.25180412176996, -47.1881876909174, 239.7088876599446, 13.762831836938858, -0.06400000303983688, -0.01600000075995922, 1.0400000493973494, 0.0, 0.0, 0.0, 0.0, 0.0, 1.7622070877969577E9, 0.0, 2025-11-03 16:58:07.796
92.0, 239.64156946074218, -59.982385439332575, 235.02653291542083, 1.0135128879919648, -0.06400000303983688, -0.01600000075995922, 1.0400000493973494, 0.0, 0.0, 0.0, 0.0, 0.0, 1.7622070877969577E9, 0.0, 2025-11-03 16:58:07.796
93.0, 179.81438986957073, -128.58711022650823, 163.58696396183223, -70.7028086623177, -0.06400000303983688, -0.01600000075995922, 1.0400000493973494, 0.0, 0.0, 0.0, 0.0, 0.0, 1.7622070877976663E9, 0.0, 2025-11-03 16:58:07.797
93.0, 252.09543631318957, -53.27300491882488, 242.94016122166067, 16.605155803263187, -0.06400000303983688, -0.01600000075995922, 1.0400000493973494, 0.0, 0.0, 0.0, 0.0, 0.0, 1.7622070877976663E9, 0.0, 2025-11-03 16:58:07.797
94.0, 279.2097109919414, -24.2887802622281, 267.9750515250489, 35.70108497701585, -0.06400000303983688, -0.01600000075995922, 1.0400000493973494, 0.0, 0.0, 0.0, 0.0, 0.0, 1.7622070878115723E9, 0.0, 2025-11-03 16:58:07.811
94.0, 204.28829517960548, -100.20126956282184, 192.95265841390938, -40.54799531958997, -0.06400000303983688, -0.01600000075995922, 1.0400000493973494, 0.0, 0.0, 0.0, 0.0, 0.0, 1.7622070878115723E9, 0.0, 2025-11-03 16:58:07.811
95.0, 284.37451283074915, -15.099846071098, 280.18208498042077, 49.86782600916922, -0.06400000303983688, -0.01600000075995922, 1.0400000493973494, 0.0, 0.0, 0.0, 0.0, 0.0, 1.7622070878270233E9, 0.0, 2025-11-03 16:58:07.827
95.0, 187.80281617492437, -99.94321646587923, 192.48143101949245, -30.491404338739812, -0.06400000303983688, -0.01600000075995922, 1.0400000493973494, 0.0, 0.0, 0.0, 0.0, 0.0, 1.7622070878270233E9, 0.0, 2025-11-03 16:58:07.827
96.0, 244.47726010344923, -60.61816843179986, 228.294712995179, -9.405848388560116, -0.06400000303983688, -0.01600000075995922, 1.0400000493973494, 0.0, 0.0, 0.0, 0.0, 0.0, 1.762207087827676E9, 0.0, 2025-11-03 16:58:07.827
96.0, 254.51889148447663, -47.39762208843604, 246.88201577495784, -4.072751051746309, -0.06400000303983688, -0.01600000075995922, 1.0400000493973494, 0.0, 0.0, 0.0, 0.0, 0.0, 1.762207087827676E9, 0.0, 2025-11-03 16:58:07.827
97.0, 231.91867605224252, -67.61926114885136, 226.60801811516285, -6.877676018513739, -0.06400000303983688, -0.01600000075995922, 1.0400000493973494, 0.0, 0.0, 0.0, 0.0, 0.0, 1.762207087841406E9, 0.0, 2025-11-03 16:58:07.841
97.0, 231.79151945374906, -70.17735271854326, 220.9233701825142, -15.569203515537083, -0.06400000303983688, -0.01600000075995922, 1.0400000493973494, 0.0, 0.0, 0.0, 0.0, 0.0, 1.762207087841406E9, 0.0, 2025-11-03 16:58:07.841
98.0, 265.69745245203376, -30.908403183799237, 270.6827390929684, 37.97120425011963, -0.06400000303983688, -0.01600000075995922, 1.0400000493973494, 0.0, 0.0, 0.0, 0.0, 0.0, 1.7622070878569713E9, 0.0, 2025-11-03 16:58:07.856
98.0, 239.5218926621601, -62.413320410531014, 232.6629161434248, -7.603216609917581, -0.06400000303983688, -0.01600000075995922, 1.0400000493973494, 0.0, 0.0, 0.0, 0.0, 0.0, 1.7622070878569713E9, 0.0, 2025-11-03 16:58:07.856
99.0, 236.6272100964561, -61.4933050214313, 229.68221587873995, -5.045125040225685, -0.06400000303983688, -0.01600000075995922, 1.0400000493973494, 0.0, 0.0, 0.0, 0.0, 0.0, 1.7622070878576794E9, 0.0, 2025-11-03 16:58:07.857
99.0, 251.50079222023487, -52.14355513220653, 240.86451674625278, 9.577883786521852, -0.06400000303983688, -0.01600000075995922, 1.0400000493973494, 0.0, 0.0, 0.0, 0.0, 0.0, 1.7622070878576794E9, 0.0, 2025-11-03 16:58:07.857
100.0, 210.0253017116338, -80.45459779677913, 216.08767953980714, -12.921354346908629, -0.06400000303983688, -0.01600000075995922, 1.0400000493973494, 0.0, 0.0, 0.0, 0.0, 0.0, 1.7622070878719597E9, 0.0, 2025-11-03 16:58:07.871
100.0, 192.97135791368783, -111.76878012577072, 186.6808461882174, -41.47549050860107, -0.06400000303983688, -0.01600000075995922, 1.0400000493973494, 0.0, 0.0, 0.0, 0.0, 0.0, 1.7622070878719597E9, 0.0, 2025-11-03 16:58:07.871
0.0, 273.1697725635022, -43.36974983615801, 251.32501692231745, 27.233951477333903, -0.06400000303983688, -0.01600000075995922, 1.0400000493973494, 0.0, 0.0, 0.0, 0.0, 0.0, 1.762207087872684E9, 0.0, 2025-11-03 16:58:07.872
1.0, 270.88469369057566, -28.193235815968364, 273.3792069610208, 50.23059630487114, -0.06400000303983688, -0.01600000075995922, 1.0400000493973494, 0.0, 0.0, 0.0, 0.0, 0.0, 1.7622070878864489E9, 0.0, 2025-11-03 16:58:07.886
1.0, 210.75084230303764, -90.3952518790029, 209.842046613805, -18.807956877164543, -0.06400000303983688, -0.01600000075995922, 1.0400000493973494, 0.0, 0.0, 0.0, 0.0, 0.0, 1.7622070878864489E9, 0.0, 2025-11-03 16:58:07.886
2.0, 198.9851170424372, -104.85744500765577, 189.62788735330105, -37.82534815184772, -0.06400000303983688, -0.01600000075995922, 1.0400000493973494, 0.0, 0.0, 0.0, 0.0, 0.0, 1.7622070879020088E9, 0.0, 2025-11-03 16:58:07.902
2.0, 318.0074331322685, 9.822847233619541, 304.6971291899681, 81.79161203093827, -0.06400000303983688, -0.01600000075995922, 1.0400000493973494, 0.0, 0.0, 0.0, 0.0, 0.0, 1.7622070879020088E9, 0.0, 2025-11-03 16:58:07.902
3.0, 205.82539406139404, -95.34687942033634, 198.54754874762148, -24.773097306489944, -0.06400000303983688, -0.01600000075995922, 1.0400000493973494, 0.0, 0.0, 0.0, 0.0, 0.0, 1.7622070879026687E9, 0.0, 2025-11-03 16:58:07.902
3.0, 221.15898387972265, -85.95973053155467, 204.5052093770355, -19.896267764270306, -0.06400000303983688, -0.01600000075995922, 1.0400000493973494, 0.0, 0.0, 0.0, 0.0, 0.0, 1.7622070879026687E9, 0.0, 2025-11-03 16:58:07.902
4.0, 242.55121162626892, -67.37990755168721, 224.33789884205908, 3.051758363842964, -0.06400000303983688, -0.01600000075995922, 1.0400000493973494, 0.0, 0.0, 0.0, 0.0, 0.0, 1.7622070879163477E9, 0.0, 2025-11-03 16:58:07.916
4.0, 271.4568983837962, -31.102877981495112, 265.7572908513248, 43.648372382856905, -0.06400000303983688, -0.01600000075995922, 1.0400000493973494, 0.0, 0.0, 0.0, 0.0, 0.0, 1.7622070879163477E9, 0.0, 2025-11-03 16:58:07.916
5.0, 179.24966497626156, -120.75201981933787, 172.28971115872264, -54.150011458434165, -0.06400000303983688, -0.01600000075995922, 1.0400000493973494, 0.0, 0.0, 0.0, 0.0, 0.0, 1.7622070879319701E9, 0.0, 2025-11-03 16:58:07.931
5.0, 235.63613660819829, -67.11437465483323, 225.94605582300574, 3.418268559500575, -0.06400000303983688, -0.01600000075995922, 1.0400000493973494, 0.0, 0.0, 0.0, 0.0, 0.0, 1.7622070879319701E9, 0.0, 2025-11-03 16:58:07.931
6.0, 287.34773329552263, -17.740215439815074, 281.6481257630512, 59.47936889529228, -0.06400000303983688, -0.01600000075995922, 1.0400000493973494, 0.0, 0.0, 0.0, 0.0, 0.0, 1.7622070879326737E9, 0.0, 2025-11-03 16:58:07.932
6.0, 186.06376269552857, -119.39443613542244, 175.7117196181789, -45.293928363360465, -0.06400000303983688, -0.01600000075995922, 1.0400000493973494, 0.0, 0.0, 0.0, 0.0, 0.0, 1.7622070879326737E9, 0.0, 2025-11-03 16:58:07.932
7.0, 229.82433207705617, -72.89252008637413, 226.54443981591612, 4.917968441732228, -0.06400000303983688, -0.01600000075995922, 1.0400000493973494, 0.0, 0.0, 0.0, 0.0, 0.0, 1.7622070879464989E9, 0.0, 2025-11-03 16:58:07.946
7.0, 259.1675871293992, -53.40390141727403, 245.18036129511893, 22.678753331303596, -0.06400000303983688, -0.01600000075995922, 1.0400000493973494, 0.0, 0.0, 0.0, 0.0, 0.0, 1.7622070879464989E9, 0.0, 2025-11-03 16:58:07.946
8.0, 253.83074989262968, -45.58751050988212, 248.75944555271417, 20.704086154699326, -0.06400000303983688, -0.01600000075995922, 1.0400000493973494, 0.0, 0.0, 0.0, 0.0, 0.0, 1.7622070879619613E9, 0.0, 2025-11-03 16:58:07.961
8.0, 220.27262759022415, -83.23708336381242, 207.75144253857434, -19.148287773132324, -0.06400000303983688, -0.01600000075995922, 1.0400000493973494, 0.0, 0.0, 0.0, 0.0, 0.0, 1.7622070879619613E9, 0.0, 2025-11-03 16:58:07.961
9.0, 230.43767566978931, -83.99254315486178, 207.16427824553102, -24.335529011674225, -0.06400000303983688, -0.01600000075995922, 1.0400000493973494, 0.0, 0.0, 0.0, 0.0, 0.0, 1.7622070879626768E9, 0.0, 2025-11-03 16:58:07.962
9.0, 225.78150022495538, -85.23418994015083, 214.4346437593922, -3.3995690597221255, -0.06400000303983688, -0.01600000075995922, 1.0400000493973494, 0.0, 0.0, 0.0, 0.0, 0.0, 1.7622070879626768E9, 0.0, 2025-11-03 16:58:07.962
10.0, 212.16452448628843, -85.77273553377017, 212.86762567795813, -9.331050389446318, -0.06400000303983688, -0.01600000075995922, 1.0400000493973494, 0.0, 0.0, 0.0, 0.0, 0.0, 1.7622070879763873E9, 0.0, 2025-11-03 16:58:07.976
10.0, 266.9353593373671, -44.1139899273403, 250.03101153764874, 27.80989607051015, -0.06400000303983688, -0.01600000075995922, 1.0400000493973494, 0.0, 0.0, 0.0, 0.0, 0.0, 1.7622070879763873E9, 0.0, 2025-11-03 16:58:07.976
11.0, 250.1955671356991, -69.81458242284134, 222.2547745667398, -20.266517859883606, -0.06400000303983688, -0.01600000075995922, 1.0400000493973494, 0.0, 0.0, 0.0, 0.0, 0.0, 1.7622070879919648E9, 0.0, 2025-11-03 16:58:07.991
11.0, 219.285294001922, -81.6887647821568, 211.27068839687854, -15.771158113144338, -0.06400000303983688, -0.01600000075995922, 1.0400000493973494, 0.0, 0.0, 0.0, 0.0, 0.0, 1.7622070879919648E9, 0.0, 2025-11-03 16:58:07.991
12.0, 213.6193455690518, -87.23129651648924, 203.52909548860043, -12.431427452713251, -0.06400000303983688, -0.01600000075995922, 1.0400000493973494, 0.0, 0.0, 0.0, 0.0, 0.0, 1.7622070879926612E9, 0.0, 2025-11-03 16:58:07.992
12.0, 285.7657556142658, -27.740707921329886, 263.36001497972757, 39.48960363212973, -0.06400000303983688, -0.01600000075995922, 1.0400000493973494, 0.0, 0.0, 0.0, 0.0, 0.0, 1.7622070879926612E9, 0.0, 2025-11-03 16:58:07.992
13.0, 241.72843363601714, -71.28436310542747, 220.7700342843309, -2.5506117697805166, -0.06400000303983688, -0.01600000075995922, 1.0400000493973494, 0.0, 0.0, 0.0, 0.0, 0.0, 1.7622070880063338E9, 0.0, 2025-11-03 16:58:08.006
13.0, 215.3957980480045, -91.7640552627854, 199.7667561331764, -21.900854140520096, -0.06400000303983688, -0.01600000075995922, 1.0400000493973494, 0.0, 0.0, 0.0, 0.0, 0.0, 1.7622070880063338E9, 0.0, 2025-11-03 16:58:08.006
14.0, 212.20192348584533, -92.11560585862026, 197.25354336295277, -22.87696802895516, -0.06400000303983688, -0.01600000075995922, 1.0400000493973494, 0.0, 0.0, 0.0, 0.0, 0.0, 1.7622070880220137E9, 0.0, 2025-11-03 16:58:08.022
14.0, 257.4584528496489, -56.777291177306324, 231.05475916247815, 5.998799528926611, -0.06400000303983688, -0.01600000075995922, 1.0400000493973494, 0.0, 0.0, 0.0, 0.0, 0.0, 1.7622070880220137E9, 0.0, 2025-11-03 16:58:08.022
15.0, 196.29986887425184, -108.45522876502946, 185.13626750651747, -41.52410920802504, -0.06400000303983688, -0.01600000075995922, 1.0400000493973494, 0.0, 0.0, 0.0, 0.0, 0.0, 1.76220708802272E9, 0.0, 2025-11-03 16:58:08.022
15.0, 221.15150407981128, -86.89470552047715, 203.5440550884232, -20.831242753192782, -0.06400000303983688, -0.01600000075995922, 1.0400000493973494, 0.0, 0.0, 0.0, 0.0, 0.0, 1.76220708802272E9, 0.0, 2025-11-03 16:58:08.022
16.0, 284.44557092990726, -41.20434776181355, 245.88720238674432, 19.043570574373007, -0.06400000303983688, -0.01600000075995922, 1.0400000493973494, 0.0, 0.0, 0.0, 0.0, 0.0, 1.7622070880366197E9, 0.0, 2025-11-03 16:58:08.036
16.0, 218.20446291472763, -82.61999987112358, 208.34234673157334, -14.780084624886513, -0.06400000303983688, -0.01600000075995922, 1.0400000493973494, 0.0, 0.0, 0.0, 0.0, 0.0, 1.7622070880366197E9, 0.0, 2025-11-03 16:58:08.036
17.0, 201.4646707130596, -101.30827994970605, 195.26765648648143, -31.149626730941236, -0.06400000303983688, -0.01600000075995922, 1.0400000493973494, 0.0, 0.0, 0.0, 0.0, 0.0, 1.762207088052035E9, 0.0, 2025-11-03 16:58:08.052
17.0, 231.46240825764835, -78.04610222531483, 216.7683413317427, -0.2655328968539834, -0.06400000303983688, -0.01600000075995922, 1.0400000493973494, 0.0, 0.0, 0.0, 0.0, 0.0, 1.762207088052035E9, 0.0, 2025-11-03 16:58:08.052
18.0, 225.39255062956363, -84.50864934874699, 213.13315857481211, -8.42599460016936, -0.06400000303983688, -0.01600000075995922, 1.0400000493973494, 0.0, 0.0, 0.0, 0.0, 0.0, 1.76220708805273E9, 0.0, 2025-11-03 16:58:08.052
18.0, 252.6040627071634, -55.32247009454295, 233.31365873571485, 20.47595225740224, -0.06400000303983688, -0.01600000075995922, 1.0400000493973494, 0.0, 0.0, 0.0, 0.0, 0.0, 1.76220708805273E9, 0.0, 2025-11-03 16:58:08.052
19.0, 202.6838780986145, -114.97387438779697, 171.11164267268032, -47.09282024204731, -0.06400000303983688, -0.01600000075995922, 1.0400000493973494, 0.0, 0.0, 0.0, 0.0, 0.0, 1.7622070880664036E9, 0.0, 2025-11-03 16:58:08.066
19.0, 250.56955713126808, -49.376029164996, 246.46688687987626, 25.042370103299618, -0.06400000303983688, -0.01600000075995922, 1.0400000493973494, 0.0, 0.0, 0.0, 0.0, 0.0, 1.7622070880664036E9, 0.0, 2025-11-03 16:58:08.066
20.0, 232.49836054537445, -77.55617533111945, 212.20566338580102, -16.55279720388353, -0.06400000303983688, -0.01600000075995922, 1.0560000501573086, 0.0, 0.0, 0.0, 0.0, 0.0, 1.7622070880820432E9, 0.0, 2025-11-03 16:58:08.082
20.0, 265.7161519518122, -60.25165823614225, 227.49811430461705, -3.3958291597664356, -0.06400000303983688, -0.01600000075995922, 1.0560000501573086, 0.0, 0.0, 0.0, 0.0, 0.0, 1.7622070880820432E9, 0.0, 2025-11-03 16:58:08.082
21.0, 210.96027670055628, -83.21090406412259, 216.00166184082627, -6.144655627198517, -0.06400000303983688, 0.0, 1.0560000501573086, 0.0, 0.0, 0.0, 0.0, 0.0, 1.7622070880827394E9, 0.0, 2025-11-03 16:58:08.082
21.0, 239.72384725976735, -55.66654089046642, 239.3386375643313, 17.75704498961568, -0.06400000303983688, 0.0, 1.0560000501573086, 0.0, 0.0, 0.0, 0.0, 0.0, 1.7622070880827394E9, 0.0, 2025-11-03 16:58:08.082
22.0, 207.83372033759952, -109.64825685089454, 174.54861073195934, -56.981115724891424, -0.06400000303983688, 0.0, 1.0560000501573086, 0.0, 0.0, 0.0, 0.0, 0.0, 1.7622070880963805E9, 0.0, 2025-11-03 16:58:08.096
22.0, 256.8226698571816, -53.875128811690956, 237.75665988307446, 21.949472839944065, -0.06400000303983688, 0.0, 1.0560000501573086, 0.0, 0.0, 0.0, 0.0, 0.0, 1.7622070880963805E9, 0.0, 2025-11-03 16:58:08.096
23.0, 255.05369717814028, -42.45347434701398, 252.14405501261353, 21.437106546014547, -0.06400000303983688, 0.0, 1.0560000501573086, 0.0, 0.0, 0.0, 0.0, 0.0, 1.7622070881119964E9, 0.0, 2025-11-03 16:58:08.111
23.0, 207.55322784092277, -103.09221222857013, 188.3114425688982, -29.500330850481987, -0.06400000303983688, 0.0, 1.0560000501573086, 0.0, 0.0, 0.0, 0.0, 0.0, 1.7622070881119964E9, 0.0, 2025-11-03 16:58:08.111
24.0, 196.4606845723465, -111.0357597344555, 176.70653300639242, -48.9852096196264, -0.06400000303983688, 0.0, 1.0560000501573086, 0.0, 0.0, 0.0, 0.0, 0.0, 1.762207088112707E9, 0.0, 2025-11-03 16:58:08.112
24.0, 298.30190026573837, -18.35729893250391, 271.1651861872524, 40.058068425394595, -0.06400000303983688, 0.0, 1.0560000501573086, 0.0, 0.0, 0.0, 0.0, 0.0, 1.762207088112707E9, 0.0, 2025-11-03 16:58:08.112
25.0, 217.25826822593808, -102.55366663495079, 185.93286619707942, -38.99967673793435, -0.06400000303983688, 0.0, 1.0560000501573086, 0.0, 0.0, 0.0, 0.0, 0.0, 1.7622070881263428E9, 0.0, 2025-11-03 16:58:08.126
25.0, 198.70836444571614, -117.12431686231866, 170.44220058061182, -64.2140822391957, -0.06400000303983688, 0.0, 1.0560000501573086, 0.0, 0.0, 0.0, 0.0, 0.0, 1.7622070881263428E9, 0.0, 2025-11-03 16:58:08.126
26.0, 226.82867221254855, -108.93767585931346, 166.16749493125826, -67.19478250388056, -0.06400000303983688, 0.0, 1.0560000501573086, 0.0, 0.0, 0.0, 0.0, 0.0, 1.7622070881419935E9, 0.0, 2025-11-03 16:58:08.141
26.0, 265.9779449487105, -56.86330887628719, 226.9221697114408, -1.1818083859980106, -0.06400000303983688, 0.0, 1.0560000501573086, 0.0, 0.0, 0.0, 0.0, 0.0, 1.7622070881419935E9, 0.0, 2025-11-03 16:58:08.141
27.0, 256.88624815642834, -61.38858782267198, 221.9929815698415, -16.638814902864397, -0.06400000303983688, 0.0, 1.0560000501573086, 0.0, 0.0, 0.0, 0.0, 0.0, 1.7622070881426957E9, 0.0, 2025-11-03 16:58:08.142
27.0, 286.5511346049607, -42.12810305086896, 245.61792958993465, 1.8736898778006434, -0.06400000303983688, 0.0, 1.0560000501573086, 0.0, 0.0, 0.0, 0.0, 0.0, 1.7622070881426957E9, 0.0, 2025-11-03 16:58:08.142
28.0, 214.34488616045564, -97.57959969388321, 192.2794764218852, -43.629672883078456, -0.06400000303983688, 0.0, 1.0560000501573086, 0.0, 0.0, 0.0, 0.0, 0.0, 1.762207088156387E9, 0.0, 2025-11-03 16:58:08.156
28.0, 225.87873762380332, -84.32539425091818, 207.83372033759952, -22.18134663719684, -0.06400000303983688, 0.0, 1.0560000501573086, 0.0, 0.0, 0.0, 0.0, 0.0, 1.762207088156387E9, 0.0, 2025-11-03 16:58:08.156
29.0, 270.33118849713355, -53.62081561470404, 232.5581989446655, -6.197014226578176, -0.06400000303983688, 0.0, 1.0560000501573086, 0.0, 0.0, 0.0, 0.0, 0.0, 1.7622070881720033E9, 0.0, 2025-11-03 16:58:08.172
29.0, 308.0069406507537, -10.926117720548064, 277.2799226148054, 44.99473636690527, -0.06400000303983688, 0.0, 1.0560000501573086, 0.0, 0.0, 0.0, 0.0, 0.0, 1.7622070881720033E9, 0.0, 2025-11-03 16:58:08.172
30.0, 198.21469765156507, -117.31131186010316, 168.45631370414048, -67.38925730157644, -0.06400000303983688, 0.0, 1.0400000493973494, 0.0, 0.0, 0.0, 0.0, 0.0, 1.7622070881727123E9, 0.0, 2025-11-03 16:58:08.172
30.0, 294.277767913416, -36.06572522269562, 246.47436667978764, 10.89058867096901, -0.06400000303983688, 0.0, 1.0400000493973494, 0.0, 0.0, 0.0, 0.0, 0.0, 1.7622070881727123E9, 0.0, 2025-11-03 16:58:08.172
31.0, 261.3853478031233, -48.80008457181975, 244.35010350495577, 4.936667941510677, -0.06400000303983688, 0.0, 1.0400000493973494, 0.0, 0.0, 0.0, 0.0, 0.0, 1.762207088186446E9, 0.0, 2025-11-03 16:58:08.186
31.0, 270.2339510982856, -54.45481330482289, 235.17986881360412, -1.9484878769144416, -0.06400000303983688, 0.0, 1.0400000493973494, 0.0, 0.0, 0.0, 0.0, 0.0, 1.762207088186446E9, 0.0, 2025-11-03 16:58:08.186
32.0, 212.34777958411723, -119.72728723147884, 159.22998051345348, -80.2619929490611, -0.06400000303983688, 0.0, 1.0400000493973494, 0.0, 0.0, 0.0, 0.0, 0.0, 1.7622070882020924E9, 0.0, 2025-11-03 16:58:08.202
32.0, 226.5481797158718, -86.6890110229142, 204.15365878120065, -36.09377447236329, -0.06400000303983688, 0.0, 1.0400000493973494, 0.0, 0.0, 0.0, 0.0, 0.0, 1.7622070882020924E9, 0.0, 2025-11-03 16:58:08.202
33.0, 252.0430777138099, -75.5366293550469, 212.13086538668722, -21.156614049337804, -0.06400000303983688, 0.0, 1.0400000493973494, 0.0, 0.0, 0.0, 0.0, 0.0, 1.7622070882027826E9, 0.0, 2025-11-03 16:58:08.202
33.0, 264.2650707690045, -61.43720652209595, 220.1379911918193, -22.1589072374627, -0.06400000303983688, 0.0, 1.0400000493973494, 0.0, 0.0, 0.0, 0.0, 0.0, 1.7622070882027826E9, 0.0, 2025-11-03 16:58:08.202
34.0, 235.02279301546514, -83.92148505570367, 198.97763724252582, -40.96312421467155, -0.06400000303983688, 0.0, 1.0400000493973494, 0.0, 0.0, 0.0, 0.0, 0.0, 1.7622070882163844E9, 0.0, 2025-11-03 16:58:08.216
34.0, 255.61468217149377, -72.45121189160272, 216.18491693865508, -15.056837221607566, -0.06400000303983688, 0.0, 1.0400000493973494, 0.0, 0.0, 0.0, 0.0, 0.0, 1.7622070882163844E9, 0.0, 2025-11-03 16:58:08.216
35.0, 210.2085568094626, -106.4394226889126, 182.0097111435607, -56.973635924980044, -0.06400000303983688, 0.0, 1.0400000493973494, 0.0, 0.0, 0.0, 0.0, 0.0, 1.7622070882321162E9, 0.0, 2025-11-03 16:58:08.232
35.0, 215.74734864383936, -101.04274705285206, 195.4583913842216, -34.451958391815424, -0.06400000303983688, 0.0, 1.0400000493973494, 0.0, 0.0, 0.0, 0.0, 0.0, 1.7622070882321162E9, 0.0, 2025-11-03 16:58:08.232
36.0, 297.56513997446746, -40.01131967594847, 247.57389726676047, 8.934620994143188, -0.06400000303983688, 0.0, 1.0400000493973494, 0.0, 0.0, 0.0, 0.0, 0.0, 1.7622070882327688E9, 0.0, 2025-11-03 16:58:08.232
36.0, 223.4739819522947, -89.83426688564941, 207.33257374353707, -19.813989965245128, -0.06400000303983688, 0.0, 1.0400000493973494, 0.0, 0.0, 0.0, 0.0, 0.0, 1.7622070882327688E9, 0.0, 2025-11-03 16:58:08.232
37.0, 235.42670221067965, -84.3179144510068, 199.40772573743016, -39.224070735275745, -0.06400000303983688, 0.0, 1.0400000493973494, 0.0, 0.0, 0.0, 0.0, 0.0, 1.7622070882464123E9, 0.0, 2025-11-03 16:58:08.246
37.0, 265.5328968539834, -52.270711730699986, 236.39907619915903, 6.956213917583227, -0.06400000303983688, 0.0, 1.0400000493973494, 0.0, 0.0, 0.0, 0.0, 0.0, 1.7622070882464123E9, 0.0, 2025-11-03 16:58:08.246
38.0, 273.11741396412253, -38.2947055962868, 254.7507652817294, 26.078322391025722, -0.06400000303983688, 0.0, 1.0400000493973494, 0.0, 0.0, 0.0, 0.0, 0.0, 1.7622070882620552E9, 0.0, 2025-11-03 16:58:08.262
38.0, 225.49352792836726, -88.99652929557487, 199.75553643330932, -30.035136544145644, -0.06400000303983688, 0.0, 1.0400000493973494, 0.0, 0.0, 0.0, 0.0, 0.0, 1.7622070882620552E9, 0.0, 2025-11-03 16:58:08.262
39.0, 296.30853358935565, -18.813566727098078, 269.33263520896435, 25.868887993507087, -0.06400000303983688, 0.0, 1.0400000493973494, 0.0, 0.0, 0.0, 0.0, 0.0, 1.762207088262786E9, 0.0, 2025-11-03 16:58:08.262
39.0, 274.70313154533505, -44.244886425789446, 250.43866063281894, 19.600815667770803, -0.06400000303983688, 0.0, 1.0400000493973494, 0.0, 0.0, 0.0, 0.0, 0.0, 1.762207088262786E9, 0.0, 2025-11-03 16:58:08.262
40.0, 203.30844139121473, -104.04962661722675, 184.91561340913177, -45.18547126464546, -0.06400000303983688, 0.0, 1.0400000493973494, 0.0, 0.0, 0.0, 0.0, 0.0, 1.7622070882765229E9, 0.0, 2025-11-03 16:58:08.276
40.0, 227.42331630550325, -97.62447849335149, 187.28670998103917, -59.09789909981191, -0.06400000303983688, 0.0, 1.0400000493973494, 0.0, 0.0, 0.0, 0.0, 0.0, 1.7622070882765229E9, 0.0, 2025-11-03 16:58:08.276
41.0, 252.80601730477065, -85.11825304152444, 194.47479769587517, -41.90183910354972, -0.06400000303983688, 0.0, 1.0400000493973494, 0.0, 0.0, 0.0, 0.0, 0.0, 1.7622070882920496E9, 0.0, 2025-11-03 16:58:08.292
41.0, 224.50245444010943, -84.53482864843681, 201.33003431465477, -24.6048018084839, -0.06400000303983688, 0.0, 1.0400000493973494, 0.0, 0.0, 0.0, 0.0, 0.0, 1.7622070882920496E9, 0.0, 2025-11-03 16:58:08.292
42.0, 277.3995994133875, -55.78995758900419, 223.01397425774485, -11.481492863968015, -0.06400000303983688, 0.0, 1.0400000493973494, 0.0, 0.0, 0.0, 0.0, 0.0, 1.7622070882927446E9, 0.0, 2025-11-03 16:58:08.292
42.0, 207.2502959445119, -113.22734110848978, 168.62834910210222, -79.32701796013862, -0.06400000303983688, 0.0, 1.0400000493973494, 0.0, 0.0, 0.0, 0.0, 0.0, 1.7622070882927446E9, 0.0, 2025-11-03 16:58:08.292
43.0, 230.40027667023242, -86.25892252800986, 202.5380220003426, -26.317675988189876, -0.06400000303983688, 0.0, 1.0400000493973494, 0.0, 0.0, 0.0, 0.0, 0.0, 1.762207088306376E9, 0.0, 2025-11-03 16:58:08.306
43.0, 257.4883720492944, -58.710819454398006, 234.01302002742887, 4.43552134744823, -0.06400000303983688, 0.0, 1.0400000493973494, 0.0, 0.0, 0.0, 0.0, 0.0, 1.762207088306376E9, 0.0, 2025-11-03 16:58:08.306
44.0, 264.5268637659028, -67.39112725155428, 218.74674840830266, -15.587903015315533, -0.06400000303983688, 0.0, 1.0400000493973494, 0.0, 0.0, 0.0, 0.0, 0.0, 1.7622070883221047E9, 0.0, 2025-11-03 16:58:08.322
44.0, 236.2606999007985, -93.27497484488413, 196.23255067504942, -36.815575163811445, -0.06400000303983688, 0.0, 1.0400000493973494, 0.0, 0.0, 0.0, 0.0, 0.0, 1.7622070883221047E9, 0.0, 2025-11-03 16:58:08.322
45.0, 167.23710631858557, -130.5617774031125, 161.72075388394296, -61.90656396653503, -0.06400000303983688, 0.0, 1.0400000493973494, 0.0, 0.0, 0.0, 0.0, 0.0, 1.762207088322739E9, 0.0, 2025-11-03 16:58:08.322
45.0, 252.74243900552392, -65.43141967477277, 231.09963796194643, 3.668841856531799, -0.06400000303983688, 0.0, 1.0400000493973494, 0.0, 0.0, 0.0, 0.0, 0.0, 1.762207088322739E9, 0.0, 2025-11-03 16:58:08.322
46.0, 238.2241473775357, -74.89336656266823, 219.95099619403481, -17.77948438934982, -0.06400000303983688, 0.0, 1.0400000493973494, 0.0, 0.0, 0.0, 0.0, 0.0, 1.7622070883364694E9, 0.0, 2025-11-03 16:58:08.336
46.0, 259.2723043281585, -54.720346201676875, 236.82168489415199, 6.83653711900115, -0.06400000303983688, 0.0, 1.0400000493973494, 0.0, 0.0, 0.0, 0.0, 0.0, 1.7622070883364694E9, 0.0, 2025-11-03 16:58:08.336
47.0, 225.42620972916484, -89.10498639428988, 194.018529901281, -41.13515961263329, -0.06400000303983688, 0.0, 1.0400000493973494, 0.0, 0.0, 0.0, 0.0, 0.0, 1.7622070883521225E9, 0.0, 2025-11-03 16:58:08.352
47.0, 290.49298915825784, -32.6998152625747, 256.7516117580235, 19.555936868302524, -0.06400000303983688, 0.0, 1.0400000493973494, 0.0, 0.0, 0.0, 0.0, 0.0, 1.7622070883521225E9, 0.0, 2025-11-03 16:58:08.352
48.0, 248.00024586170912, -62.50681790942326, 228.1413770969957, -4.087710651569068, -0.06400000303983688, 0.0, 1.0400000493973494, 0.0, 0.0, 0.0, 0.0, 0.0, 1.7622070883528228E9, 0.0, 2025-11-03 16:58:08.352
48.0, 213.47722937073559, -96.22575590992346, 189.45211205538362, -45.12937276531011, -0.06400000303983688, 0.0, 1.0400000493973494, 0.0, 0.0, 0.0, 0.0, 0.0, 1.7622070883528228E9, 0.0, 2025-11-03 16:58:08.352
49.0, 237.65194268431515, -78.49489021999761, 202.5791608998552, -38.09462094865739, -0.06400000303983688, 0.0, 1.0400000493973494, 0.0, 0.0, 0.0, 0.0, 0.0, 1.762207088366505E9, 0.0, 2025-11-03 16:58:08.366
49.0, 306.90741006378084, -9.007549043279141, 281.5695878639817, 47.283555139787495, -0.06400000303983688, 0.0, 1.0400000493973494, 0.0, 0.0, 0.0, 0.0, 0.0, 1.762207088366505E9, 0.0, 2025-11-03 16:58:08.366
50.0, 201.49458991270512, -122.3003384009935, 163.5944437617436, -71.4433088535443, -0.06400000303983688, 0.0, 1.0400000493973494, 0.0, 0.0, 0.0, 0.0, 0.0, 1.7622070883821375E9, 0.0, 2025-11-03 16:58:08.382
50.0, 222.16127706784755, -88.93295099632815, 193.81657530367374, -48.82439392153174, -0.06400000303983688, 0.0, 1.0400000493973494, 0.0, 0.0, 0.0, 0.0, 0.0, 1.7622070883821375E9, 0.0, 2025-11-03 16:58:08.382
51.0, 274.10848745238036, -31.360931078437716, 261.5760827008635, 32.59322811383754, -0.06400000303983688, 0.01600000075995922, 1.0400000493973494, 0.0, 0.0, 0.0, 0.0, 0.0, 1.7622070883827565E9, 0.0, 2025-11-03 16:58:08.382
51.0, 176.28392431139946, -130.94324719859287, 154.67478236742318, -81.93372822925448, -0.06400000303983688, 0.01600000075995922, 1.0400000493973494, 0.0, 0.0, 0.0, 0.0, 0.0, 1.7622070883827565E9, 0.0, 2025-11-03 16:58:08.382
52.0, 192.98631751351058, -110.22420144407079, 186.03010359592736, -26.92353978101164, -0.06400000303983688, 0.01600000075995922, 1.0400000493973494, 0.0, 0.0, 0.0, 0.0, 0.0, 1.7622070883964927E9, 0.0, 2025-11-03 16:58:08.396
52.0, 306.72789486590773, -14.950250072870404, 276.92837201897055, 38.98471713811159, -0.06400000303983688, 0.01600000075995922, 1.0400000493973494, 0.0, 0.0, 0.0, 0.0, 0.0, 1.7622070883964927E9, 0.0, 2025-11-03 16:58:08.396
53.0, 213.436090471223, -92.16796445799991, 204.75204277411103, -24.870334705337882, -0.06400000303983688, 0.01600000075995922, 1.0400000493973494, 0.0, 0.0, 0.0, 0.0, 0.0, 1.762207088412047E9, 0.0, 2025-11-03 16:58:08.412
53.0, 194.60569419432431, -119.02792593976483, 177.70134639460593, -52.571773677133024, -0.06400000303983688, 0.01600000075995922, 1.0400000493973494, 0.0, 0.0, 0.0, 0.0, 0.0, 1.762207088412047E9, 0.0, 2025-11-03 16:58:08.412
54.0, 277.00317001808435, -38.83699108986184, 251.46713312063366, 14.286417830735445, -0.06400000303983688, 0.01600000075995922, 1.0400000493973494, 0.0, 0.0, 0.0, 0.0, 0.0, 1.7622070884127364E9, 0.0, 2025-11-03 16:58:08.412
54.0, 248.50887225568295, -60.07588293822482, 233.83724472951144, 4.080230851657689, -0.06400000303983688, 0.01600000075995922, 1.0400000493973494, 0.0, 0.0, 0.0, 0.0, 0.0, 1.7622070884127364E9, 0.0, 2025-11-03 16:58:08.412
55.0, 155.1160905621946, -149.4220928796567, 137.57221987005323, -91.47795291617513, -0.06400000303983688, 0.01600000075995922, 1.0400000493973494, 0.0, 0.0, 0.0, 0.0, 0.0, 1.7622070884266891E9, 0.0, 2025-11-03 16:58:08.426
55.0, 238.6654555723071, -76.82315493980423, 209.84952641371638, -21.530604044906795, -0.06400000303983688, 0.01600000075995922, 1.0400000493973494, 0.0, 0.0, 0.0, 0.0, 0.0, 1.7622070884266891E9, 0.0, 2025-11-03 16:58:08.426
56.0, 223.253327854909, -78.13585982425138, 220.1828699912876, -8.295098101720214, -0.06400000303983688, 0.01600000075995922, 1.0400000493973494, 0.0, 0.0, 0.0, 0.0, 0.0, 1.7622070884421115E9, 0.0, 2025-11-03 16:58:08.442
56.0, 282.38114615436643, -37.823478201869875, 246.17891458328813, 14.989519022405148, -0.06400000303983688, 0.01600000075995922, 1.0400000493973494, 0.0, 0.0, 0.0, 0.0, 0.0, 1.7622070884421115E9, 0.0, 2025-11-03 16:58:08.442
57.0, 206.947364048101, -98.81376667926088, 196.0979142766446, -29.223578253760934, -0.06400000303983688, 0.01600000075995922, 1.0400000493973494, 0.0, 0.0, 0.0, 0.0, 0.0, 1.7622070884427297E9, 0.0, 2025-11-03 16:58:08.442
57.0, 262.1520272940397, -56.328503182623535, 233.05934553872794, -1.6418160805478692, -0.06400000303983688, 0.01600000075995922, 1.0400000493973494, 0.0, 0.0, 0.0, 0.0, 0.0, 1.7622070884427297E9, 0.0, 2025-11-03 16:58:08.442
58.0, 268.7641704156995, -41.32402456039563, 249.18579414766282, 23.034043827094138, -0.06400000303983688, 0.01600000075995922, 1.0400000493973494, 0.0, 0.0, 0.0, 0.0, 0.0, 1.7622070884563994E9, 0.0, 2025-11-03 16:58:08.456
58.0, 235.45662141032517, -68.54675633786246, 218.9935818053782, -9.155275091528893, -0.06400000303983688, 0.01600000075995922, 1.0400000493973494, 0.0, 0.0, 0.0, 0.0, 0.0, 1.7622070884563994E9, 0.0, 2025-11-03 16:58:08.456
59.0, 170.10186968464404, -129.03589822119102, 158.9270486170426, -78.41074247099459, -0.06400000303983688, 0.01600000075995922, 1.0400000493973494, 0.0, 0.0, 0.0, 0.0, 0.0, 1.7622070884885032E9, 0.0, 2025-11-03 16:58:08.488
59.0, 269.21669831033796, -45.086363915819675, 244.75401270017028, 11.593689862638712, -0.06400000303983688, 0.01600000075995922, 1.0400000493973494, 0.0, 0.0, 0.0, 0.0, 0.0, 1.7622070884885032E9, 0.0, 2025-11-03 16:58:08.488
60.0, 250.13946863636374, -67.02835695585236, 221.1402843799442, -7.120769515633583, -0.06400000303983688, 0.01600000075995922, 1.0240000486373901, 0.0, 0.0, 0.0, 0.0, 0.0, 1.7622070884891276E9, 0.0, 2025-11-03 16:58:08.489
60.0, 198.8018619446084, -114.85419758921489, 176.88978810422122, -59.11285869963467, -0.06400000303983688, 0.01600000075995922, 1.0240000486373901, 0.0, 0.0, 0.0, 0.0, 0.0, 1.7622070884891276E9, 0.0, 2025-11-03 16:58:08.489
61.0, 231.43248905800283, -91.93983056070283, 195.69774498138577, -37.215744459070265, -0.06400000303983688, 0.01600000075995922, 1.0240000486373901, 0.0, 0.0, 0.0, 0.0, 0.0, 1.762207088489844E9, 0.0, 2025-11-03 16:58:08.489
61.0, 268.0835086237639, -41.51475945813581, 255.0125582786277, 32.05842242017388, -0.06400000303983688, 0.01600000075995922, 1.0240000486373901, 0.0, 0.0, 0.0, 0.0, 0.0, 1.762207088489844E9, 0.0, 2025-11-03 16:58:08.489
62.0, 185.44667920283973, -116.27161967242137, 169.02103859744966, -58.63415150530636, -0.06400000303983688, 0.01600000075995922, 1.0240000486373901, 0.0, 0.0, 0.0, 0.0, 0.0, 1.7622070884906075E9, 0.0, 2025-11-03 16:58:08.490
62.0, 261.70323929935694, -55.3785685938783, 239.86222355812788, 13.220546343363822, -0.06400000303983688, 0.01600000075995922, 1.0240000486373901, 0.0, 0.0, 0.0, 0.0, 0.0, 1.7622070884906075E9, 0.0, 2025-11-03 16:58:08.490
63.0, 240.68126164842397, -72.75414378801361, 222.37819126527756, -11.518891863524914, -0.06400000303983688, 0.01600000075995922, 1.0240000486373901, 0.0, 0.0, 0.0, 0.0, 0.0, 1.7622070885014777E9, 0.0, 2025-11-03 16:58:08.501
63.0, 221.48435517586768, -79.11197371268645, 216.08393963985145, -7.5882570100948215, -0.06400000303983688, 0.01600000075995922, 1.0240000486373901, 0.0, 0.0, 0.0, 0.0, 0.0, 1.7622070885014777E9, 0.0, 2025-11-03 16:58:08.501
64.0, 229.0015540868044, -81.29607528680936, 208.26006893254817, -23.7521046185866, -0.06400000303983688, 0.01600000075995922, 1.0240000486373901, 0.0, 0.0, 0.0, 0.0, 0.0, 1.7622070885163937E9, 0.0, 2025-11-03 16:58:08.516
64.0, 267.3916271319613, -47.76039238413796, 236.2606999007985, 1.0920507870614529, -0.06400000303983688, 0.01600000075995922, 1.0240000486373901, 0.0, 0.0, 0.0, 0.0, 0.0, 1.7622070885163937E9, 0.0, 2025-11-03 16:58:08.516
65.0, 247.42804116848856, -54.63058860274032, 238.4822004744783, 16.713612901978195, -0.06400000303983688, 0.01600000075995922, 1.0240000486373901, 0.0, 0.0, 0.0, 0.0, 0.0, 1.7622070885320222E9, 0.0, 2025-11-03 16:58:08.532
65.0, 169.32397049386054, -137.95555961551145, 153.6612694794312, -75.19442850910127, -0.06400000303983688, 0.01600000075995922, 1.0240000486373901, 0.0, 0.0, 0.0, 0.0, 0.0, 1.7622070885320222E9, 0.0, 2025-11-03 16:58:08.532
66.0, 211.2071100976318, -92.15674475813285, 206.99598274752498, -17.076383197680116, -0.06400000303983688, 0.01600000075995922, 1.0240000486373901, 0.0, 0.0, 0.0, 0.0, 0.0, 1.762207088532723E9, 0.0, 2025-11-03 16:58:08.532
66.0, 275.0247629415244, -37.14281640993431, 252.27869141101837, 25.539776797406375, -0.06400000303983688, 0.01600000075995922, 1.0240000486373901, 0.0, 0.0, 0.0, 0.0, 0.0, 1.762207088532723E9, 0.0, 2025-11-03 16:58:08.532
