%OpenBCI Raw EXG Data
%Number of channels = 4
%Sample Rate = 200 Hz
%Board = OpenBCI_GUI$BoardGanglionBLE
Sample Index, EXG Channel 0, EXG Channel 1, EXG Channel 2, EXG Channel 3, Accel Channel 0, Accel Channel 1, Accel Channel 2, Other, Other, Other, Other, Other, Timestamp, Marker Channel, Timestamp (Formatted)
0.0, 335.2128428784199, 2.735736817587167, 311.96188485389575, 50.96174674620852, 0.0, 0.0, 0.0, 0.0, 0.0, 0.0, 0.0, 0.0, 1.7622064748018675E9, 0.0, 2025-11-03 16:47:54.801
1.0, 319.2135508679785, 1.3033551345579326, 311.6178140579723, 44.58895722171292, 0.0, -0.03200000151991844, 0.0, 0.0, 0.0, 0.0, 0.0, 0.0, 1.7622064748152733E9, 0.0, 2025-11-03 16:47:54.815
1.0, 218.61024205991998, -96.55486710602418, 204.57813742617145, -47.853889883030206, 0.0, -0.03200000151991844, 0.0, 0.0, 0.0, 0.0, 0.0, 0.0, 1.7622064748152733E9, 0.0, 2025-11-03 16:47:54.815
2.0, 259.34149247733876, -57.985278862994164, 243.14024586929008, -17.46346284309402, -0.03200000151991844, -0.03200000151991844, 0.0, 0.0, 0.0, 0.0, 0.0, 0.0, 1.7622064748319519E9, 0.0, 2025-11-03 16:47:54.831
2.0, 370.4613999607973, 39.53635238157585, 348.803639317397, 81.63266628282145, -0.03200000151991844, -0.03200000151991844, 0.0, 0.0, 0.0, 0.0, 0.0, 0.0, 1.7622064748319519E9, 0.0, 2025-11-03 16:47:54.831
3.0, 238.81692152051255, -78.67440541787073, 221.81159642199054, -32.995267359074205, -0.03200000151991844, -0.03200000151991844, 0.0, 0.0, 0.0, 0.0, 0.0, 0.0, 1.7622064748326955E9, 0.0, 2025-11-03 16:47:54.832
3.0, 243.4282181658782, -75.43939195619896, 225.68987267604098, -27.19094262784347, -0.03200000151991844, -0.03200000151991844, 0.0, 0.0, 0.0, 0.0, 0.0, 0.0, 1.7622064748326955E9, 0.0, 2025-11-03 16:47:54.832
4.0, 377.604608876165, 37.62526350421831, 346.7466943417676, 83.53627536026761, -0.03200000151991844, -0.03200000151991844, 0.0, 0.0, 0.0, 0.0, 0.0, 0.0, 1.762206474845075E9, 0.0, 2025-11-03 16:47:54.845
4.0, 255.72126932023093, -56.21630618395284, 248.38732550712302, -10.69424392329529, -0.03200000151991844, -0.03200000151991844, 0.0, 0.0, 0.0, 0.0, 0.0, 0.0, 1.762206474845075E9, 0.0, 2025-11-03 16:47:54.845
5.0, 227.70941865211353, -94.14637153455988, 212.1925737359561, -45.841823706869036, -0.03200000151991844, -0.03200000151991844, 0.0, 0.0, 0.0, 0.0, 0.0, 0.0, 1.7622064748608198E9, 0.0, 2025-11-03 16:47:54.860
5.0, 336.05058046849445, -1.40433243336156, 311.15406646346673, 51.29833774222061, -0.03200000151991844, -0.03200000151991844, 0.0, 0.0, 0.0, 0.0, 0.0, 0.0, 1.7622064748608198E9, 0.0, 2025-11-03 16:47:54.860
6.0, 329.19534384971485, 7.298414763528854, 313.85053433151916, 54.80636390065774, -0.03200000151991844, -0.03200000151991844, 0.0, 0.0, 0.0, 0.0, 0.0, 0.0, 1.7622064748615043E9, 0.0, 2025-11-03 16:47:54.861
6.0, 228.60325474152341, -89.58743348857388, 204.1181297316216, -51.73964593699202, -0.03200000151991844, -0.03200000151991844, 0.0, 0.0, 0.0, 0.0, 0.0, 0.0, 1.7622064748615043E9, 0.0, 2025-11-03 16:47:54.861
7.0, 292.7874177810736, -37.68510190350935, 259.8762981710024, 3.218183911871165, -0.03200000151991844, -0.03200000151991844, 0.0, 0.0, 0.0, 0.0, 0.0, 0.0, 1.7622064748751292E9, 0.0, 2025-11-03 16:47:54.875
7.0, 357.6410229126923, 29.498460900504142, 340.78529381239787, 78.55098871933296, -0.03200000151991844, -0.03200000151991844, 0.0, 0.0, 0.0, 0.0, 0.0, 0.0, 1.7622064748751292E9, 0.0, 2025-11-03 16:47:54.875
8.0, 209.18569417158142, -101.45413604797795, 199.49187348643318, -51.863062635529786, -0.03200000151991844, -0.03200000151991844, 0.0, 0.0, 0.0, 0.0, 0.0, 0.0, 1.7622064748908932E9, 0.0, 2025-11-03 16:47:54.890
8.0, 243.40203886618838, -74.51189676718786, 222.24542481685057, -35.1457098335959, -0.03200000151991844, -0.03200000151991844, 0.0, 0.0, 0.0, 0.0, 0.0, 0.0, 1.7622064748908932E9, 0.0, 2025-11-03 16:47:54.890
9.0, 362.3009382574819, 23.95218926621601, 332.27328151324764, 71.59851470170543, -0.03200000151991844, -0.03200000151991844, 0.0, 0.0, 0.0, 0.0, 0.0, 0.0, 1.7622064748915088E9, 0.0, 2025-11-03 16:47:54.891
9.0, 260.75891456054524, -63.43805299839005, 237.2760827387683, -19.640084617305547, -0.03200000151991844, -0.03200000151991844, 0.0, 0.0, 0.0, 0.0, 0.0, 0.0, 1.7622064748915088E9, 0.0, 2025-11-03 16:47:54.891
10.0, 238.99643671838567, -93.79856083868071, 205.64026901358739, -48.11194297997281, -0.03200000151991844, -0.03200000151991844, 0.5280000250786543, 0.0, 0.0, 0.0, 0.0, 0.0, 1.7622064749215362E9, 0.0, 2025-11-03 16:47:54.921
10.0, 334.2516885898076, -2.286948822904378, 306.70358551619574, 49.34610996535048, -0.03200000151991844, -0.03200000151991844, 0.5280000250786543, 0.0, 0.0, 0.0, 0.0, 0.0, 1.7622064749215362E9, 0.0, 2025-11-03 16:47:54.921
11.0, 308.9699648893438, -16.461169654969126, 290.4499803087674, 35.89368982473388, -0.03200000151991844, -0.04800000227987766, 0.5280000250786543, 0.0, 0.0, 0.0, 0.0, 0.0, 1.762206474922176E9, 0.0, 2025-11-03 16:47:54.922
11.0, 197.34517091186717, -120.2994919246994, 175.60887236939743, -79.23539041122422, -0.03200000151991844, -0.04800000227987766, 0.5280000250786543, 0.0, 0.0, 0.0, 0.0, 0.0, 1.762206474922176E9, 0.0, 2025-11-03 16:47:54.922
12.0, 273.42595571046695, -54.39497490553185, 249.59531319281086, -5.297568287234753, -0.03200000151991844, -0.04800000227987766, 0.5280000250786543, 0.0, 0.0, 0.0, 0.0, 0.0, 1.762206474922932E9, 0.0, 2025-11-03 16:47:54.922
12.0, 363.76323914015666, 28.054859517607838, 335.42227727593854, 79.4635243085213, -0.03200000151991844, -0.04800000227987766, 0.5280000250786543, 0.0, 0.0, 0.0, 0.0, 0.0, 1.762206474922932E9, 0.0, 2025-11-03 16:47:54.922
13.0, 210.36002275766805, -102.8827778310515, 194.72724094288424, -59.114728649612516, -0.03200000151991844, -0.04800000227987766, 0.5280000250786543, 0.0, 0.0, 0.0, 0.0, 0.0, 1.762206474935305E9, 0.0, 2025-11-03 16:47:54.935
13.0, 248.60049980459735, -83.55123496009037, 215.1919735004194, -35.30278563173488, -0.03200000151991844, -0.04800000227987766, 0.5280000250786543, 0.0, 0.0, 0.0, 0.0, 0.0, 1.762206474935305E9, 0.0, 2025-11-03 16:47:54.935
14.0, 377.80282357381657, 36.08068482251838, 345.4414692572318, 92.9122045491822, -0.03200000151991844, -0.04800000227987766, 0.5280000250786543, 0.0, 0.0, 0.0, 0.0, 0.0, 1.7622064749508429E9, 0.0, 2025-11-03 16:47:54.950
14.0, 267.23642128380015, -55.101815997157246, 243.3982989662327, 0.080407849047333, -0.03200000151991844, -0.04800000227987766, 0.5280000250786543, 0.0, 0.0, 0.0, 0.0, 0.0, 1.7622064749508429E9, 0.0, 2025-11-03 16:47:54.950
15.0, 221.61712162429467, -101.2147824508138, 197.2554133129306, -55.22523269569501, -0.03200000151991844, -0.04800000227987766, 0.5280000250786543, 0.0, 0.0, 0.0, 0.0, 0.0, 1.7622064749515276E9, 0.0, 2025-11-03 16:47:54.951
15.0, 328.78769475454465, -15.155944570433348, 292.39098838577047, 35.07465173443779, -0.03200000151991844, -0.04800000227987766, 0.5280000250786543, 0.0, 0.0, 0.0, 0.0, 0.0, 1.7622064749515276E9, 0.0, 2025-11-03 16:47:54.951
16.0, 322.10823343368247, -11.416044614743441, 299.0068714073859, 40.9275951650925, -0.03200000151991844, -0.04800000227987766, 0.5280000250786543, 0.0, 0.0, 0.0, 0.0, 0.0, 1.7622064749652812E9, 0.0, 2025-11-03 16:47:54.965
16.0, 214.7918042051606, -104.39743731310591, 196.06612512702122, -50.311004153918475, -0.03200000151991844, -0.04800000227987766, 0.5280000250786543, 0.0, 0.0, 0.0, 0.0, 0.0, 1.7622064749652812E9, 0.0, 2025-11-03 16:47:54.965
17.0, 267.94700227538124, -63.4193534986116, 241.5358287882991, -17.837452838663012, -0.03200000151991844, -0.04800000227987766, 0.5280000250786543, 0.0, 0.0, 0.0, 0.0, 0.0, 1.7622064749808862E9, 0.0, 2025-11-03 16:47:54.980
17.0, 356.0328659317456, 15.960023060906678, 327.4712499701418, 65.55857627326623, -0.03200000151991844, -0.04800000227987766, 0.5280000250786543, 0.0, 0.0, 0.0, 0.0, 0.0, 1.7622064749808862E9, 0.0, 2025-11-03 16:47:54.980
18.0, 228.4237395436503, -90.57102717692032, 209.72049986524507, -41.38012305973098, -0.03200000151991844, -0.04800000227987766, 0.5280000250786543, 0.0, 0.0, 0.0, 0.0, 0.0, 1.7622064749814978E9, 0.0, 2025-11-03 16:47:54.981
18.0, 249.33726009586826, -78.0535820252262, 221.7891570222564, -33.006487058941275, -0.03200000151991844, -0.04800000227987766, 0.5280000250786543, 0.0, 0.0, 0.0, 0.0, 0.0, 1.7622064749814978E9, 0.0, 2025-11-03 16:47:54.981
19.0, 368.8943818793632, 24.625371258240193, 331.7422157195397, 73.54700257861987, -0.03200000151991844, -0.04800000227987766, 0.5280000250786543, 0.0, 0.0, 0.0, 0.0, 0.0, 1.7622064749951935E9, 0.0, 2025-11-03 16:47:54.995
19.0, 256.0653401161544, -70.98891100892797, 235.3575140614994, -18.25258173374459, -0.03200000151991844, -0.04800000227987766, 0.5280000250786543, 0.0, 0.0, 0.0, 0.0, 0.0, 1.7622064749951935E9, 0.0, 2025-11-03 16:47:54.995
20.0, 237.5752747352235, -91.18437076965347, 212.94429362704977, -35.037252734880894, -0.03200000151991844, -0.04800000227987766, 0.7840000372380018, 0.0, 0.0, 0.0, 0.0, 0.0, 1.762206475010802E9, 0.0, 2025-11-03 16:47:55.010
20.0, 315.11088061658666, -25.392050749156624, 291.8262634924613, 47.97730658156797, -0.03200000151991844, -0.04800000227987766, 0.7840000372380018, 0.0, 0.0, 0.0, 0.0, 0.0, 1.762206475010802E9, 0.0, 2025-11-03 16:47:55.010
21.0, 330.0704804393463, -10.765302022453398, 304.03329694783315, 62.09542891429737, -0.03200000151991844, -0.04800000227987766, 0.7840000372380018, 0.0, 0.0, 0.0, 0.0, 0.0, 1.7622064750115063E9, 0.0, 2025-11-03 16:47:55.011
21.0, 219.39188115065917, -103.6980760213919, 201.8966291579418, -47.2255866904743, -0.03200000151991844, -0.04800000227987766, 0.7840000372380018, 0.0, 0.0, 0.0, 0.0, 0.0, 1.7622064750115063E9, 0.0, 2025-11-03 16:47:55.011
22.0, 249.86458598962054, -87.92317800829187, 217.77624436980113, -32.93542895978317, -0.04800000227987766, -0.04800000227987766, 0.7840000372380018, 0.0, 0.0, 0.0, 0.0, 0.0, 1.7622064750251632E9, 0.0, 2025-11-03 16:47:55.025
22.0, 362.10272355983034, 14.501462078187615, 323.73882981436327, 69.6425470248796, -0.04800000227987766, -0.04800000227987766, 0.7840000372380018, 0.0, 0.0, 0.0, 0.0, 0.0, 1.7622064750251632E9, 0.0, 2025-11-03 16:47:55.025
23.0, 234.97604426601902, -87.84090020926669, 212.11029593693092, -39.53635238157585, -0.04800000227987766, -0.04800000227987766, 0.7840000372380018, 0.0, 0.0, 0.0, 0.0, 0.0, 1.7622064750571916E9, 0.0, 2025-11-03 16:47:55.057
23.0, 242.38104617828503, -87.23877631640062, 210.95092695066705, -36.35743741923943, -0.04800000227987766, -0.04800000227987766, 0.7840000372380018, 0.0, 0.0, 0.0, 0.0, 0.0, 1.7622064750571916E9, 0.0, 2025-11-03 16:47:55.057
24.0, 384.6431005927734, 42.05704495171085, 345.0076408623718, 89.875405785162, -0.04800000227987766, -0.04800000227987766, 0.7840000372380018, 0.0, 0.0, 0.0, 0.0, 0.0, 1.762206475057896E9, 0.0, 2025-11-03 16:47:55.057
24.0, 258.15220429142937, -63.572689396794885, 235.3911731611006, -18.36477873241529, -0.04800000227987766, -0.04800000227987766, 0.7840000372380018, 0.0, 0.0, 0.0, 0.0, 0.0, 1.762206475057896E9, 0.0, 2025-11-03 16:47:55.057
25.0, 239.5798611114733, -86.34868012694642, 211.0780835491605, -35.874990324955434, -0.04800000227987766, -0.04800000227987766, 0.7840000372380018, 0.0, 0.0, 0.0, 0.0, 0.0, 1.7622064750586343E9, 0.0, 2025-11-03 16:47:55.058
25.0, 331.63375862082466, -8.887872244697064, 293.65133467083797, 40.9275951650925, -0.04800000227987766, -0.04800000227987766, 0.7840000372380018, 0.0, 0.0, 0.0, 0.0, 0.0, 1.7622064750586343E9, 0.0, 2025-11-03 16:47:55.058
26.0, 314.7593300207518, -19.322193121071905, 286.4108883566223, 35.818891825620085, -0.04800000227987766, -0.04800000227987766, 0.7840000372380018, 0.0, 0.0, 0.0, 0.0, 0.0, 1.7622064750593913E9, 0.0, 2025-11-03 16:47:55.059
26.0, 210.68539405381307, -113.28343960782513, 182.86053838348016, -64.33562898775563, -0.04800000227987766, -0.04800000227987766, 0.7840000372380018, 0.0, 0.0, 0.0, 0.0, 0.0, 1.7622064750593913E9, 0.0, 2025-11-03 16:47:55.059
27.0, 278.9348283451982, -61.923393516335636, 231.7971293036826, -18.75372832780704, -0.04800000227987766, -0.04800000227987766, 0.7840000372380018, 0.0, 0.0, 0.0, 0.0, 0.0, 1.7622064750701928E9, 0.0, 2025-11-03 16:47:55.070
27.0, 378.58072276460007, 30.687749086413532, 335.5045550749637, 83.03886866616085, -0.04800000227987766, -0.04800000227987766, 0.7840000372380018, 0.0, 0.0, 0.0, 0.0, 0.0, 1.7622064750701928E9, 0.0, 2025-11-03 16:47:55.070
28.0, 235.42109236074612, -92.04080785950646, 205.21766031859443, -39.54009228153154, -0.04800000227987766, -0.04800000227987766, 0.7840000372380018, 0.0, 0.0, 0.0, 0.0, 0.0, 1.7622064750851872E9, 0.0, 2025-11-03 16:47:55.085
28.0, 236.30744865024462, -94.45678323088214, 203.09713704371825, -46.56736429827288, -0.04800000227987766, -0.04800000227987766, 0.7840000372380018, 0.0, 0.0, 0.0, 0.0, 0.0, 1.7622064750851872E9, 0.0, 2025-11-03 16:47:55.085
29.0, 380.89198093721643, 34.73058093851432, 340.3963442170061, 86.57307412428781, -0.04800000227987766, -0.04800000227987766, 0.7840000372380018, 0.0, 0.0, 0.0, 0.0, 0.0, 1.7622064751009417E9, 0.0, 2025-11-03 16:47:55.100
29.0, 254.285147737246, -67.07323575532064, 239.89401270775124, -12.055567507166415, -0.04800000227987766, -0.04800000227987766, 0.7840000372380018, 0.0, 0.0, 0.0, 0.0, 0.0, 1.7622064751009417E9, 0.0, 2025-11-03 16:47:55.100
30.0, 221.1271947300993, -101.85430534323677, 203.5234856386669, -43.36974983615801, -0.04800000227987766, -0.04800000227987766, 0.9120000433176756, 0.0, 0.0, 0.0, 0.0, 0.0, 1.7622064751015372E9, 0.0, 2025-11-03 16:47:55.101
30.0, 327.5011691697873, -11.644178512040526, 302.81034966232255, 53.29170441860333, -0.04800000227987766, -0.04800000227987766, 0.9120000433176756, 0.0, 0.0, 0.0, 0.0, 0.0, 1.7622064751015372E9, 0.0, 2025-11-03 16:47:55.101
31.0, 312.37327384902164, -16.68930355226621, 297.1892800289206, 53.3777221175842, -0.04800000227987766, -0.04800000227987766, 0.9120000433176756, 0.0, 0.0, 0.0, 0.0, 0.0, 1.762206475115152E9, 0.0, 2025-11-03 16:47:55.115
31.0, 222.10330861853436, -97.92367048980668, 209.72423976520076, -31.312312379013747, -0.04800000227987766, -0.04800000227987766, 0.9120000433176756, 0.0, 0.0, 0.0, 0.0, 0.0, 1.762206475115152E9, 0.0, 2025-11-03 16:47:55.115
32.0, 270.20216194866225, -55.43466709321365, 258.0661865924485, 24.39349746098742, -0.04800000227987766, -0.04800000227987766, 0.9120000433176756, 0.0, 0.0, 0.0, 0.0, 0.0, 1.762206475130881E9, 0.0, 2025-11-03 16:47:55.130
32.0, 364.0063326372765, 34.46504804166034, 359.60821028938517, 117.79001905443147, -0.04800000227987766, -0.04800000227987766, 0.9120000433176756, 0.0, 0.0, 0.0, 0.0, 0.0, 1.762206475130881E9, 0.0, 2025-11-03 16:47:55.130
33.0, 237.54535553557798, -71.51997680263594, 246.34908003127202, 6.393358974251896, -0.04800000227987766, -0.04800000227987766, 0.9120000433176756, 0.0, 0.0, 0.0, 0.0, 0.0, 1.762206475131576E9, 0.0, 2025-11-03 16:47:55.131
33.0, 253.08089995151386, -62.806009905878454, 254.1804305384867, 12.433297402691096, -0.04800000227987766, -0.04800000227987766, 0.9120000433176756, 0.0, 0.0, 0.0, 0.0, 0.0, 1.762206475131576E9, 0.0, 2025-11-03 16:47:55.131
34.0, 394.99514367012307, 66.28037696471438, 388.63731374545023, 142.33498246362433, -0.04800000227987766, -0.04800000227987766, 0.9120000433176756, 0.0, 0.0, 0.0, 0.0, 0.0, 1.7622064751451216E9, 0.0, 2025-11-03 16:47:55.145
34.0, 267.68520927848294, -40.617183468770236, 277.83903765818104, 40.34791067196056, -0.04800000227987766, -0.04800000227987766, 0.9120000433176756, 0.0, 0.0, 0.0, 0.0, 0.0, 1.7622064751451216E9, 0.0, 2025-11-03 16:47:55.145
35.0, 230.17775262286887, -74.60539426608011, 239.3891262137331, 0.41325894510373473, -0.04800000227987766, -0.04800000227987766, 0.9120000433176756, 0.0, 0.0, 0.0, 0.0, 0.0, 1.7622064751609087E9, 0.0, 2025-11-03 16:47:55.160
35.0, 335.23902217810974, 9.07486724248156, 330.9156978293322, 89.78564818622544, -0.04800000227987766, -0.04800000227987766, 0.9120000433176756, 0.0, 0.0, 0.0, 0.0, 0.0, 1.7622064751609087E9, 0.0, 2025-11-03 16:47:55.160
36.0, 319.52770246425644, 2.0812543253414333, 327.14961857395247, 88.5066024013795, -0.04800000227987766, -0.04800000227987766, 0.9120000433176756, 0.0, 0.0, 0.0, 0.0, 0.0, 1.7622064751615272E9, 0.0, 2025-11-03 16:47:55.161
36.0, 214.64968800684437, -87.9867563075386, 224.60156178893521, -13.663724488113075, -0.04800000227987766, -0.04800000227987766, 0.9120000433176756, 0.0, 0.0, 0.0, 0.0, 0.0, 1.7622064751615272E9, 0.0, 2025-11-03 16:47:55.161
37.0, 262.50170793989673, -52.56616382719949, 261.16282375575975, 16.610765653196722, -0.04800000227987766, -0.04800000227987766, 0.9120000433176756, 0.0, 0.0, 0.0, 0.0, 0.0, 1.7622064751753259E9, 0.0, 2025-11-03 16:47:55.175
37.0, 354.6378832482733, 31.417029577773064, 355.4905804381706, 107.18366278009489, -0.04800000227987766, -0.04800000227987766, 0.9120000433176756, 0.0, 0.0, 0.0, 0.0, 0.0, 1.7622064751753259E9, 0.0, 2025-11-03 16:47:55.175
38.0, 219.02163105504587, -87.41829151427373, 220.93271993240342, -17.590619441587478, -0.04800000227987766, -0.04800000227987766, 0.9120000433176756, 0.0, 0.0, 0.0, 0.0, 0.0, 1.7622064751908283E9, 0.0, 2025-11-03 16:47:55.190
38.0, 227.679499452468, -88.41310490248725, 225.21116548171267, -19.681223516818136, -0.04800000227987766, -0.04800000227987766, 0.9120000433176756, 0.0, 0.0, 0.0, 0.0, 0.0, 1.7622064751908283E9, 0.0, 2025-11-03 16:47:55.190
39.0, 366.02961851330474, 31.271173479501158, 356.197421529796, 108.85539806028828, -0.04800000227987766, -0.04800000227987766, 0.9120000433176756, 0.0, 0.0, 0.0, 0.0, 0.0, 1.7622064751915169E9, 0.0, 2025-11-03 16:47:55.191
39.0, 246.18452443322167, -63.42309339856729, 254.61425893334672, 6.801008069422096, -0.04800000227987766, -0.04800000227987766, 0.9120000433176756, 0.0, 0.0, 0.0, 0.0, 0.0, 1.7622064751915169E9, 0.0, 2025-11-03 16:47:55.191
40.0, 208.76308547658846, -106.23746809130535, 210.25904545886442, -33.53007305273786, -0.04800000227987766, -0.04800000227987766, 0.9760000463575125, 0.0, 0.0, 0.0, 0.0, 0.0, 1.762206475205134E9, 0.0, 2025-11-03 16:47:55.205
40.0, 318.6862249742262, -14.598699477035552, 300.3382757916115, 58.785617453511804, -0.04800000227987766, -0.04800000227987766, 0.9760000463575125, 0.0, 0.0, 0.0, 0.0, 0.0, 1.762206475205134E9, 0.0, 2025-11-03 16:47:55.205
41.0, 312.0217232531868, -15.10732587100938, 301.4976447778754, 55.65532119059935, -0.04800000227987766, -0.04800000227987766, 0.9760000463575125, 0.0, 0.0, 0.0, 0.0, 0.0, 1.7622064752208936E9, 0.0, 2025-11-03 16:47:55.220
41.0, 219.80327014578506, -96.56608680589125, 209.31659067003056, -39.21472098538652, -0.04800000227987766, -0.04800000227987766, 0.9760000463575125, 0.0, 0.0, 0.0, 0.0, 0.0, 1.7622064752208936E9, 0.0, 2025-11-03 16:47:55.220
42.0, 260.7701342604123, -63.572689396794885, 246.85396652529016, -5.7762754815630615, -0.04800000227987766, -0.04800000227987766, 0.9760000463575125, 0.0, 0.0, 0.0, 0.0, 0.0, 1.7622064752215972E9, 0.0, 2025-11-03 16:47:55.221
42.0, 359.3464172924869, 30.474574788939208, 344.56633266760036, 97.98724878905341, -0.04800000227987766, -0.04800000227987766, 0.9760000463575125, 0.0, 0.0, 0.0, 0.0, 0.0, 1.7622064752215972E9, 0.0, 2025-11-03 16:47:55.221
43.0, 200.73726017167792, -105.37729110149667, 197.90615590522066, -43.5941438334994, -0.04800000227987766, -0.04800000227987766, 0.9760000463575125, 0.0, 0.0, 0.0, 0.0, 0.0, 1.7622064752350807E9, 0.0, 2025-11-03 16:47:55.235
43.0, 208.76308547658846, -106.83211218426004, 197.86875690566376, -40.998653264250606, -0.04800000227987766, -0.04800000227987766, 0.9760000463575125, 0.0, 0.0, 0.0, 0.0, 0.0, 1.7622064752350807E9, 0.0, 2025-11-03 16:47:55.235
44.0, 352.2555669764988, 14.72211617557332, 329.00834885193035, 81.59900718322024, -0.04800000227987766, -0.04800000227987766, 0.9760000463575125, 0.0, 0.0, 0.0, 0.0, 0.0, 1.7622064752508588E9, 0.0, 2025-11-03 16:47:55.250
44.0, 248.5406614053063, -65.75679097091779, 240.71679069800302, -4.785201993305236, -0.04800000227987766, -0.04800000227987766, 0.9760000463575125, 0.0, 0.0, 0.0, 0.0, 0.0, 1.7622064752508588E9, 0.0, 2025-11-03 16:47:55.250
45.0, 231.10524781187996, -87.60528651205823, 213.8568292162381, -35.108310834039, -0.04800000227987766, -0.04800000227987766, 0.9760000463575125, 0.0, 0.0, 0.0, 0.0, 0.0, 1.762206475251538E9, 0.0, 2025-11-03 16:47:55.251
45.0, 322.86369322473183, -16.969796048942953, 298.1653939173557, 50.322223853785545, -0.04800000227987766, -0.04800000227987766, 0.9760000463575125, 0.0, 0.0, 0.0, 0.0, 0.0, 1.762206475251538E9, 0.0, 2025-11-03 16:47:55.251
46.0, 311.00447046523914, -8.319407451432198, 301.99879137193784, 50.2287263548933, -0.04800000227987766, -0.04800000227987766, 0.9760000463575125, 0.0, 0.0, 0.0, 0.0, 0.0, 1.7622064752651546E9, 0.0, 2025-11-03 16:47:55.265
46.0, 207.34940329333767, -108.6609232625924, 197.0796380150132, -50.42694105254486, -0.04800000227987766, -0.04800000227987766, 0.9760000463575125, 0.0, 0.0, 0.0, 0.0, 0.0, 1.7622064752651546E9, 0.0, 2025-11-03 16:47:55.265
47.0, 256.7983605074696, -66.99095795629546, 240.62329319911078, -9.288041539955884, -0.04800000227987766, -0.04800000227987766, 0.9760000463575125, 0.0, 0.0, 0.0, 0.0, 0.0, 1.7622064752808845E9, 0.0, 2025-11-03 16:47:55.280
47.0, 351.90027648070827, 27.366717925760895, 339.5960056264885, 76.27338964631781, -0.04800000227987766, -0.04800000227987766, 0.9760000463575125, 0.0, 0.0, 0.0, 0.0, 0.0, 1.7622064752808845E9, 0.0, 2025-11-03 16:47:55.280
48.0, 230.84719471493736, -76.97275093803182, 223.0906422068365, -33.69836855074391, -0.04800000227987766, -0.04800000227987766, 0.9760000463575125, 0.0, 0.0, 0.0, 0.0, 0.0, 1.7622064752815268E9, 0.0, 2025-11-03 16:47:55.281
48.0, 232.5002304953523, -85.32394753908738, 219.41058065043762, -33.24958055606112, -0.04800000227987766, -0.04800000227987766, 0.9760000463575125, 0.0, 0.0, 0.0, 0.0, 0.0, 1.7622064752815268E9, 0.0, 2025-11-03 16:47:55.281
49.0, 351.94889518013224, 20.69847630476579, 333.89265819406137, 81.48307028459385, -0.04800000227987766, -0.04800000227987766, 0.9760000463575125, 0.0, 0.0, 0.0, 0.0, 0.0, 1.762206475295225E9, 0.0, 2025-11-03 16:47:55.295
49.0, 251.74575566733256, -61.949572816025466, 248.04325471119955, 6.25498267589137, -0.04800000227987766, -0.04800000227987766, 0.9760000463575125, 0.0, 0.0, 0.0, 0.0, 0.0, 1.762206475295225E9, 0.0, 2025-11-03 16:47:55.295
50.0, 225.6487337765284, -91.56210066517815, 209.97855296218768, -39.52513268170878, -0.04800000227987766, -0.04800000227987766, 1.008000047877431, 0.0, 0.0, 0.0, 0.0, 0.0, 1.7622064753108542E9, 0.0, 2025-11-03 16:47:55.310
50.0, 323.92956471210346, -15.399038067553192, 292.06187718966976, 44.263585925567895, -0.04800000227987766, -0.04800000227987766, 1.008000047877431, 0.0, 0.0, 0.0, 0.0, 0.0, 1.7622064753108542E9, 0.0, 2025-11-03 16:47:55.310
51.0, 306.06780252372846, -13.577706789132208, 295.158514352981, 45.860523206647485, -0.04800000227987766, -0.04800000227987766, 1.008000047877431, 0.0, 0.0, 0.0, 0.0, 0.0, 1.762206475311546E9, 0.0, 2025-11-03 16:47:55.311
51.0, 215.6445013950579, -97.5833395938389, 202.60347024956718, -45.501492810901254, -0.04800000227987766, -0.04800000227987766, 1.008000047877431, 0.0, 0.0, 0.0, 0.0, 0.0, 1.762206475311546E9, 0.0, 2025-11-03 16:47:55.311
52.0, 259.2592146783136, -66.2354981652461, 232.9116194904782, -14.733335875440389, -0.04800000227987766, -0.04800000227987766, 1.008000047877431, 0.0, 0.0, 0.0, 0.0, 0.0, 1.7622064753252044E9, 0.0, 2025-11-03 16:47:55.325
52.0, 372.1219155411236, 27.325579026248306, 333.8141202949919, 73.48716417932883, -0.04800000227987766, -0.04800000227987766, 1.008000047877431, 0.0, 0.0, 0.0, 0.0, 0.0, 1.7622064753252044E9, 0.0, 2025-11-03 16:47:55.325
53.0, 228.4648784431629, -89.70711028715596, 202.50249295076355, -43.56796453380957, -0.04800000227987766, -0.04800000227987766, 1.008000047877431, 0.0, 0.0, 0.0, 0.0, 0.0, 1.7622064753408177E9, 0.0, 2025-11-03 16:47:55.340
53.0, 231.59517470607534, -93.85091943806037, 203.003639544826, -46.86281639477238, -0.04800000227987766, -0.04800000227987766, 1.008000047877431, 0.0, 0.0, 0.0, 0.0, 0.0, 1.7622064753408177E9, 0.0, 2025-11-03 16:47:55.340
54.0, 349.57405870826915, 12.164024605881423, 315.8626005076803, 63.07154280273244, -0.04800000227987766, -0.04800000227987766, 1.008000047877431, 0.0, 0.0, 0.0, 0.0, 0.0, 1.762206475341524E9, 0.0, 2025-11-03 16:47:55.341
54.0, 251.60737936897203, -69.866941022221, 231.43435900798067, -18.521854530554265, -0.04800000227987766, -0.04800000227987766, 1.008000047877431, 0.0, 0.0, 0.0, 0.0, 0.0, 1.762206475341524E9, 0.0, 2025-11-03 16:47:55.341
55.0, 213.72219281783327, -102.37041153712198, 194.97781423991546, -51.34695644164458, -0.04800000227987766, -0.04800000227987766, 1.008000047877431, 0.0, 0.0, 0.0, 0.0, 0.0, 1.7622064753552876E9, 0.0, 2025-11-03 16:47:55.355
55.0, 310.499583971221, -25.459368948359042, 280.46070752711967, 38.219907597173005, -0.04800000227987766, -0.04800000227987766, 1.008000047877431, 0.0, 0.0, 0.0, 0.0, 0.0, 1.7622064753552876E9, 0.0, 2025-11-03 16:47:55.355
56.0, 324.6214462039061, -5.271388987544924, 297.7839241218753, 51.02906494541094, -0.04800000227987766, -0.04800000227987766, 1.008000047877431, 0.0, 0.0, 0.0, 0.0, 0.0, 1.762206475370967E9, 0.0, 2025-11-03 16:47:55.370
56.0, 203.38136944035068, -110.71786823822185, 188.72844141395763, -57.181200372520834, -0.04800000227987766, -0.04800000227987766, 1.008000047877431, 0.0, 0.0, 0.0, 0.0, 0.0, 1.762206475370967E9, 0.0, 2025-11-03 16:47:55.370
57.0, 267.34861828247085, -54.60814920300618, 241.89111928408965, -7.395652162376791, -0.04800000227987766, -0.04800000227987766, 1.008000047877431, 0.0, 0.0, 0.0, 0.0, 0.0, 1.7622064753715508E9, 0.0, 2025-11-03 16:47:55.371
57.0, 361.8558901627548, 25.810919544193894, 332.2845012131147, 82.5751210716553, -0.04800000227987766, -0.04800000227987766, 1.008000047877431, 0.0, 0.0, 0.0, 0.0, 0.0, 1.7622064753715508E9, 0.0, 2025-11-03 16:47:55.371
58.0, 217.20777957653627, -103.93742961855605, 186.56303933961317, -66.11208146670833, -0.04800000227987766, -0.04800000227987766, 1.008000047877431, 0.0, 0.0, 0.0, 0.0, 0.0, 1.762206475385228E9, 0.0, 2025-11-03 16:47:55.385
58.0, 237.17510543996468, -93.25627534510568, 195.46026133419946, -52.58486332697794, -0.04800000227987766, -0.04800000227987766, 1.008000047877431, 0.0, 0.0, 0.0, 0.0, 0.0, 1.762206475385228E9, 0.0, 2025-11-03 16:47:55.385
59.0, 362.4131352561526, 17.95712963724509, 315.4362519127317, 73.41236618021503, -0.04800000227987766, -0.04800000227987766, 1.008000047877431, 0.0, 0.0, 0.0, 0.0, 0.0, 1.7622064754008248E9, 0.0, 2025-11-03 16:47:55.400
59.0, 238.23349712742493, -90.67574437567964, 201.38426286401227, -52.311850630212575, -0.04800000227987766, -0.04800000227987766, 1.008000047877431, 0.0, 0.0, 0.0, 0.0, 0.0, 1.7622064754008248E9, 0.0, 2025-11-03 16:47:55.400
60.0, 211.3062174464576, -120.20599442580715, 166.18432448105887, -84.36279325047508, -0.04800000227987766, -0.04800000227987766, 1.0240000486373901, 0.0, 0.0, 0.0, 0.0, 0.0, 1.7622064754015408E9, 0.0, 2025-11-03 16:47:55.401
60.0, 302.80660976236686, -39.1474027861841, 251.30070757260546, -8.738276246469468, -0.04800000227987766, -0.04800000227987766, 1.0240000486373901, 0.0, 0.0, 0.0, 0.0, 0.0, 1.7622064754015408E9, 0.0, 2025-11-03 16:47:55.401
61.0, 316.19545160373673, -23.013474377337843, 272.7078949189745, 12.975582896266133, -0.04800000227987766, -0.04800000227987766, 1.0240000486373901, 0.0, 0.0, 0.0, 0.0, 0.0, 1.762206475415164E9, 0.0, 2025-11-03 16:47:55.415
61.0, 189.71203510230407, -137.07668312592432, 148.69281238829717, -107.61001137504354, -0.04800000227987766, -0.04800000227987766, 1.0240000486373901, 0.0, 0.0, 0.0, 0.0, 0.0, 1.762206475415164E9, 0.0, 2025-11-03 16:47:55.415
62.0, 261.9631623462774, -81.74860318144783, 200.64750257274136, -56.87826847610995, -0.04800000227987766, -0.04800000227987766, 1.0240000486373901, 0.0, 0.0, 0.0, 0.0, 0.0, 1.7622064754309142E9, 0.0, 2025-11-03 16:47:55.430
62.0, 369.4927658722736, 13.596406288910657, 307.77319690352306, 48.38121577678248, -0.04800000227987766, -0.04800000227987766, 1.0240000486373901, 0.0, 0.0, 0.0, 0.0, 0.0, 1.7622064754309142E9, 0.0, 2025-11-03 16:47:55.430
63.0, 212.02801813790575, -116.2977989721112, 173.24151569744572, -80.74257009336725, -0.04800000227987766, -0.04800000227987766, 1.0240000486373901, 0.0, 0.0, 0.0, 0.0, 0.0, 1.7622064754315205E9, 0.0, 2025-11-03 16:47:55.431
63.0, 232.45535169588402, -102.36667163716629, 182.89419748308137, -70.95525190932676, -0.04800000227987766, -0.04800000227987766, 1.0240000486373901, 0.0, 0.0, 0.0, 0.0, 0.0, 1.7622064754315205E9, 0.0, 2025-11-03 16:47:55.431
64.0, 376.88280818471685, 23.18550977529958, 320.81796794896945, 58.03015766246244, -0.04800000227987766, -0.04800000227987766, 1.0240000486373901, 0.0, 0.0, 0.0, 0.0, 0.0, 1.7622064754451425E9, 0.0, 2025-11-03 16:47:55.445
64.0, 254.30758713698015, -79.87491330364719, 218.41202736226842, -37.030619411263615, -0.04800000227987766, -0.04800000227987766, 1.0240000486373901, 0.0, 0.0, 0.0, 0.0, 0.0, 1.7622064754451425E9, 0.0, 2025-11-03 16:47:55.445
65.0, 219.36570185096934, -116.54463236918673, 174.63649838091806, -78.92123881494626, -0.04800000227987766, -0.04800000227987766, 1.0240000486373901, 0.0, 0.0, 0.0, 0.0, 0.0, 1.762206475460884E9, 0.0, 2025-11-03 16:47:55.460
65.0, 320.92268514772877, -32.568918764125556, 263.60871832678095, 5.910911879967898, -0.04800000227987766, -0.04800000227987766, 1.0240000486373901, 0.0, 0.0, 0.0, 0.0, 0.0, 1.762206475460884E9, 0.0, 2025-11-03 16:47:55.460
66.0, 337.0005150572397, -4.310234698932618, 288.5314116314985, 29.98464789474383, -0.04800000227987766, -0.04800000227987766, 1.0240000486373901, 0.0, 0.0, 0.0, 0.0, 0.0, 1.762206475461545E9, 0.0, 2025-11-03 16:47:55.461
66.0, 232.95275838999078, -101.90666394261643, 185.0708192572929, -74.54929576674476, -0.04800000227987766, -0.04800000227987766, 1.0240000486373901, 0.0, 0.0, 0.0, 0.0, 0.0, 1.762206475461545E9, 0.0, 2025-11-03 16:47:55.461
67.0, 273.3997764107771, -65.80540967034176, 224.22009199345484, -30.627910687122494, -0.04800000227987766, -0.04800000227987766, 1.0240000486373901, 0.0, 0.0, 0.0, 0.0, 0.0, 1.762206475475144E9, 0.0, 2025-11-03 16:47:55.475
67.0, 371.1308420528658, 22.160777187440544, 322.25782943191007, 66.43745276285335, -0.04800000227987766, -0.04800000227987766, 1.0240000486373901, 0.0, 0.0, 0.0, 0.0, 0.0, 1.762206475475144E9, 0.0, 2025-11-03 16:47:55.475
68.0, 233.2369907866232, -93.98555583646521, 189.5213002045639, -67.50332425022498, -0.04800000227987766, -0.04800000227987766, 1.0240000486373901, 0.0, 0.0, 0.0, 0.0, 0.0, 1.7622064754909933E9, 0.0, 2025-11-03 16:47:55.490
68.0, 241.83876068471, -89.7295496868901, 196.56727172108367, -58.25081175984815, -0.04800000227987766, -0.04800000227987766, 1.0240000486373901, 0.0, 0.0, 0.0, 0.0, 0.0, 1.7622064754909933E9, 0.0, 2025-11-03 16:47:55.490
69.0, 374.4219540138729, 25.844578643795103, 316.879853295628, 59.36156204668805, -0.04800000227987766, -0.04800000227987766, 1.0240000486373901, 0.0, 0.0, 0.0, 0.0, 0.0, 1.7622064754915304E9, 0.0, 2025-11-03 16:47:55.491
69.0, 269.7309345542453, -61.25021152431145, 225.00547098414972, -35.19806843297556, -0.04800000227987766, -0.04800000227987766, 1.0240000486373901, 0.0, 0.0, 0.0, 0.0, 0.0, 1.7622064754915304E9, 0.0, 2025-11-03 16:47:55.491
70.0, 234.63945327000692, -100.3994842604734, 184.24430136708543, -73.91351277427748, -0.04800000227987766, -0.04800000227987766, 1.0400000493973494, 0.0, 0.0, 0.0, 0.0, 0.0, 1.762206475505152E9, 0.0, 2025-11-03 16:47:55.505
70.0, 317.96816418273374, -23.843732167501003, 269.0801919619553, 7.83322045719251, -0.04800000227987766, -0.04800000227987766, 1.0400000493973494, 0.0, 0.0, 0.0, 0.0, 0.0, 1.762206475505152E9, 0.0, 2025-11-03 16:47:55.505
71.0, 319.23225036775693, -21.5474335947074, 272.9996071155183, 13.820800286252052, -0.04800000227987766, -0.04800000227987766, 1.0400000493973494, 0.0, 0.0, 0.0, 0.0, 0.0, 1.7622064755209432E9, 0.0, 2025-11-03 16:47:55.520
71.0, 222.57827591290697, -108.08871856937185, 183.83291237195954, -71.10484790755436, -0.04800000227987766, -0.04800000227987766, 1.0400000493973494, 0.0, 0.0, 0.0, 0.0, 0.0, 1.7622064755209432E9, 0.0, 2025-11-03 16:47:55.520
72.0, 272.94724851613864, -67.54446314973757, 229.11188113549724, -21.86906499089673, -0.04800000227987766, -0.04800000227987766, 1.0400000493973494, 0.0, 0.0, 0.0, 0.0, 0.0, 1.7622064755215287E9, 0.0, 2025-11-03 16:47:55.521
72.0, 366.2764519103803, 16.846379350405186, 313.2147513390519, 53.26926501886919, -0.04800000227987766, -0.04800000227987766, 1.0400000493973494, 0.0, 0.0, 0.0, 0.0, 0.0, 1.7622064755215287E9, 0.0, 2025-11-03 16:47:55.521
73.0, 233.93635207833722, -96.29681400908157, 197.01605971576646, -61.05199682665989, -0.04800000227987766, -0.04800000227987766, 1.0400000493973494, 0.0, 0.0, 0.0, 0.0, 0.0, 1.7622064755516338E9, 0.0, 2025-11-03 16:47:55.551
73.0, 245.90777183650061, -88.02789520705119, 198.10063070291653, -50.352143053431064, -0.04800000227987766, -0.04800000227987766, 1.0400000493973494, 0.0, 0.0, 0.0, 0.0, 0.0, 1.7622064755516338E9, 0.0, 2025-11-03 16:47:55.551
74.0, 381.40434723114595, 23.832512467633933, 318.2075177798979, 52.20339353149757, -0.04800000227987766, -0.04800000227987766, 1.0400000493973494, 0.0, 0.0, 0.0, 0.0, 0.0, 1.7622064755522296E9, 0.0, 2025-11-03 16:47:55.552
74.0, 266.1032315972261, -63.942939492408186, 228.43495924351737, -27.897783719468862, -0.04800000227987766, -0.04800000227987766, 1.0400000493973494, 0.0, 0.0, 0.0, 0.0, 0.0, 1.7622064755522296E9, 0.0, 2025-11-03 16:47:55.552
75.0, 237.33218123810366, -94.15759123442695, 192.9620081637986, -64.25335118873045, -0.04800000227987766, -0.04800000227987766, 1.0400000493973494, 0.0, 0.0, 0.0, 0.0, 0.0, 1.762206475552984E9, 0.0, 2025-11-03 16:47:55.552
75.0, 348.3398917228915, 5.166671788785607, 302.69441276369616, 42.83868404245004, -0.04800000227987766, -0.04800000227987766, 1.0400000493973494, 0.0, 0.0, 0.0, 0.0, 0.0, 1.762206475552984E9, 0.0, 2025-11-03 16:47:55.552
76.0, 308.11352779949084, -25.93807614268735, 275.7446936829947, 17.96460943715647, -0.04800000227987766, -0.04800000227987766, 1.0400000493973494, 0.0, 0.0, 0.0, 0.0, 0.0, 1.7622064755651112E9, 0.0, 2025-11-03 16:47:55.565
76.0, 201.7021543602459, -118.02563275163993, 176.52140795858577, -80.55557509558275, -0.04800000227987766, -0.04800000227987766, 1.0400000493973494, 0.0, 0.0, 0.0, 0.0, 0.0, 1.7622064755651112E9, 0.0, 2025-11-03 16:47:55.565
77.0, 271.42884913412854, -64.67221998376772, 229.26147713372484, -22.67314348137006, -0.04800000227987766, -0.04800000227987766, 1.0400000493973494, 0.0, 0.0, 0.0, 0.0, 0.0, 1.7622064755808213E9, 0.0, 2025-11-03 16:47:55.580
77.0, 357.2258940176107, 14.793174274731427, 321.70432423846796, 66.13826076639816, -0.04800000227987766, -0.04800000227987766, 1.0400000493973494, 0.0, 0.0, 0.0, 0.0, 0.0, 1.7622064755808213E9, 0.0, 2025-11-03 16:47:55.580
78.0, 222.09582881862298, -93.56294714147225, 204.42106162803248, -44.47676022304222, -0.04800000227987766, -0.04800000227987766, 1.0400000493973494, 0.0, 0.0, 0.0, 0.0, 0.0, 1.7622064755815036E9, 0.0, 2025-11-03 16:47:55.581
78.0, 227.97121164901182, -97.14951119897887, 197.10207741474733, -45.916621705982834, -0.04800000227987766, -0.04800000227987766, 1.0400000493973494, 0.0, 0.0, 0.0, 0.0, 0.0, 1.7622064755815036E9, 0.0, 2025-11-03 16:47:55.581
79.0, 369.8181371684186, 22.459969183895737, 324.7560826023109, 61.968272315803915, -0.04800000227987766, -0.04800000227987766, 1.0400000493973494, 0.0, 0.0, 0.0, 0.0, 0.0, 1.7622064755952804E9, 0.0, 2025-11-03 16:47:55.595
79.0, 252.52739475807175, -75.14393985969946, 225.70483227586374, -27.333058826159686, -0.04800000227987766, -0.04800000227987766, 1.0400000493973494, 0.0, 0.0, 0.0, 0.0, 0.0, 1.7622064755952804E9, 0.0, 2025-11-03 16:47:55.595
80.0, 202.50623285071924, -119.98534032842144, 176.60742565756664, -70.55882251402363, -0.04800000227987766, -0.04800000227987766, 1.0400000493973494, 0.0, 0.0, 0.0, 0.0, 0.0, 1.762206475610882E9, 0.0, 2025-11-03 16:47:55.610
80.0, 298.77125771017745, -42.87234314205125, 254.9583297292702, 14.378045379649848, -0.04800000227987766, -0.04800000227987766, 1.0400000493973494, 0.0, 0.0, 0.0, 0.0, 0.0, 1.762206475610882E9, 0.0, 2025-11-03 16:47:55.610
81.0, 304.25021114526317, -26.125071140471846, 273.68026890745386, 29.068372405599803, -0.04800000227987766, -0.04800000227987766, 1.0400000493973494, 0.0, 0.0, 0.0, 0.0, 0.0, 1.762206475611545E9, 0.0, 2025-11-03 16:47:55.611
81.0, 209.1969138714485, -117.9246554528363, 175.07032677577808, -63.999037991743535, -0.04800000227987766, -0.04800000227987766, 1.0400000493973494, 0.0, 0.0, 0.0, 0.0, 0.0, 1.762206475611545E9, 0.0, 2025-11-03 16:47:55.611
82.0, 258.361638688948, -76.64363974193111, 222.3875410151668, -18.959422825369984, -0.04800000227987766, -0.04800000227987766, 1.0400000493973494, 0.0, 0.0, 0.0, 0.0, 0.0, 1.7622064756251144E9, 0.0, 2025-11-03 16:47:55.625
82.0, 362.6076100538485, 14.553820677567273, 322.9422311238013, 79.10449391277507, -0.04800000227987766, -0.04800000227987766, 1.0400000493973494, 0.0, 0.0, 0.0, 0.0, 0.0, 1.7622064756251144E9, 0.0, 2025-11-03 16:47:55.625
83.0, 214.05504391388968, -112.17268932098523, 187.5840320275165, -52.356729429680854, -0.04800000227987766, -0.04800000227987766, 1.0400000493973494, 0.0, 0.0, 0.0, 0.0, 0.0, 1.7622064756409953E9, 0.0, 2025-11-03 16:47:55.640
83.0, 224.22757179336622, -108.63848386285827, 195.60611743247136, -44.5216390225105, -0.04800000227987766, -0.04800000227987766, 1.0400000493973494, 0.0, 0.0, 0.0, 0.0, 0.0, 1.7622064756409953E9, 0.0, 2025-11-03 16:47:55.640
84.0, 364.7393530285917, 16.595806053373963, 323.5106959170662, 76.9091726387851, -0.04800000227987766, -0.04800000227987766, 1.0400000493973494, 0.0, 0.0, 0.0, 0.0, 0.0, 1.7622064756415272E9, 0.0, 2025-11-03 16:47:55.641
84.0, 260.31012656586245, -67.46218535071239, 228.29658294515684, -15.036267771851271, -0.04800000227987766, -0.04800000227987766, 1.0400000493973494, 0.0, 0.0, 0.0, 0.0, 0.0, 1.7622064756415272E9, 0.0, 2025-11-03 16:47:55.641
85.0, 215.14335480099544, -109.24060775572434, 186.33490544231609, -53.893828311469406, -0.04800000227987766, -0.04800000227987766, 1.0400000493973494, 0.0, 0.0, 0.0, 0.0, 0.0, 1.7622064756551056E9, 0.0, 2025-11-03 16:47:55.655
85.0, 313.3568675373681, -26.203609039541334, 272.09081142628565, 28.911296607460827, -0.04800000227987766, -0.04800000227987766, 1.0400000493973494, 0.0, 0.0, 0.0, 0.0, 0.0, 1.7622064756551056E9, 0.0, 2025-11-03 16:47:55.655
86.0, 305.66763322846964, -30.00334739452228, 274.7124812952243, 22.77786068012938, -0.04800000227987766, -0.04800000227987766, 1.0400000493973494, 0.0, 0.0, 0.0, 0.0, 0.0, 1.7622064756709216E9, 0.0, 2025-11-03 16:47:55.670
86.0, 203.48608663911, -121.7430933075957, 176.68970345659181, -65.62963437242433, -0.04800000227987766, -0.04800000227987766, 1.0400000493973494, 0.0, 0.0, 0.0, 0.0, 0.0, 1.7622064756709216E9, 0.0, 2025-11-03 16:47:55.670
87.0, 271.4138895343058, -64.73953818297014, 237.12274684058502, -5.7351365820504725, -0.04800000227987766, -0.04800000227987766, 1.0400000493973494, 0.0, 0.0, 0.0, 0.0, 0.0, 1.7622064756714993E9, 0.0, 2025-11-03 16:47:55.671
87.0, 363.6809613411315, 18.27876103343442, 319.1686720685102, 67.59308184916154, -0.04800000227987766, -0.04800000227987766, 1.0400000493973494, 0.0, 0.0, 0.0, 0.0, 0.0, 1.7622064756714993E9, 0.0, 2025-11-03 16:47:55.671
88.0, 221.94623282039538, -101.10632535209879, 189.67463610274717, -46.4476874996908, -0.04800000227987766, -0.04800000227987766, 1.0400000493973494, 0.0, 0.0, 0.0, 0.0, 0.0, 1.7622064756851795E9, 0.0, 2025-11-03 16:47:55.685
88.0, 225.73475147550926, -109.64825685089454, 186.80239293677732, -57.951619763392955, -0.04800000227987766, -0.04800000227987766, 1.0400000493973494, 0.0, 0.0, 0.0, 0.0, 0.0, 1.7622064756851795E9, 0.0, 2025-11-03 16:47:55.685
89.0, 357.1585758184083, 9.213243540842086, 315.0996609167196, 68.04186984384432, -0.04800000227987766, -0.04800000227987766, 1.0400000493973494, 0.0, 0.0, 0.0, 0.0, 0.0, 1.7622064757171628E9, 0.0, 2025-11-03 16:47:55.717
89.0, 264.64467061450705, -62.432019910309464, 235.5744282589294, -8.880392444785684, -0.04800000227987766, -0.04800000227987766, 1.0400000493973494, 0.0, 0.0, 0.0, 0.0, 0.0, 1.7622064757171628E9, 0.0, 2025-11-03 16:47:55.717
90.0, 213.40804122155532, -119.58143113320693, 174.94691007724032, -62.24502491252497, -0.04800000227987766, -0.04800000227987766, 1.0400000493973494, 0.0, 0.0, 0.0, 0.0, 0.0, 1.7622064757178824E9, 0.0, 2025-11-03 16:47:55.717
90.0, 310.7912961677648, -30.986941082868725, 268.2125351722352, 23.765194268431515, -0.04800000227987766, -0.04800000227987766, 1.0400000493973494, 0.0, 0.0, 0.0, 0.0, 0.0, 1.7622064757178824E9, 0.0, 2025-11-03 16:47:55.717
91.0, 318.6824850742705, -19.266094621736556, 286.9344743504189, 39.32691798405722, -0.04800000227987766, -0.04800000227987766, 1.0400000493973494, 0.0, 0.0, 0.0, 0.0, 0.0, 1.7622064757186162E9, 0.0, 2025-11-03 16:47:55.718
91.0, 205.62156951380894, -122.7416465957649, 173.12557879881933, -71.87900719838217, -0.04800000227987766, -0.04800000227987766, 1.0400000493973494, 0.0, 0.0, 0.0, 0.0, 0.0, 1.7622064757186162E9, 0.0, 2025-11-03 16:47:55.718
92.0, 264.49507461627945, -71.07118880795315, 232.2795763979666, -11.531981513369828, -0.04800000227987766, -0.04800000227987766, 1.0400000493973494, 0.0, 0.0, 0.0, 0.0, 0.0, 1.7622064757193608E9, 0.0, 2025-11-03 16:47:55.719
92.0, 374.3471560147591, 24.565532858949155, 333.90387789392844, 86.34868012694642, -0.04800000227987766, -0.04800000227987766, 1.0400000493973494, 0.0, 0.0, 0.0, 0.0, 0.0, 1.7622064757193608E9, 0.0, 2025-11-03 16:47:55.719
93.0, 214.12610201304778, -107.38935727765784, 189.9214694998227, -55.483285792637616, -0.04800000227987766, -0.04800000227987766, 1.0400000493973494, 0.0, 0.0, 0.0, 0.0, 0.0, 1.7622064757301412E9, 0.0, 2025-11-03 16:47:55.730
93.0, 226.80062296288088, -104.64801061013713, 192.703955066856, -44.652535520959646, -0.04800000227987766, -0.04800000227987766, 1.0400000493973494, 0.0, 0.0, 0.0, 0.0, 0.0, 1.7622064757301412E9, 0.0, 2025-11-03 16:47:55.730
94.0, 356.9603611207567, 6.516775672789663, 309.8376216790639, 62.17770671332255, -0.04800000227987766, -0.04800000227987766, 1.0400000493973494, 0.0, 0.0, 0.0, 0.0, 0.0, 1.7622064757451618E9, 0.0, 2025-11-03 16:47:55.745
94.0, 265.3589915060438, -63.72602529497817, 237.44811813673005, -11.232789516914636, -0.04800000227987766, -0.04800000227987766, 1.0400000493973494, 0.0, 0.0, 0.0, 0.0, 0.0, 1.7622064757451618E9, 0.0, 2025-11-03 16:47:55.745
95.0, 235.9858172540553, -94.48296253057197, 199.95188118098304, -44.94798761745915, -0.04800000227987766, -0.04800000227987766, 1.0400000493973494, 0.0, 0.0, 0.0, 0.0, 0.0, 1.7622064757608476E9, 0.0, 2025-11-03 16:47:55.760
95.0, 324.2399764084257, -19.423170419875532, 286.68764095334336, 38.635036492254585, -0.04800000227987766, -0.04800000227987766, 1.0400000493973494, 0.0, 0.0, 0.0, 0.0, 0.0, 1.7622064757608476E9, 0.0, 2025-11-03 16:47:55.760
96.0, 330.74740233132616, -3.629572906997055, 300.4878717898391, 46.298091501463205, -0.04800000227987766, -0.04800000227987766, 1.0400000493973494, 0.0, 0.0, 0.0, 0.0, 0.0, 1.762206475761552E9, 0.0, 2025-11-03 16:47:55.761
96.0, 201.90410895785317, -120.55006522173062, 179.8499189191498, -59.930026839952916, -0.04800000227987766, -0.04800000227987766, 1.0400000493973494, 0.0, 0.0, 0.0, 0.0, 0.0, 1.762206475761552E9, 0.0, 2025-11-03 16:47:55.761
97.0, 259.52474757516757, -73.6479798774235, 234.70303156925365, -11.367425915319473, -0.04800000227987766, -0.04800000227987766, 1.0400000493973494, 0.0, 0.0, 0.0, 0.0, 0.0, 1.762206475775472E9, 0.0, 2025-11-03 16:47:55.775
97.0, 367.0730506009422, 21.07246630033478, 333.2568752015941, 81.17265858827159, -0.04800000227987766, -0.04800000227987766, 1.0400000493973494, 0.0, 0.0, 0.0, 0.0, 0.0, 1.762206475775472E9, 0.0, 2025-11-03 16:47:55.775
98.0, 209.30911087011918, -111.94455542368814, 188.2572140195407, -63.06032310286537, -0.04800000227987766, -0.04800000227987766, 1.0400000493973494, 0.0, 0.0, 0.0, 0.0, 0.0, 1.7622064757908363E9, 0.0, 2025-11-03 16:47:55.790
98.0, 225.3869407796301, -102.9912349297665, 194.97033444000408, -44.723593620117754, -0.04800000227987766, -0.04800000227987766, 1.0400000493973494, 0.0, 0.0, 0.0, 0.0, 0.0, 1.7622064757908363E9, 0.0, 2025-11-03 16:47:55.790
99.0, 363.0376985487528, 22.00370138930157, 333.4775292989798, 84.07108105393127, -0.04800000227987766, -0.04800000227987766, 1.0400000493973494, 0.0, 0.0, 0.0, 0.0, 0.0, 1.762206475791534E9, 0.0, 2025-11-03 16:47:55.791
99.0, 265.6656633024104, -58.718299254309386, 241.82380108488724, -2.8815929158590734, -0.04800000227987766, -0.04800000227987766, 1.0400000493973494, 0.0, 0.0, 0.0, 0.0, 0.0, 1.762206475791534E9, 0.0, 2025-11-03 16:47:55.791
100.0, 213.4155210214667, -108.54872626392171, 190.53107319260016, -48.747725972440094, -0.04800000227987766, -0.04800000227987766, 1.0400000493973494, 0.0, 0.0, 0.0, 0.0, 0.0, 1.762206475805841E9, 0.0, 2025-11-03 16:47:55.805
100.0, 323.3274408192374, -15.08862637123093, 292.4470868851058, 50.42694105254486, -0.04800000227987766, -0.04800000227987766, 1.0400000493973494, 0.0, 0.0, 0.0, 0.0, 0.0, 1.762206475805841E9, 0.0, 2025-11-03 16:47:55.805
0.0, 317.46140773873776, -14.87732202373445, 291.31202724855393, 48.75333582237363, -0.04800000227987766, -0.04800000227987766, 1.0400000493973494, 0.0, 0.0, 0.0, 0.0, 0.0, 1.7622064758065257E9, 0.0, 2025-11-03 16:47:55.806
1.0, 197.32460146211088, -119.67679858207703, 176.02587121445686, -62.03746046498418, -0.04800000227987766, -0.04800000227987766, 1.0400000493973494, 0.0, 0.0, 0.0, 0.0, 0.0, 1.7622064758201823E9, 0.0, 2025-11-03 16:47:55.820
1.0, 250.99216582626104, -78.93806836474687, 224.50245444010943, -18.13851478509605, -0.04800000227987766, -0.04800000227987766, 1.0400000493973494, 0.0, 0.0, 0.0, 0.0, 0.0, 1.7622064758201823E9, 0.0, 2025-11-03 16:47:55.820
2.0, 376.01702134497464, 31.893866822123528, 336.224485816434, 89.60426303837448, -0.04800000227987766, -0.04800000227987766, 1.0400000493973494, 0.0, 0.0, 0.0, 0.0, 0.0, 1.7622064758358607E9, 0.0, 2025-11-03 16:47:55.835
2.0, 231.28289305977523, -90.16898793168366, 203.59641368780285, -38.51348974369466, -0.04800000227987766, -0.04800000227987766, 1.0400000493973494, 0.0, 0.0, 0.0, 0.0, 0.0, 1.7622064758358607E9, 0.0, 2025-11-03 16:47:55.835
3.0, 228.72106159012765, -103.6027085725218, 196.24751027487218, -46.471996849402785, -0.04800000227987766, -0.04800000227987766, 1.0400000493973494, 0.0, 0.0, 0.0, 0.0, 0.0, 1.7622064758367505E9, 0.0, 2025-11-03 16:47:55.836
3.0, 364.8496800772846, 21.474505545571446, 327.3684027213603, 80.34053084813058, -0.04800000227987766, -0.04800000227987766, 1.0400000493973494, 0.0, 0.0, 0.0, 0.0, 0.0, 1.7622064758367505E9, 0.0, 2025-11-03 16:47:55.836
4.0, 271.32974178530276, -48.3569064270705, 253.2735047992319, 7.760292408056557, -0.04800000227987766, -0.04800000227987766, 1.0400000493973494, 0.0, 0.0, 0.0, 0.0, 0.0, 1.76220647585051E9, 0.0, 2025-11-03 16:47:55.850
4.0, 207.7664021383971, -115.0168832372874, 183.48697162605822, -59.23253549821675, -0.04800000227987766, -0.04800000227987766, 1.0400000493973494, 0.0, 0.0, 0.0, 0.0, 0.0, 1.76220647585051E9, 0.0, 2025-11-03 16:47:55.850
5.0, 314.2600533766672, -22.648834131658077, 284.15759863331914, 40.94068481493741, -0.04800000227987766, -0.04800000227987766, 1.0400000493973494, 0.0, 0.0, 0.0, 0.0, 0.0, 1.7622064758660097E9, 0.0, 2025-11-03 16:47:55.866
5.0, 314.50688677374274, -15.950673311017454, 295.01826810464263, 48.38308572676033, -0.04800000227987766, -0.04800000227987766, 1.0400000493973494, 0.0, 0.0, 0.0, 0.0, 0.0, 1.7622064758660097E9, 0.0, 2025-11-03 16:47:55.866
6.0, 206.11336635798216, -115.48063083179295, 187.05857608374208, -55.720769439823925, -0.04800000227987766, -0.04800000227987766, 1.0400000493973494, 0.0, 0.0, 0.0, 0.0, 0.0, 1.7622064758665223E9, 0.0, 2025-11-03 16:47:55.866
6.0, 249.12969564832747, -82.24413992557675, 222.8120196601376, -21.190273148939013, -0.04800000227987766, -0.04800000227987766, 1.0400000493973494, 0.0, 0.0, 0.0, 0.0, 0.0, 1.7622064758665223E9, 0.0, 2025-11-03 16:47:55.866
7.0, 366.4353976584971, 24.817976105958223, 337.8999609965831, 92.17357430793345, -0.04800000227987766, -0.04800000227987766, 1.0400000493973494, 0.0, 0.0, 0.0, 0.0, 0.0, 1.7622064758801167E9, 0.0, 2025-11-03 16:47:55.880
7.0, 222.18745636753738, -99.71695251855999, 198.095020852983, -50.35027310345322, -0.04800000227987766, -0.04800000227987766, 1.0400000493973494, 0.0, 0.0, 0.0, 0.0, 0.0, 1.7622064758801167E9, 0.0, 2025-11-03 16:47:55.880
8.0, 225.56832592748106, -100.89128110464662, 195.76880308054388, -48.40926502645016, -0.04800000227987766, -0.04800000227987766, 1.0400000493973494, 0.0, 0.0, 0.0, 0.0, 0.0, 1.7622064758958704E9, 0.0, 2025-11-03 16:47:55.895
8.0, 364.5804072804749, 19.73171216621995, 321.57529768999666, 74.02757972292602, -0.04800000227987766, -0.04800000227987766, 1.0400000493973494, 0.0, 0.0, 0.0, 0.0, 0.0, 1.7622064758958704E9, 0.0, 2025-11-03 16:47:55.895
9.0, 277.5454555116594, -48.03153513092548, 254.9041011799127, 8.642908797599375, -0.04800000227987766, -0.04800000227987766, 1.0400000493973494, 0.0, 0.0, 0.0, 0.0, 0.0, 1.762206475896531E9, 0.0, 2025-11-03 16:47:55.896
9.0, 218.8402459071949, -110.40184669196606, 192.41037292033434, -55.08498644735664, -0.04800000227987766, -0.04800000227987766, 1.0400000493973494, 0.0, 0.0, 0.0, 0.0, 0.0, 1.762206475896531E9, 0.0, 2025-11-03 16:47:55.896
10.0, 329.77315839286894, -12.977452846243978, 290.9604766527191, 45.95215075556189, -0.04800000227987766, -0.04800000227987766, 1.0400000493973494, 0.0, 0.0, 0.0, 0.0, 0.0, 1.7622064759101217E9, 0.0, 2025-11-03 16:47:55.910
10.0, 337.17442040517926, -3.709980756044388, 301.9109037229791, 55.92646393738687, -0.04800000227987766, -0.04800000227987766, 1.0400000493973494, 0.0, 0.0, 0.0, 0.0, 0.0, 1.7622064759101217E9, 0.0, 2025-11-03 16:47:55.910
11.0, 208.25632903259248, -112.78790286369622, 183.32989582791924, -53.50300876609981, -0.04800000227987766, -0.04800000227987766, 1.0400000493973494, 0.0, 0.0, 0.0, 0.0, 0.0, 1.762206475925871E9, 0.0, 2025-11-03 16:47:55.925
11.0, 257.5631700484082, -75.5534589048475, 225.9198765233159, -16.93800689931959, -0.04800000227987766, -0.04800000227987766, 1.0400000493973494, 0.0, 0.0, 0.0, 0.0, 0.0, 1.762206475925871E9, 0.0, 2025-11-03 16:47:55.925
12.0, 374.98106905724853, 31.168326230719686, 340.4917116658762, 86.2981914775446, -0.04800000227987766, -0.04800000227987766, 1.0400000493973494, 0.0, 0.0, 0.0, 0.0, 0.0, 1.7622064759265373E9, 0.0, 2025-11-03 16:47:55.926
12.0, 220.3249861896038, -100.33029611129314, 199.60220053512603, -42.896652491763234, -0.04800000227987766, -0.04800000227987766, 1.0400000493973494, 0.0, 0.0, 0.0, 0.0, 0.0, 1.7622064759265373E9, 0.0, 2025-11-03 16:47:55.926
13.0, 223.20470915548503, -102.88838768098503, 200.44741792511195, -48.62991912383586, -0.04800000227987766, -0.04800000227987766, 1.0400000493973494, 0.0, 0.0, 0.0, 0.0, 0.0, 1.762206475940176E9, 0.0, 2025-11-03 16:47:55.940
13.0, 364.3111344836652, 20.247818360105157, 330.2593453871086, 77.93951507657766, -0.04800000227987766, -0.04800000227987766, 1.0400000493973494, 0.0, 0.0, 0.0, 0.0, 0.0, 1.762206475940176E9, 0.0, 2025-11-03 16:47:55.940
14.0, 272.41431277245283, -55.286941044963896, 250.2666252348572, -0.8639168897643685, -0.04800000227987766, -0.04800000227987766, 1.0400000493973494, 0.0, 0.0, 0.0, 0.0, 0.0, 1.7622064759559028E9, 0.0, 2025-11-03 16:47:55.955
14.0, 217.59111932199448, -111.8678874745965, 190.6488800412044, -54.527741353958845, -0.04800000227987766, -0.04800000227987766, 1.0400000493973494, 0.0, 0.0, 0.0, 0.0, 0.0, 1.7622064759559028E9, 0.0, 2025-11-03 16:47:55.955
15.0, 308.4145897459239, -27.095575178973377, 279.9165520835668, 30.5699422378093, -0.04800000227987766, -0.04800000227987766, 1.0400000493973494, 0.0, 0.0, 0.0, 0.0, 0.0, 1.7622064759565785E9, 0.0, 2025-11-03 16:47:55.956
15.0, 336.92010720819235, 7.573297410272062, 312.8426312934607, 60.2871872857213, -0.04800000227987766, -0.04800000227987766, 1.0400000493973494, 0.0, 0.0, 0.0, 0.0, 0.0, 1.7622064759565785E9, 0.0, 2025-11-03 16:47:55.956
16.0, 218.7691878080368, -103.18383977748454, 198.6821851460263, -46.62159284763038, -0.04800000227987766, -0.04800000227987766, 1.0400000493973494, 0.0, 0.0, 0.0, 0.0, 0.0, 1.762206475970198E9, 0.0, 2025-11-03 16:47:55.970
16.0, 264.3884874675423, -71.00574055872858, 224.96994193457067, -22.832089229486883, -0.04800000227987766, -0.04800000227987766, 1.0400000493973494, 0.0, 0.0, 0.0, 0.0, 0.0, 1.762206475970198E9, 0.0, 2025-11-03 16:47:55.970
17.0, 374.4350436637178, 24.09243551455438, 330.65951468236744, 75.26548660825938, -0.04800000227987766, -0.04800000227987766, 1.0400000493973494, 0.0, 0.0, 0.0, 0.0, 0.0, 1.762206475985953E9, 0.0, 2025-11-03 16:47:55.985
17.0, 216.40931093599647, -104.56386286113411, 191.07148873619735, -61.023947576992214, -0.04800000227987766, -0.04800000227987766, 1.0400000493973494, 0.0, 0.0, 0.0, 0.0, 0.0, 1.762206475985953E9, 0.0, 2025-11-03 16:47:55.985
18.0, 225.183116232045, -107.02471703197807, 197.0590685652569, -46.35979985073209, -0.04800000227987766, -0.04800000227987766, 1.0400000493973494, 0.0, 0.0, 0.0, 0.0, 0.0, 1.7622064759865997E9, 0.0, 2025-11-03 16:47:55.986
18.0, 372.6286719851196, 23.617468220181763, 330.9774061786011, 76.95592138823122, -0.04800000227987766, -0.04800000227987766, 1.0400000493973494, 0.0, 0.0, 0.0, 0.0, 0.0, 1.7622064759865997E9, 0.0, 2025-11-03 16:47:55.986
19.0, 280.5037163766101, -46.490696349181235, 250.42744093295187, 2.5132127702236176, -0.04800000227987766, -0.04800000227987766, 1.0400000493973494, 0.0, 0.0, 0.0, 0.0, 0.0, 1.7622064760001266E9, 0.0, 2025-11-03 16:47:56.000
19.0, 226.52574031613767, -106.83772203419358, 192.76566341612488, -55.1747440462932, -0.04800000227987766, -0.04800000227987766, 1.0400000493973494, 0.0, 0.0, 0.0, 0.0, 0.0, 1.7622064760001266E9, 0.0, 2025-11-03 16:47:56.000
20.0, 316.1599225541577, -21.66524044331163, 275.25289683882147, 26.298976488411427, -0.04800000227987766, -0.04800000227987766, 1.0400000493973494, 0.0, 0.0, 0.0, 0.0, 0.0, 1.7622064760158005E9, 0.0, 2025-11-03 16:47:56.015
20.0, 331.340176474303, -4.0839707516133785, 301.9146436229348, 45.5033627608791, -0.04800000227987766, -0.04800000227987766, 1.0400000493973494, 0.0, 0.0, 0.0, 0.0, 0.0, 1.7622064760158005E9, 0.0, 2025-11-03 16:47:56.015
21.0, 212.38517858367413, -109.1639398066327, 188.17680617049336, -50.088480106554925, -0.04800000227987766, -0.04800000227987766, 1.0400000493973494, 0.0, 0.0, 0.0, 0.0, 0.0, 1.76220647601649E9, 0.0, 2025-11-03 16:47:56.016
21.0, 275.8064020322636, -63.85505184344947, 234.05789882689714, -12.214513255283237, -0.04800000227987766, -0.04800000227987766, 1.0400000493973494, 0.0, 0.0, 0.0, 0.0, 0.0, 1.76220647601649E9, 0.0, 2025-11-03 16:47:56.016
22.0, 373.6683641728014, 27.907133469358087, 341.47156545426697, 93.64709489047527, -0.04800000227987766, -0.04800000227987766, 1.0400000493973494, 0.0, 0.0, 0.0, 0.0, 0.0, 1.7622064760302336E9, 0.0, 2025-11-03 16:47:56.030
22.0, 230.54613276850432, -98.25091173592955, 195.0956210885197, -52.04818768333644, -0.04800000227987766, -0.04800000227987766, 1.0400000493973494, 0.0, 0.0, 0.0, 0.0, 0.0, 1.7622064760302336E9, 0.0, 2025-11-03 16:47:56.030
23.0, 237.0423389915377, -91.81828381214291, 204.64732557535172, -42.68347819428891, -0.04800000227987766, -0.04800000227987766, 1.0400000493973494, 0.0, 0.0, 0.0, 0.0, 0.0, 1.7622064760458157E9, 0.0, 2025-11-03 16:47:56.045
23.0, 356.19181167986244, 6.010019228793681, 312.61449739616364, 55.12612534686923, -0.04800000227987766, -0.04800000227987766, 1.0400000493973494, 0.0, 0.0, 0.0, 0.0, 0.0, 1.7622064760458157E9, 0.0, 2025-11-03 16:47:56.045
24.0, 266.55014964193106, -63.783993744291365, 235.78947250638157, -19.473659069277346, -0.04800000227987766, -0.04800000227987766, 1.0400000493973494, 0.0, 0.0, 0.0, 0.0, 0.0, 1.7622064760465038E9, 0.0, 2025-11-03 16:47:56.046
24.0, 224.96620203461498, -102.83976898156106, 191.44921863172203, -52.27632158063352, -0.04800000227987766, -0.04800000227987766, 1.0400000493973494, 0.0, 0.0, 0.0, 0.0, 0.0, 1.7622064760465038E9, 0.0, 2025-11-03 16:47:56.046
25.0, 317.2557132411748, -21.78117734193802, 285.1673716213554, 41.89435930363834, -0.04800000227987766, -0.04800000227987766, 1.0400000493973494, 0.0, 0.0, 0.0, 0.0, 0.0, 1.762206476060117E9, 0.0, 2025-11-03 16:47:56.060
25.0, 339.84844887349755, 1.0920507870614529, 307.12806416116655, 54.105132658965886, -0.04800000227987766, -0.04800000227987766, 1.0400000493973494, 0.0, 0.0, 0.0, 0.0, 0.0, 1.762206476060117E9, 0.0, 2025-11-03 16:47:56.060
26.0, 219.0347207048908, -109.86330109834671, 191.4641782315448, -53.319753668271005, -0.04800000227987766, -0.04800000227987766, 1.0400000493973494, 0.0, 0.0, 0.0, 0.0, 0.0, 1.7622064760758057E9, 0.0, 2025-11-03 16:47:56.075
26.0, 265.3795609558001, -72.50544044096023, 233.33983803540468, -11.934020758606493, -0.04800000227987766, -0.04800000227987766, 1.0400000493973494, 0.0, 0.0, 0.0, 0.0, 0.0, 1.7622064760758057E9, 0.0, 2025-11-03 16:47:56.075
27.0, 374.71179626043886, 30.786856435239315, 338.3076100917533, 92.75325880106539, -0.04800000227987766, -0.04800000227987766, 1.0400000493973494, 0.0, 0.0, 0.0, 0.0, 0.0, 1.7622064760764976E9, 0.0, 2025-11-03 16:47:56.076
27.0, 216.48784883506596, -104.26093096472323, 194.95350489020348, -51.662977987900376, -0.04800000227987766, -0.04800000227987766, 1.0400000493973494, 0.0, 0.0, 0.0, 0.0, 0.0, 1.7622064760764976E9, 0.0, 2025-11-03 16:47:56.076
28.0, 233.31739863567054, -96.1565677607432, 199.12349334079772, -46.42337814997882, -0.04800000227987766, -0.04800000227987766, 1.0400000493973494, 0.0, 0.0, 0.0, 0.0, 0.0, 1.7622064760904524E9, 0.0, 2025-11-03 16:47:56.090
28.0, 371.03173470404, 14.731465925462544, 324.043631660752, 74.34173131920397, -0.04800000227987766, -0.04800000227987766, 1.0400000493973494, 0.0, 0.0, 0.0, 0.0, 0.0, 1.7622064760904524E9, 0.0, 2025-11-03 16:47:56.090
29.0, 281.37511306628585, -48.469103425741196, 248.36675605736673, 3.661362056620419, -0.04800000227987766, -0.04800000227987766, 1.0400000493973494, 0.0, 0.0, 0.0, 0.0, 0.0, 1.7622064761059656E9, 0.0, 2025-11-03 16:47:56.105
29.0, 214.56928015779704, -111.91276627406478, 185.7159519996494, -50.473689801990986, -0.04800000227987766, -0.04800000227987766, 1.0400000493973494, 0.0, 0.0, 0.0, 0.0, 0.0, 1.7622064761059656E9, 0.0, 2025-11-03 16:47:56.105
30.0, 304.46151549275964, -30.023916844278574, 272.15251977555454, 25.37522119935602, -0.04800000227987766, -0.04800000227987766, 1.0400000493973494, 0.0, 0.0, 0.0, 0.0, 0.0, 1.76220647610655E9, 0.0, 2025-11-03 16:47:56.106
30.0, 329.07005720119923, -11.062624068930745, 298.85914535913616, 51.352566291578114, -0.04800000227987766, -0.04800000227987766, 1.0400000493973494, 0.0, 0.0, 0.0, 0.0, 0.0, 1.76220647610655E9, 0.0, 2025-11-03 16:47:56.106
31.0, 210.59750640485436, -113.87621375080198, 187.73923787567765, -57.721615916118026, -0.04800000227987766, -0.04800000227987766, 1.0400000493973494, 0.0, 0.0, 0.0, 0.0, 0.0, 1.7622064761202133E9, 0.0, 2025-11-03 16:47:56.120
31.0, 271.2437240863219, -64.72270863316953, 241.0028930446133, -0.5535051934421062, -0.04800000227987766, -0.04800000227987766, 1.0400000493973494, 0.0, 0.0, 0.0, 0.0, 0.0, 1.7622064761202133E9, 0.0, 2025-11-03 16:47:56.120
32.0, 379.97383549809456, 30.771896835416555, 342.07368934713304, 88.80766434781253, -0.04800000227987766, -0.04800000227987766, 1.0400000493973494, 0.0, 0.0, 0.0, 0.0, 0.0, 1.7622064761359863E9, 0.0, 2025-11-03 16:47:56.135
32.0, 233.10422433819622, -90.6738744257018, 210.61246600467712, -34.71375138871372, -0.04800000227987766, -0.04800000227987766, 1.0400000493973494, 0.0, 0.0, 0.0, 0.0, 0.0, 1.7622064761359863E9, 0.0, 2025-11-03 16:47:56.135
33.0, 229.1848091846332, -97.02048465050757, 201.580607611686, -42.96023079100996, -0.04800000227987766, -0.04800000227987766, 1.0400000493973494, 0.0, 0.0, 0.0, 0.0, 0.0, 1.7622064761364903E9, 0.0, 2025-11-03 16:47:56.136
33.0, 360.9414846235886, 15.079276621341705, 327.69003411754966, 83.84107720665634, -0.04800000227987766, -0.04800000227987766, 1.0400000493973494, 0.0, 0.0, 0.0, 0.0, 0.0, 1.7622064761364903E9, 0.0, 2025-11-03 16:47:56.136
34.0, 269.02970331255347, -58.6565909050405, 242.36421662848443, 1.6979145798832178, -0.04800000227987766, -0.04800000227987766, 1.0400000493973494, 0.0, 0.0, 0.0, 0.0, 0.0, 1.762206476166498E9, 0.0, 2025-11-03 16:47:56.166
34.0, 209.6176526164636, -111.30690248124301, 191.34450143296272, -53.52918806578964, -0.04800000227987766, -0.04800000227987766, 1.0400000493973494, 0.0, 0.0, 0.0, 0.0, 0.0, 1.762206476166498E9, 0.0, 2025-11-03 16:47:56.166
35.0, 306.4399225693196, -37.230704058893025, 269.9497187016532, 28.58405536133796, -0.04800000227987766, -0.04800000227987766, 1.0400000493973494, 0.0, 0.0, 0.0, 0.0, 0.0, 1.7622064761672106E9, 0.0, 2025-11-03 16:47:56.167
35.0, 323.4789067674428, -16.14140820875764, 295.1042858036235, 51.60687948856503, -0.04800000227987766, -0.04800000227987766, 1.0400000493973494, 0.0, 0.0, 0.0, 0.0, 0.0, 1.7622064761672106E9, 0.0, 2025-11-03 16:47:56.167
36.0, 210.8032009024173, -115.03932263702154, 182.39492083899677, -53.86951896175742, -0.04800000227987766, -0.04800000227987766, 1.0400000493973494, 0.0, 0.0, 0.0, 0.0, 0.0, 1.7622064761679568E9, 0.0, 2025-11-03 16:47:56.167
36.0, 258.2662712400779, -72.02299334667623, 227.8534048004076, -14.664147726260126, -0.04800000227987766, -0.04800000227987766, 1.0400000493973494, 0.0, 0.0, 0.0, 0.0, 0.0, 1.7622064761679568E9, 0.0, 2025-11-03 16:47:56.167
37.0, 374.37520526442677, 28.9393458571285, 338.84615568537265, 88.65058854967356, -0.04800000227987766, -0.04800000227987766, 1.0400000493973494, 0.0, 0.0, 0.0, 0.0, 0.0, 1.7622064761802692E9, 0.0, 2025-11-03 16:47:56.180
37.0, 225.23173493146896, -97.05040385015309, 201.2028777161613, -31.931265821680427, -0.04800000227987766, -0.04800000227987766, 1.0400000493973494, 0.0, 0.0, 0.0, 0.0, 0.0, 1.7622064761802692E9, 0.0, 2025-11-03 16:47:56.180
38.0, 216.05028054025024, -116.0191764254123, 181.1944129532203, -62.35535196121782, -0.04800000227987766, -0.04800000227987766, 1.0400000493973494, 0.0, 0.0, 0.0, 0.0, 0.0, 1.7622064761958387E9, 0.0, 2025-11-03 16:47:56.195
38.0, 356.59198097512126, 8.325017301365733, 313.8150052819401, 65.53052702359855, -0.04800000227987766, -0.04800000227987766, 1.0400000493973494, 0.0, 0.0, 0.0, 0.0, 0.0, 1.7622064761958387E9, 0.0, 2025-11-03 16:47:56.195
39.0, 272.99399726558477, -55.780607839114964, 241.7433932358399, -2.0793843753635883, -0.04800000227987766, -0.04800000227987766, 1.0400000493973494, 0.0, 0.0, 0.0, 0.0, 0.0, 1.762206476196538E9, 0.0, 2025-11-03 16:47:56.196
39.0, 213.5819465694949, -112.0885415719822, 184.9754518084228, -55.24206224549562, -0.04800000227987766, -0.04800000227987766, 1.0400000493973494, 0.0, 0.0, 0.0, 0.0, 0.0, 1.762206476196538E9, 0.0, 2025-11-03 16:47:56.196
40.0, 302.479368516244, -38.053482049144804, 267.3056094329804, 25.124647902324796, -0.04800000227987766, -0.04800000227987766, 1.0400000493973494, 0.0, 0.0, 0.0, 0.0, 0.0, 1.762206476210219E9, 0.0, 2025-11-03 16:47:56.210
40.0, 334.54153083637357, 5.983839929103851, 308.968094939366, 64.81620613206178, -0.04800000227987766, -0.04800000227987766, 1.0400000493973494, 0.0, 0.0, 0.0, 0.0, 0.0, 1.762206476210219E9, 0.0, 2025-11-03 16:47:56.210
41.0, 202.01069610659033, -114.7214311407879, 181.4599458500743, -51.719076487235725, -0.04800000227987766, -0.04800000227987766, 1.0400000493973494, 0.0, 0.0, 0.0, 0.0, 0.0, 1.762206476225837E9, 0.0, 2025-11-03 16:47:56.225
41.0, 249.99735243804753, -81.82527113053948, 219.35635210108012, -17.74582528974861, -0.04800000227987766, -0.04800000227987766, 1.0400000493973494, 0.0, 0.0, 0.0, 0.0, 0.0, 1.762206476225837E9, 0.0, 2025-11-03 16:47:56.225
42.0, 362.5159825049341, 21.538083844818175, 331.6356285708025, 88.25041925441474, -0.04800000227987766, -0.04800000227987766, 1.0400000493973494, 0.0, 0.0, 0.0, 0.0, 0.0, 1.7622064762265456E9, 0.0, 2025-11-03 16:47:56.226
42.0, 231.47362795751542, -93.90140808746219, 204.96895697154105, -25.924986492842436, -0.04800000227987766, -0.04800000227987766, 1.0400000493973494, 0.0, 0.0, 0.0, 0.0, 0.0, 1.7622064762265456E9, 0.0, 2025-11-03 16:47:56.226
43.0, 224.48749484028667, -103.2698574764654, 191.1275872355327, -52.130465482361615, -0.04800000227987766, -0.04800000227987766, 1.0400000493973494, 0.0, 0.0, 0.0, 0.0, 0.0, 1.7622064762401972E9, 0.0, 2025-11-03 16:47:56.240
43.0, 348.8690875666216, 9.802277783863246, 312.16570940148085, 61.64103106968105, -0.04800000227987766, -0.04800000227987766, 1.0400000493973494, 0.0, 0.0, 0.0, 0.0, 0.0, 1.7622064762401972E9, 0.0, 2025-11-03 16:47:56.240
44.0, 272.4255324723199, -49.4302577143535, 251.1903805239126, 3.2387533616274595, -0.04800000227987766, -0.04800000227987766, 1.0400000493973494, 0.0, 0.0, 0.0, 0.0, 0.0, 1.7622064762559211E9, 0.0, 2025-11-03 16:47:56.255
44.0, 213.97089616488665, -105.95510564465076, 189.7924429513514, -54.116352358832955, -0.04800000227987766, -0.04800000227987766, 1.0400000493973494, 0.0, 0.0, 0.0, 0.0, 0.0, 1.7622064762559211E9, 0.0, 2025-11-03 16:47:56.255
45.0, 301.4808152280748, -32.19305881857872, 270.22273139841855, 24.832935705780983, -0.04800000227987766, -0.04800000227987766, 1.0400000493973494, 0.0, 0.0, 0.0, 0.0, 0.0, 1.7622064762565613E9, 0.0, 2025-11-03 16:47:56.256
45.0, 328.9316809028387, -7.820130807347596, 295.30624040123075, 50.855159597471356, -0.04800000227987766, -0.04800000227987766, 1.0400000493973494, 0.0, 0.0, 0.0, 0.0, 0.0, 1.7622064762565613E9, 0.0, 2025-11-03 16:47:56.256
46.0, 211.33052679616958, -109.05548270791769, 184.18259301781654, -57.88243161421269, -0.04800000227987766, -0.04800000227987766, 1.0400000493973494, 0.0, 0.0, 0.0, 0.0, 0.0, 1.762206476270164E9, 0.0, 2025-11-03 16:47:56.270
46.0, 240.7448399476707, -83.82611760683358, 213.5819465694949, -26.687926083803177, -0.04800000227987766, -0.04800000227987766, 1.0400000493973494, 0.0, 0.0, 0.0, 0.0, 0.0, 1.762206476270164E9, 0.0, 2025-11-03 16:47:56.270
47.0, 367.18711754959077, 27.162893378175795, 329.07005720119923, 79.79824535455555, -0.04800000227987766, -0.04800000227987766, 1.0400000493973494, 0.0, 0.0, 0.0, 0.0, 0.0, 1.7622064762859268E9, 0.0, 2025-11-03 16:47:56.285
47.0, 223.50016125198454, -93.05619069747627, 202.08175420574844, -43.10608688928187, -0.04800000227987766, -0.04800000227987766, 1.0400000493973494, 0.0, 0.0, 0.0, 0.0, 0.0, 1.7622064762859268E9, 0.0, 2025-11-03 16:47:56.285
48.0, 221.20386267919093, -102.78367048222572, 194.81886849179864, -45.85117345675826, -0.04800000227987766, -0.04800000227987766, 1.0400000493973494, 0.0, 0.0, 0.0, 0.0, 0.0, 1.7622064762865417E9, 0.0, 2025-11-03 16:47:56.286
48.0, 351.56181553471833, 9.813497483730316, 311.7468406064436, 61.8803846668452, -0.04800000227987766, -0.04800000227987766, 1.0400000493973494, 0.0, 0.0, 0.0, 0.0, 0.0, 1.7622064762865417E9, 0.0, 2025-11-03 16:47:56.286
49.0, 271.73365098051727, -52.32494028005749, 248.0413847612217, 9.996752581559122, -0.04800000227987766, -0.04800000227987766, 1.0400000493973494, 0.0, 0.0, 0.0, 0.0, 0.0, 1.7622064763002455E9, 0.0, 2025-11-03 16:47:56.300
49.0, 230.72938786633313, -98.03399753849953, 198.1361597524956, -42.72087719384581, -0.04800000227987766, -0.04800000227987766, 1.0400000493973494, 0.0, 0.0, 0.0, 0.0, 0.0, 1.7622064763002455E9, 0.0, 2025-11-03 16:47:56.300
50.0, 292.2208229377866, -48.446664026007056, 255.77175796963274, 3.9642939530313015, -0.04800000227987766, -0.04800000227987766, 1.0400000493973494, 0.0, 0.0, 0.0, 0.0, 0.0, 1.7622064763158343E9, 0.0, 2025-11-03 16:47:56.315
50.0, 322.5701110782102, -11.911581358872354, 298.90402415860444, 48.891712120734155, -0.04800000227987766, -0.04800000227987766, 1.0400000493973494, 0.0, 0.0, 0.0, 0.0, 0.0, 1.7622064763158343E9, 0.0, 2025-11-03 16:47:56.315
51.0, 209.45309701841325, -109.35841460432857, 190.0916349478066, -49.295621315948665, -0.04800000227987766, -0.04800000227987766, 1.0400000493973494, 0.0, 0.0, 0.0, 0.0, 0.0, 1.7622064763165445E9, 0.0, 2025-11-03 16:47:56.316
51.0, 256.92364715598524, -73.21228153258562, 225.86377802398056, -8.358676400966942, -0.04800000227987766, -0.04800000227987766, 1.0400000493973494, 0.0, 0.0, 0.0, 0.0, 0.0, 1.7622064763165445E9, 0.0, 2025-11-03 16:47:56.316
52.0, 371.1027928031981, 31.284263129346073, 338.902254184708, 90.18768743146211, -0.04800000227987766, -0.04800000227987766, 1.0400000493973494, 0.0, 0.0, 0.0, 0.0, 0.0, 1.7622064763302717E9, 0.0, 2025-11-03 16:47:56.330
52.0, 227.90950329974294, -93.8228701883927, 202.89705239608884, -45.61929965950549, -0.04800000227987766, -0.04800000227987766, 1.0400000493973494, 0.0, 0.0, 0.0, 0.0, 0.0, 1.7622064763302717E9, 0.0, 2025-11-03 16:47:56.330
53.0, 240.15767565462738, -89.58556353859603, 209.22870302107185, -39.601800630800426, -0.04800000227987766, -0.04800000227987766, 1.0400000493973494, 0.0, 0.0, 0.0, 0.0, 0.0, 1.762206476346048E9, 0.0, 2025-11-03 16:47:56.346
53.0, 368.3277870360762, 21.3436090471223, 326.65034192986786, 80.91647544130683, -0.04800000227987766, -0.04800000227987766, 1.0400000493973494, 0.0, 0.0, 0.0, 0.0, 0.0, 1.762206476346048E9, 0.0, 2025-11-03 16:47:56.346
54.0, 277.9157056072727, -47.19379754085094, 249.01749864965677, 0.23935359716415405, -0.04800000227987766, -0.04800000227987766, 1.0400000493973494, 0.0, 0.0, 0.0, 0.0, 0.0, 1.7622064763465643E9, 0.0, 2025-11-03 16:47:56.346
54.0, 223.6946360496804, -99.12978822551668, 192.93769881408662, -55.4701961427927, -0.04800000227987766, -0.04800000227987766, 1.0400000493973494, 0.0, 0.0, 0.0, 0.0, 0.0, 1.7622064763465643E9, 0.0, 2025-11-03 16:47:56.346
55.0, 312.90994949266315, -31.284263129346073, 269.4523120075464, 21.429626746103168, -0.04800000227987766, -0.04800000227987766, 1.0400000493973494, 0.0, 0.0, 0.0, 0.0, 0.0, 1.7622064763603275E9, 0.0, 2025-11-03 16:47:56.360
55.0, 325.64804874174297, -10.662454773671925, 295.2501419018954, 48.087633630260825, -0.04800000227987766, -0.04800000227987766, 1.0400000493973494, 0.0, 0.0, 0.0, 0.0, 0.0, 1.7622064763603275E9, 0.0, 2025-11-03 16:47:56.360
56.0, 200.7578296214342, -116.65869931783527, 178.86819518078119, -61.47647547163069, -0.04800000227987766, -0.04800000227987766, 1.0400000493973494, 0.0, 0.0, 0.0, 0.0, 0.0, 1.7622064763758285E9, 0.0, 2025-11-03 16:47:56.375
56.0, 259.62385492399335, -66.61883791070431, 231.2567137600854, -12.90639474708587, -0.04800000227987766, -0.04800000227987766, 1.0400000493973494, 0.0, 0.0, 0.0, 0.0, 0.0, 1.7622064763758285E9, 0.0, 2025-11-03 16:47:56.375
57.0, 375.2952206535265, 28.860807958059013, 344.43730611912906, 97.58146964386106, -0.04800000227987766, -0.04800000227987766, 1.0400000493973494, 0.0, 0.0, 0.0, 0.0, 0.0, 1.762206476376532E9, 0.0, 2025-11-03 16:47:56.376
57.0, 237.49860678613186, -84.12530960328877, 216.6224852334708, -24.96009230427444, -0.04800000227987766, -0.04800000227987766, 1.0400000493973494, 0.0, 0.0, 0.0, 0.0, 0.0, 1.762206476376532E9, 0.0, 2025-11-03 16:47:56.376
58.0, 243.370249716565, -90.13532883208245, 211.27442829683423, -36.68841856531799, -0.04800000227987766, -0.04800000227987766, 1.0400000493973494, 0.0, 0.0, 0.0, 0.0, 0.0, 1.762206476390184E9, 0.0, 2025-11-03 16:47:56.390
58.0, 354.14982630405575, 7.25166601408273, 314.64900297205895, 67.04892640560865, -0.04800000227987766, -0.04800000227987766, 1.0400000493973494, 0.0, 0.0, 0.0, 0.0, 0.0, 1.762206476390184E9, 0.0, 2025-11-03 16:47:56.390
59.0, 284.8307806253433, -45.78385525755584, 260.6448476118967, 5.422854935750365, -0.04800000227987766, -0.04800000227987766, 1.0400000493973494, 0.0, 0.0, 0.0, 0.0, 0.0, 1.7622064764058456E9, 0.0, 2025-11-03 16:47:56.405
59.0, 226.06199272163212, -98.60994213167578, 201.6516657108441, -46.55053474847227, -0.04800000227987766, -0.04800000227987766, 1.0400000493973494, 0.0, 0.0, 0.0, 0.0, 0.0, 1.7622064764058456E9, 0.0, 2025-11-03 16:47:56.405
60.0, 327.3459633216262, -14.06950363330543, 289.04564787540585, 36.19849167112261, -0.04800000227987766, -0.04800000227987766, 1.0400000493973494, 0.0, 0.0, 0.0, 0.0, 0.0, 1.7622064764065185E9, 0.0, 2025-11-03 16:47:56.406
60.0, 337.8663018969819, 7.969726805575192, 316.5937509490177, 56.6183454291895, -0.04800000227987766, -0.04800000227987766, 1.0400000493973494, 0.0, 0.0, 0.0, 0.0, 0.0, 1.7622064764065185E9, 0.0, 2025-11-03 16:47:56.406
61.0, 216.75338173191994, -108.32994211651385, 183.50941102579236, -70.07450546976179, -0.04800000227987766, -0.04800000227987766, 1.0400000493973494, 0.0, 0.0, 0.0, 0.0, 0.0, 1.7622064764202535E9, 0.0, 2025-11-03 16:47:56.420
61.0, 258.95067293196917, -76.3350979955867, 219.98465529363602, -31.467518227174878, -0.04800000227987766, -0.04800000227987766, 1.0400000493973494, 0.0, 0.0, 0.0, 0.0, 0.0, 1.7622064764202535E9, 0.0, 2025-11-03 16:47:56.420
62.0, 375.94596324581653, 27.7163985716179, 334.2984373392537, 80.38914954755455, -0.04800000227987766, -0.04800000227987766, 1.0400000493973494, 0.0, 0.0, 0.0, 0.0, 0.0, 1.7622064764358568E9, 0.0, 2025-11-03 16:47:56.435
62.0, 226.52574031613767, -101.85243539325893, 191.80450912751257, -66.4393227128312, -0.04800000227987766, -0.04800000227987766, 1.0400000493973494, 0.0, 0.0, 0.0, 0.0, 0.0, 1.7622064764358568E9, 0.0, 2025-11-03 16:47:56.435
63.0, 238.91228896938264, -95.27395137120038, 194.96846449002624, -57.47852241899818, -0.04800000227987766, -0.04800000227987766, 1.0400000493973494, 0.0, 0.0, 0.0, 0.0, 0.0, 1.7622064764365363E9, 0.0, 2025-11-03 16:47:56.436
63.0, 367.04874125123024, 12.008818757720292, 316.32447815220803, 57.336406220681965, -0.04800000227987766, -0.04800000227987766, 1.0400000493973494, 0.0, 0.0, 0.0, 0.0, 0.0, 1.7622064764365363E9, 0.0, 2025-11-03 16:47:56.436
64.0, 277.3584605138749, -59.17269709892571, 237.68560178391635, -23.262177724391222, -0.04800000227987766, -0.04800000227987766, 1.0400000493973494, 0.0, 0.0, 0.0, 0.0, 0.0, 1.7622064764501443E9, 0.0, 2025-11-03 16:47:56.450
64.0, 223.52634055167437, -110.65615988895297, 173.99136563856155, -83.01455931644887, -0.04800000227987766, -0.04800000227987766, 1.0400000493973494, 0.0, 0.0, 0.0, 0.0, 0.0, 1.7622064764501443E9, 0.0, 2025-11-03 16:47:56.450
65.0, 313.4858940858394, -35.92547897435725, 260.8729815091938, -2.098083875142038, -0.04800000227987766, -0.04800000227987766, 1.0400000493973494, 0.0, 0.0, 0.0, 0.0, 0.0, 1.7622064764658377E9, 0.0, 2025-11-03 16:47:56.465
65.0, 349.89008025452495, -4.349503648467362, 297.8493723710999, 35.76092337630689, -0.04800000227987766, -0.04800000227987766, 1.0400000493973494, 0.0, 0.0, 0.0, 0.0, 0.0, 1.7622064764658377E9, 0.0, 2025-11-03 16:47:56.465
66.0, 210.93035750091076, -124.49752962496132, 164.29380505345762, -85.2622391898185, -0.04800000227987766, -0.04800000227987766, 1.0400000493973494, 0.0, 0.0, 0.0, 0.0, 0.0, 1.7622064764665253E9, 0.0, 2025-11-03 16:47:56.466
66.0, 275.52590953558683, -69.2928663790226, 220.1454709917307, -40.60783371888101, -0.04800000227987766, -0.04800000227987766, 1.0400000493973494, 0.0, 0.0, 0.0, 0.0, 0.0, 1.7622064764665253E9, 0.0, 2025-11-03 16:47:56.466
67.0, 392.1472098538652, 28.52047706209123, 328.65866820607334, 59.64766439329833, -0.04800000227987766, -0.04800000227987766, 1.0400000493973494, 0.0, 0.0, 0.0, 0.0, 0.0, 1.7622064764801652E9, 0.0, 2025-11-03 16:47:56.480
67.0, 226.41354331746697, -110.9403922855854, 176.16424751281738, -89.71272013708949, -0.04800000227987766, -0.04800000227987766, 1.0400000493973494, 0.0, 0.0, 0.0, 0.0, 0.0, 1.7622064764801652E9, 0.0, 2025-11-03 16:47:56.480
68.0, 227.02314701024443, -117.85920720361173, 165.0754441441968, -100.68932650703937, -0.04800000227987766, -0.04800000227987766, 1.0400000493973494, 0.0, 0.0, 0.0, 0.0, 0.0, 1.7622064764959776E9, 0.0, 2025-11-03 16:47:56.495
68.0, 358.7985219489783, -7.158168515190482, 286.3267406076193, 20.86490185279399, -0.04800000227987766, -0.04800000227987766, 1.0400000493973494, 0.0, 0.0, 0.0, 0.0, 0.0, 1.7622064764959776E9, 0.0, 2025-11-03 16:47:56.495
69.0, 281.4760903650895, -65.41459012497216, 222.8419388597831, -43.10608688928187, -0.04800000227987766, -0.04800000227987766, 1.0400000493973494, 0.0, 0.0, 0.0, 0.0, 0.0, 1.7622064764965465E9, 0.0, 2025-11-03 16:47:56.496
69.0, 243.41886841598898, -99.84784901700914, 184.41446681506932, -71.77989984955639, -0.04800000227987766, -0.04800000227987766, 1.0400000493973494, 0.0, 0.0, 0.0, 0.0, 0.0, 1.7622064764965465E9, 0.0, 2025-11-03 16:47:56.496
70.0, 331.7553053693846, -28.22128506563604, 255.84655596874654, -8.721446696668863, -0.04800000227987766, -0.04800000227987766, 1.0400000493973494, 0.0, 0.0, 0.0, 0.0, 0.0, 1.7622064765102165E9, 0.0, 2025-11-03 16:47:56.510
70.0, 353.1587528157979, -4.312104648910463, 289.82354706618935, 24.59732200857252, -0.04800000227987766, -0.04800000227987766, 1.0400000493973494, 0.0, 0.0, 0.0, 0.0, 0.0, 1.7622064765102165E9, 0.0, 2025-11-03 16:47:56.510
71.0, 232.76015354227275, -113.46856465563178, 170.64789507817477, -97.74602524191141, -0.04800000227987766, -0.04800000227987766, 1.0400000493973494, 0.0, 0.0, 0.0, 0.0, 0.0, 1.7622064765258448E9, 0.0, 2025-11-03 16:47:56.525
71.0, 320.8160979989916, -40.903285815380514, 244.76149250008166, -22.746071530506015, -0.04800000227987766, -0.04800000227987766, 1.0400000493973494, 0.0, 0.0, 0.0, 0.0, 0.0, 1.7622064765258448E9, 0.0, 2025-11-03 16:47:56.525
72.0, 386.94874891545624, 17.042724098078907, 311.56732540857047, 40.447018020786345, -0.04800000227987766, -0.04800000227987766, 1.0400000493973494, 0.0, 0.0, 0.0, 0.0, 0.0, 1.7622064765265253E9, 0.0, 2025-11-03 16:47:56.526
72.0, 236.38037669938058, -111.69211217667907, 170.70025367755443, -97.01300485059619, -0.04800000227987766, -0.04800000227987766, 1.0400000493973494, 0.0, 0.0, 0.0, 0.0, 0.0, 1.7622064765265253E9, 0.0, 2025-11-03 16:47:56.526
73.0, 235.90166950505227, -105.27818375267088, 187.44004587922245, -80.6322430446744, -0.04800000227987766, -0.04800000227987766, 1.0400000493973494, 0.0, 0.0, 0.0, 0.0, 0.0, 1.7622064765402033E9, 0.0, 2025-11-03 16:47:56.540
73.0, 393.79276583436877, 29.649926848709583, 328.47541310824454, 53.90317806135863, -0.04800000227987766, -0.04800000227987766, 1.0400000493973494, 0.0, 0.0, 0.0, 0.0, 0.0, 1.7622064765402033E9, 0.0, 2025-11-03 16:47:56.540
74.0, 322.72718687634915, -21.246371648274362, 273.0912346644327, 8.654128497466445, -0.04800000227987766, -0.04800000227987766, 1.0400000493973494, 0.0, 0.0, 0.0, 0.0, 0.0, 1.762206476555824E9, 0.0, 2025-11-03 16:47:56.555
74.0, 248.33309695776552, -90.86834922339767, 198.6522659463808, -59.10911879967898, -0.04800000227987766, -0.04800000227987766, 1.0400000493973494, 0.0, 0.0, 0.0, 0.0, 0.0, 1.762206476555824E9, 0.0, 2025-11-03 16:47:56.555
75.0, 335.47650582529604, -23.879261217080057, 270.566802194342, -0.04861869942396879, -0.04800000227987766, -0.04800000227987766, 1.0400000493973494, 0.0, 0.0, 0.0, 0.0, 0.0, 1.7622064765565236E9, 0.0, 2025-11-03 16:47:56.556
75.0, 359.9391914354637, 4.682354744523764, 293.97109611704946, 16.975405898876488, -0.04800000227987766, -0.04800000227987766, 1.0400000493973494, 0.0, 0.0, 0.0, 0.0, 0.0, 1.7622064765565236E9, 0.0, 2025-11-03 16:47:56.556
76.0, 252.8247168045491, -91.38819531723857, 187.05857608374208, -79.9628009526059, -0.04800000227987766, -0.04800000227987766, 1.0400000493973494, 0.0, 0.0, 0.0, 0.0, 0.0, 1.76220647657027E9, 0.0, 2025-11-03 16:47:56.570
76.0, 275.4959903359413, -82.86122341826558, 204.89041907247156, -64.23278173897415, -0.04800000227987766, -0.04800000227987766, 1.0400000493973494, 0.0, 0.0, 0.0, 0.0, 0.0, 1.76220647657027E9, 0.0, 2025-11-03 16:47:56.570
77.0, 396.20874120574445, 31.43011922761798, 326.5231853313744, 60.548980282619596, -0.04800000227987766, -0.04800000227987766, 1.0400000493973494, 0.0, 0.0, 0.0, 0.0, 0.0, 1.7622064765858257E9, 0.0, 2025-11-03 16:47:56.585
77.0, 239.64904926065356, -101.17177360132337, 182.10320864245296, -79.08392446301877, -0.04800000227987766, -0.04800000227987766, 1.0400000493973494, 0.0, 0.0, 0.0, 0.0, 0.0, 1.7622064765858257E9, 0.0, 2025-11-03 16:47:56.585
78.0, 267.8740742262453, -76.51461319345981, 207.99453603569418, -52.71388987544924, -0.04800000227987766, -0.04800000227987766, 1.0400000493973494, 0.0, 0.0, 0.0, 0.0, 0.0, 1.762206476586546E9, 0.0, 2025-11-03 16:47:56.586
78.0, 382.53566696774215, 24.829195805825293, 316.7844858467579, 52.38851857930422, -0.04800000227987766, -0.04800000227987766, 1.0400000493973494, 0.0, 0.0, 0.0, 0.0, 0.0, 1.762206476586546E9, 0.0, 2025-11-03 16:47:56.586
79.0, 295.63909149728715, -45.48840316105634, 248.32187725789845, -20.09822236187756, -0.04800000227987766, -0.04800000227987766, 1.0400000493973494, 0.0, 0.0, 0.0, 0.0, 0.0, 1.7622064766001396E9, 0.0, 2025-11-03 16:47:56.600
79.0, 236.58233129698783, -103.6401075720787, 187.92249297350645, -80.75565974321216, -0.04800000227987766, -0.04800000227987766, 1.0400000493973494, 0.0, 0.0, 0.0, 0.0, 0.0, 1.7622064766001396E9, 0.0, 2025-11-03 16:47:56.600
80.0, 323.5163057669997, -30.379207340069115, 263.535790277645, -1.2753058848902583, -0.04800000227987766, -0.04800000227987766, 1.0400000493973494, 0.0, 0.0, 0.0, 0.0, 0.0, 1.762206476616198E9, 0.0, 2025-11-03 16:47:56.616
80.0, 339.8596685733646, -6.634582521393895, 290.2573754610494, 22.95176602806896, -0.04800000227987766, -0.04800000227987766, 1.0400000493973494, 0.0, 0.0, 0.0, 0.0, 0.0, 1.762206476616198E9, 0.0, 2025-11-03 16:47:56.616
81.0, 237.9324351809919, -98.79319722950459, 192.88534021470696, -64.1056251404807, -0.04800000227987766, -0.04800000227987766, 1.0400000493973494, 0.0, 0.0, 0.0, 0.0, 0.0, 1.762206476616557E9, 0.0, 2025-11-03 16:47:56.616
81.0, 276.0158364297822, -77.37853008322418, 216.81322013121098, -47.50046933721751, -0.04800000227987766, -0.04800000227987766, 1.0400000493973494, 0.0, 0.0, 0.0, 0.0, 0.0, 1.762206476616557E9, 0.0, 2025-11-03 16:47:56.616
82.0, 394.2976523283869, 35.207418182864785, 337.13702140562236, 67.79316649679095, -0.04800000227987766, -0.04800000227987766, 1.0400000493973494, 0.0, 0.0, 0.0, 0.0, 0.0, 1.762206476630391E9, 0.0, 2025-11-03 16:47:56.630
82.0, 243.73675991222262, -92.10251620877534, 197.67989195790142, -57.92357051372528, -0.04800000227987766, -0.04800000227987766, 1.0400000493973494, 0.0, 0.0, 0.0, 0.0, 0.0, 1.762206476630391E9, 0.0, 2025-11-03 16:47:56.630
83.0, 278.4318118011579, -64.93588293064386, 225.20555563177913, -36.426625568419695, -0.04800000227987766, -0.04800000227987766, 1.0400000493973494, 0.0, 0.0, 0.0, 0.0, 0.0, 1.762206476646021E9, 0.0, 2025-11-03 16:47:56.646
83.0, 363.81746768951416, 0.7591996910050511, 297.00415498111397, 34.059268896467984, -0.04800000227987766, -0.04800000227987766, 1.0400000493973494, 0.0, 0.0, 0.0, 0.0, 0.0, 1.762206476646021E9, 0.0, 2025-11-03 16:47:56.646
84.0, 294.7340357080102, -46.79362824559212, 243.7479796120897, -17.611188891343772, -0.04800000227987766, -0.04800000227987766, 1.0400000493973494, 0.0, 0.0, 0.0, 0.0, 0.0, 1.7622064766465187E9, 0.0, 2025-11-03 16:47:56.646
84.0, 241.30582494102418, -94.84386287629604, 192.836721515283, -67.13868400454521, -0.04800000227987766, -0.04800000227987766, 1.0400000493973494, 0.0, 0.0, 0.0, 0.0, 0.0, 1.7622064766465187E9, 0.0, 2025-11-03 16:47:56.646
85.0, 314.8958363691345, -30.872874134220183, 264.10799497086555, 4.600076945498586, -0.04800000227987766, -0.04800000227987766, 1.0400000493973494, 0.0, 0.0, 0.0, 0.0, 0.0, 1.7622064766765244E9, 0.0, 2025-11-03 16:47:56.676
85.0, 360.6460325270891, 14.252758731134236, 301.86976482346654, 40.20766442362219, -0.04800000227987766, -0.04800000227987766, 1.0400000493973494, 0.0, 0.0, 0.0, 0.0, 0.0, 1.7622064766765244E9, 0.0, 2025-11-03 16:47:56.676
86.0, 240.23621355369687, -99.94134651590139, 185.15496700629592, -75.45248160604388, -0.04800000227987766, -0.04800000227987766, 1.0400000493973494, 0.0, 0.0, 0.0, 0.0, 0.0, 1.7622064766772456E9, 0.0, 2025-11-03 16:47:56.677
86.0, 270.03573640063405, -73.37309723068029, 214.8086337549612, -41.707364305853844, -0.04800000227987766, -0.04800000227987766, 1.0400000493973494, 0.0, 0.0, 0.0, 0.0, 0.0, 1.7622064766772456E9, 0.0, 2025-11-03 16:47:56.677
87.0, 379.13235800806433, 22.446879534050822, 326.68774092942476, 63.94106954243034, -0.04800000227987766, -0.04800000227987766, 1.0400000493973494, 0.0, 0.0, 0.0, 0.0, 0.0, 1.762206476677978E9, 0.0, 2025-11-03 16:47:56.677
87.0, 234.035459427163, -93.51993829198182, 199.6096803350374, -56.554767129942775, -0.04800000227987766, -0.04800000227987766, 1.0400000493973494, 0.0, 0.0, 0.0, 0.0, 0.0, 1.762206476677978E9, 0.0, 2025-11-03 16:47:56.677
88.0, 245.24767949432135, -97.68618684262037, 190.33472844492644, -71.57046545203775, -0.04800000227987766, -0.04800000227987766, 1.0400000493973494, 0.0, 0.0, 0.0, 0.0, 0.0, 1.7622064766903288E9, 0.0, 2025-11-03 16:47:56.690
88.0, 374.79407405946404, 14.727726025506854, 312.7042549951002, 53.07666017115116, -0.04800000227987766, -0.04800000227987766, 1.0400000493973494, 0.0, 0.0, 0.0, 0.0, 0.0, 1.7622064766903288E9, 0.0, 2025-11-03 16:47:56.690
89.0, 287.41131159476936, -49.740669410675764, 241.55265833809972, -19.926186963915825, -0.04800000227987766, -0.04800000227987766, 1.0400000493973494, 0.0, 0.0, 0.0, 0.0, 0.0, 1.76220647670596E9, 0.0, 2025-11-03 16:47:56.705
89.0, 232.82747174147516, -105.30062315240502, 183.9058404210955, -70.99078095890582, -0.04800000227987766, -0.04800000227987766, 1.0400000493973494, 0.0, 0.0, 0.0, 0.0, 0.0, 1.76220647670596E9, 0.0, 2025-11-03 16:47:56.705
90.0, 323.68834116496146, -29.492851050570607, 264.4595455667004, 7.891188906505704, -0.04800000227987766, -0.04800000227987766, 1.0400000493973494, 0.0, 0.0, 0.0, 0.0, 0.0, 1.7622064767065208E9, 0.0, 2025-11-03 16:47:56.706
90.0, 367.437690846622, 13.616975738666952, 308.0069406507537, 46.060607854276896, -0.04800000227987766, -0.04800000227987766, 1.0400000493973494, 0.0, 0.0, 0.0, 0.0, 0.0, 1.7622064767065208E9, 0.0, 2025-11-03 16:47:56.706
91.0, 237.038599091582, -101.28023070003837, 186.4601920908317, -71.14785675704479, -0.04800000227987766, -0.06400000303983688, 1.0400000493973494, 0.0, 0.0, 0.0, 0.0, 0.0, 1.762206476720183E9, 0.0, 2025-11-03 16:47:56.720
91.0, 282.6952977506444, -66.27102721482515, 222.57640596292913, -30.65595993679017, -0.04800000227987766, -0.06400000303983688, 1.0400000493973494, 0.0, 0.0, 0.0, 0.0, 0.0, 1.762206476720183E9, 0.0, 2025-11-03 16:47:56.720
92.0, 409.2684718510136, 52.05566748324782, 354.7145511973649, 85.99525958113372, -0.04800000227987766, -0.06400000303983688, 1.0400000493973494, 0.0, 0.0, 0.0, 0.0, 0.0, 1.7622064767359197E9, 0.0, 2025-11-03 16:47:56.735
92.0, 246.8259172756225, -80.0749979512766, 210.4366907067597, -51.52086178958416, -0.04800000227987766, -0.06400000303983688, 1.0400000493973494, 0.0, 0.0, 0.0, 0.0, 0.0, 1.7622064767359197E9, 0.0, 2025-11-03 16:47:56.735
93.0, 252.7835779050365, -81.40640233550221, 211.7643551910296, -44.497329672798514, -0.04800000227987766, -0.06400000303983688, 1.0400000493973494, 0.0, 0.0, 0.0, 0.0, 0.0, 1.7622064767365649E9, 0.0, 2025-11-03 16:47:56.736
93.0, 397.7907188870013, 46.56549434829503, 352.4332122243941, 89.50328573957086, -0.04800000227987766, -0.06400000303983688, 1.0400000493973494, 0.0, 0.0, 0.0, 0.0, 0.0, 1.7622064767365649E9, 0.0, 2025-11-03 16:47:56.736
94.0, 317.6671022363007, -16.021731410175562, 288.8100341781974, 40.57791451923549, -0.04800000227987766, -0.06400000303983688, 1.0400000493973494, 0.0, 0.0, 0.0, 0.0, 0.0, 1.7622064767501783E9, 0.0, 2025-11-03 16:47:56.750
94.0, 250.94354712683707, -79.78328575473279, 217.42656372394413, -34.414559392258525, -0.04800000227987766, -0.06400000303983688, 1.0400000493973494, 0.0, 0.0, 0.0, 0.0, 0.0, 1.7622064767501783E9, 0.0, 2025-11-03 16:47:56.750
95.0, 332.5294646602124, -9.461946887895465, 296.34593258891255, 41.247356611303985, -0.04800000227987766, -0.06400000303983688, 1.0400000493973494, 0.0, 0.0, 0.0, 0.0, 0.0, 1.7622064767659547E9, 0.0, 2025-11-03 16:47:56.765
95.0, 382.1130582727492, 41.1688187122345, 350.00601715315133, 90.5242784274742, -0.04800000227987766, -0.06400000303983688, 1.0400000493973494, 0.0, 0.0, 0.0, 0.0, 0.0, 1.7622064767659547E9, 0.0, 2025-11-03 16:47:56.765
96.0, 252.16275451239198, -72.07535194605589, 226.68281611427665, -26.54580988548696, -0.04800000227987766, -0.06400000303983688, 1.0400000493973494, 0.0, 0.0, 0.0, 0.0, 0.0, 1.7622064767666054E9, 0.0, 2025-11-03 16:47:56.766
96.0, 295.75876829586923, -40.67515191808343, 263.5245705777779, 5.841723730787635, -0.04800000227987766, -0.06400000303983688, 1.0400000493973494, 0.0, 0.0, 0.0, 0.0, 0.0, 1.7622064767666054E9, 0.0, 2025-11-03 16:47:56.766
97.0, 422.70593239180744, 75.02239311113954, 390.69238877110183, 130.50006905384362, -0.04800000227987766, -0.06400000303983688, 1.0400000493973494, 0.0, 0.0, 0.0, 0.0, 0.0, 1.7622064767803135E9, 0.0, 2025-11-03 16:47:56.780
97.0, 274.691911845468, -45.12563286535442, 259.0142512312159, 7.764032308012247, -0.04800000227987766, -0.06400000303983688, 1.0400000493973494, 0.0, 0.0, 0.0, 0.0, 0.0, 1.7622064767803135E9, 0.0, 2025-11-03 16:47:56.780
98.0, 265.8320888504386, -57.0633935239166, 249.9375140387565, 0.964894188567996, -0.04800000227987766, -0.06400000303983688, 1.0400000493973494, 0.0, 0.0, 0.0, 0.0, 0.0, 1.7622064767958825E9, 0.0, 2025-11-03 16:47:56.795
98.0, 386.90013021603227, 48.169911429286, 361.3491337187588, 112.0174834728241, -0.04800000227987766, -0.06400000303983688, 1.0400000493973494, 0.0, 0.0, 0.0, 0.0, 0.0, 1.7622064767958825E9, 0.0, 2025-11-03 16:47:56.795
99.0, 315.4493415625766, -5.729526732116938, 305.20575558394194, 53.14023847039789, -0.04800000227987766, -0.06400000303983688, 1.0400000493973494, 0.0, 0.0, 0.0, 0.0, 0.0, 1.7622064767965715E9, 0.0, 2025-11-03 16:47:56.796
99.0, 246.75485917646438, -71.83225844893605, 236.1073640026152, -6.129696027375758, -0.04800000227987766, -0.06400000303983688, 1.0400000493973494, 0.0, 0.0, 0.0, 0.0, 0.0, 1.7622064767965715E9, 0.0, 2025-11-03 16:47:56.796
100.0, 321.7922118874267, -9.297391289845109, 303.5601996034384, 50.870119197294116, -0.04800000227987766, -0.06400000303983688, 1.0400000493973494, 0.0, 0.0, 0.0, 0.0, 0.0, 1.7622064768108509E9, 0.0, 2025-11-03 16:47:56.810
100.0, 365.2573291724548, 34.68757208902389, 353.8394146077335, 97.5291110444814, -0.04800000227987766, -0.06400000303983688, 1.0400000493973494, 0.0, 0.0, 0.0, 0.0, 0.0, 1.7622064768108509E9, 0.0, 2025-11-03 16:47:56.810
0.0, 254.76198498159647, -61.34744892315939, 252.0636471635662, 1.60815698094666, -0.04800000227987766, -0.06400000303983688, 1.0400000493973494, 0.0, 0.0, 0.0, 0.0, 0.0, 1.7622064768115592E9, 0.0, 2025-11-03 16:47:56.811
1.0, 293.3540126243606, -32.595098063815385, 279.43223503930494, 32.58948821388185, -0.04800000227987766, -0.06400000303983688, 1.0400000493973494, 0.0, 0.0, 0.0, 0.0, 0.0, 1.7622064768251843E9, 0.0, 2025-11-03 16:47:56.825
1.0, 395.4757208144292, 65.87646776949987, 385.7949897791259, 129.56135416496545, -0.04800000227987766, -0.06400000303983688, 1.0400000493973494, 0.0, 0.0, 0.0, 0.0, 0.0, 1.7622064768251843E9, 0.0, 2025-11-03 16:47:56.825
2.0, 248.83798345178366, -59.01375135080889, 249.6214924925007, 2.9507810650393367, -0.04800000227987766, -0.06400000303983688, 1.0400000493973494, 0.0, 0.0, 0.0, 0.0, 0.0, 1.7622064768408487E9, 0.0, 2025-11-03 16:47:56.840
2.0, 259.32840282749385, -59.200746348593384, 245.85541323712096, -6.728080020286143, -0.04800000227987766, -0.06400000303983688, 1.0400000493973494, 0.0, 0.0, 0.0, 0.0, 0.0, 1.7622064768408487E9, 0.0, 2025-11-03 16:47:56.840
3.0, 381.68670967780054, 48.84870327124372, 361.2313268701546, 104.62744116038084, -0.04800000227987766, -0.06400000303983688, 1.0400000493973494, 0.0, 0.0, 0.0, 0.0, 0.0, 1.762206476841575E9, 0.0, 2025-11-03 16:47:56.841
3.0, 288.67539777979255, -19.87195841455832, 288.9241011268459, 35.81328197568655, -0.04800000227987766, -0.06400000303983688, 1.0400000493973494, 0.0, 0.0, 0.0, 0.0, 0.0, 1.762206476841575E9, 0.0, 2025-11-03 16:47:56.841
4.0, 226.91095001157373, -86.22526342840865, 221.4974448257126, -31.164586330763996, -0.04800000227987766, -0.06400000303983688, 1.0400000493973494, 0.0, 0.0, 0.0, 0.0, 0.0, 1.7622064768552096E9, 0.0, 2025-11-03 16:47:56.855
4.0, 313.35873748734593, -9.946263932157308, 308.45011879550293, 60.10019228793681, -0.04800000227987766, -0.06400000303983688, 1.0400000493973494, 0.0, 0.0, 0.0, 0.0, 0.0, 1.7622064768552096E9, 0.0, 2025-11-03 16:47:56.855
5.0, 345.873427702114, 27.030126929748803, 343.50046118022874, 96.43332035746425, -0.04800000227987766, -0.06400000303983688, 1.0400000493973494, 0.0, 0.0, 0.0, 0.0, 0.0, 1.7622064768708508E9, 0.0, 2025-11-03 16:47:56.870
5.0, 264.80361636262387, -39.98888027621433, 266.60811809124425, 24.735698306933045, -0.04800000227987766, -0.06400000303983688, 1.0400000493973494, 0.0, 0.0, 0.0, 0.0, 0.0, 1.7622064768708508E9, 0.0, 2025-11-03 16:47:56.870
6.0, 241.489080038853, -80.58923419518396, 226.15362027054653, -12.984932646155357, -0.04800000227987766, -0.06400000303983688, 1.0400000493973494, 0.0, 0.0, 0.0, 0.0, 0.0, 1.762206476871548E9, 0.0, 2025-11-03 16:47:56.871
6.0, 371.19629030209035, 36.33873791946098, 352.8427312695421, 99.60849541984499, -0.04800000227987766, -0.06400000303983688, 1.0400000493973494, 0.0, 0.0, 0.0, 0.0, 0.0, 1.762206476871548E9, 0.0, 2025-11-03 16:47:56.871
7.0, 228.90057678800076, -86.03452853066847, 220.31563643971458, -22.342162335291505, -0.04800000227987766, -0.06400000303983688, 1.0400000493973494, 0.0, 0.0, 0.0, 0.0, 0.0, 1.7622064768851783E9, 0.0, 2025-11-03 16:47:56.885
7.0, 226.08443212136626, -92.75886865099892, 215.8950746920891, -19.989765263162553, -0.04800000227987766, -0.06400000303983688, 1.0400000493973494, 0.0, 0.0, 0.0, 0.0, 0.0, 1.7622064768851783E9, 0.0, 2025-11-03 16:47:56.885
8.0, 361.07238112203777, 20.7695344039239, 340.05227342108265, 102.44333958625793, -0.04800000227987766, -0.06400000303983688, 1.0400000493973494, 0.0, 0.0, 0.0, 0.0, 0.0, 1.7622064769012449E9, 0.0, 2025-11-03 16:47:56.901
8.0, 285.48526311758906, -31.016860282514244, 276.3281180760823, 22.009311239235103, -0.04800000227987766, -0.06400000303983688, 1.0400000493973494, 0.0, 0.0, 0.0, 0.0, 0.0, 1.7622064769012449E9, 0.0, 2025-11-03 16:47:56.901
9.0, 223.01023435778916, -90.39151197904721, 212.76103852922097, -36.396706368774176, -0.04800000227987766, -0.06400000303983688, 1.0400000493973494, 0.0, 0.0, 0.0, 0.0, 0.0, 1.7622064769015856E9, 0.0, 2025-11-03 16:47:56.901
9.0, 312.3414846993983, -16.416290855500847, 292.10675598913804, 44.33651397470385, -0.04800000227987766, -0.06400000303983688, 1.0400000493973494, 0.0, 0.0, 0.0, 0.0, 0.0, 1.7622064769015856E9, 0.0, 2025-11-03 16:47:56.901
10.0, 340.5739894649014, 14.613659076858312, 324.64014570368454, 74.32303181942552, -0.04800000227987766, -0.06400000303983688, 1.0400000493973494, 0.0, 0.0, 0.0, 0.0, 0.0, 1.7622064769152925E9, 0.0, 2025-11-03 16:47:56.915
10.0, 227.07924550957978, -89.55377438897267, 211.99809893826023, -31.75175062380731, -0.04800000227987766, -0.06400000303983688, 1.0400000493973494, 0.0, 0.0, 0.0, 0.0, 0.0, 1.7622064769152925E9, 0.0, 2025-11-03 16:47:56.915
11.0, 259.459299325943, -67.78381674690172, 242.85601347265765, 0.6918814918026328, -0.04800000227987766, -0.04800000227987766, 1.0400000493973494, 0.0, 0.0, 0.0, 0.0, 0.0, 1.7622064769308634E9, 0.0, 2025-11-03 16:47:56.930
11.0, 373.4103110758588, 40.639622868504375, 357.1548359184526, 106.72552503552288, -0.04800000227987766, -0.04800000227987766, 1.0400000493973494, 0.0, 0.0, 0.0, 0.0, 0.0, 1.7622064769308634E9, 0.0, 2025-11-03 16:47:56.930
12.0, 235.42670221067965, -72.61950738960877, 237.2012847396545, -5.849203530699015, -0.04800000227987766, -0.04800000227987766, 1.0400000493973494, 0.0, 0.0, 0.0, 0.0, 0.0, 1.7622064769315803E9, 0.0, 2025-11-03 16:47:56.931
12.0, 222.79332016035914, -93.8770987377502, 209.32781036989763, -32.16687951888889, -0.04800000227987766, -0.04800000227987766, 1.0400000493973494, 0.0, 0.0, 0.0, 0.0, 0.0, 1.7622064769315803E9, 0.0, 2025-11-03 16:47:56.931
13.0, 360.2047243323177, 24.169103463646024, 334.7042164844461, 90.94688712246716, -0.04800000227987766, -0.04800000227987766, 1.0400000493973494, 0.0, 0.0, 0.0, 0.0, 0.0, 1.7622064769451597E9, 0.0, 2025-11-03 16:47:56.945
13.0, 267.0138972364366, -36.37987681897357, 270.49761404516175, 34.17146589513868, -0.04800000227987766, -0.04800000227987766, 1.0400000493973494, 0.0, 0.0, 0.0, 0.0, 0.0, 1.7622064769451597E9, 0.0, 2025-11-03 16:47:56.945
14.0, 202.15281230490655, -106.32348579028621, 196.2942590243183, -50.73922269884497, -0.04800000227987766, -0.04800000227987766, 1.0400000493973494, 0.0, 0.0, 0.0, 0.0, 0.0, 1.7622064769612024E9, 0.0, 2025-11-03 16:47:56.961
14.0, 293.469949522987, -31.60402457555756, 277.16585566615686, 23.666086919605732, -0.04800000227987766, -0.04800000227987766, 1.0400000493973494, 0.0, 0.0, 0.0, 0.0, 0.0, 1.7622064769612024E9, 0.0, 2025-11-03 16:47:56.961
15.0, 341.8979140492156, 17.90103113790974, 329.5132353459485, 74.78303951397538, -0.04800000227987766, -0.04800000227987766, 1.0400000493973494, 0.0, 0.0, 0.0, 0.0, 0.0, 1.7622064769615653E9, 0.0, 2025-11-03 16:47:56.961
15.0, 189.02202356047928, -122.40131569979712, 173.26769499713555, -73.24220073223114, -0.04800000227987766, -0.04800000227987766, 1.0400000493973494, 0.0, 0.0, 0.0, 0.0, 0.0, 1.7622064769615653E9, 0.0, 2025-11-03 16:47:56.961
16.0, 249.57474374305457, -75.25613685837016, 224.24627129314467, -22.54785683285445, -0.04800000227987766, -0.04800000227987766, 1.0400000493973494, 0.0, 0.0, 0.0, 0.0, 0.0, 1.7622064769752104E9, 0.0, 2025-11-03 16:47:56.975
16.0, 371.15889130253345, 36.47337431786582, 344.0390067738481, 98.3070102352649, -0.04800000227987766, -0.04800000227987766, 1.0400000493973494, 0.0, 0.0, 0.0, 0.0, 0.0, 1.7622064769752104E9, 0.0, 2025-11-03 16:47:56.975
17.0, 220.3249861896038, -92.28764125658199, 203.47112703928724, -34.94562518596649, -0.04800000227987766, -0.04800000227987766, 1.0400000493973494, 0.0, 0.0, 0.0, 0.0, 0.0, 1.7622064769910798E9, 0.0, 2025-11-03 16:47:56.991
17.0, 254.46653288509697, -66.35517496382818, 232.72836439264938, -15.887095011770725, -0.04800000227987766, -0.04800000227987766, 1.0400000493973494, 0.0, 0.0, 0.0, 0.0, 0.0, 1.7622064769910798E9, 0.0, 2025-11-03 16:47:56.991
18.0, 335.9402534198016, -2.488903420511633, 306.32585562067106, 58.67529040481895, -0.04800000227987766, -0.04800000227987766, 1.0400000493973494, 0.0, 0.0, 0.0, 0.0, 0.0, 1.7622064769915445E9, 0.0, 2025-11-03 16:47:56.991
18.0, 274.0187298534438, -45.31449781311676, 258.6608306854032, 21.227672148495913, -0.04800000227987766, -0.04800000227987766, 1.0400000493973494, 0.0, 0.0, 0.0, 0.0, 0.0, 1.7622064769915445E9, 0.0, 2025-11-03 16:47:56.991
19.0, 218.48121551144868, -100.3994842604734, 200.1500958786346, -43.06494798976928, -0.04800000227987766, -0.04800000227987766, 1.0400000493973494, 0.0, 0.0, 0.0, 0.0, 0.0, 1.762206477005208E9, 0.0, 2025-11-03 16:47:57.005
19.0, 294.0197148164734, -42.221600549761206, 263.2197687313892, 15.70010001398623, -0.04800000227987766, -0.04800000227987766, 1.0400000493973494, 0.0, 0.0, 0.0, 0.0, 0.0, 1.762206477005208E9, 0.0, 2025-11-03 16:47:57.005
20.0, 338.7189990868792, 15.612212365027517, 324.0978602101095, 79.09888406284153, -0.04800000227987766, -0.04800000227987766, 1.0400000493973494, 0.0, 0.0, 0.0, 0.0, 0.0, 1.762206477020841E9, 0.0, 2025-11-03 16:47:57.020
20.0, 208.96317012421787, -100.71363585675135, 200.3034317768179, -41.273535910993814, -0.04800000227987766, -0.04800000227987766, 1.0400000493973494, 0.0, 0.0, 0.0, 0.0, 0.0, 1.762206477020841E9, 0.0, 2025-11-03 16:47:57.020
21.0, 252.9369138032198, -65.21450547734275, 235.2453170628287, -7.2254867143929005, -0.04800000227987766, -0.04800000227987766, 1.0400000493973494, 0.0, 0.0, 0.0, 0.0, 0.0, 1.7622064770215373E9, 0.0, 2025-11-03 16:47:57.021
21.0, 393.76284663472325, 59.85896874079481, 368.7821848806925, 124.00386283081025, -0.04800000227987766, -0.04800000227987766, 1.0400000493973494, 0.0, 0.0, 0.0, 0.0, 0.0, 1.7622064770215373E9, 0.0, 2025-11-03 16:47:57.021
22.0, 229.64107697922736, -81.62892638286576, 222.21924551716074, -14.424794129095972, -0.04800000227987766, -0.04800000227987766, 1.0400000493973494, 0.0, 0.0, 0.0, 0.0, 0.0, 1.762206477035176E9, 0.0, 2025-11-03 16:47:57.035
22.0, 227.09420510940254, -89.06758739473298, 217.12924167746678, -21.76995764207095, -0.04800000227987766, -0.04800000227987766, 1.0400000493973494, 0.0, 0.0, 0.0, 0.0, 0.0, 1.762206477035176E9, 0.0, 2025-11-03 16:47:57.035
23.0, 378.7995069120079, 44.697414320427924, 358.20200790604576, 111.26576358173043, -0.04800000227987766, -0.04800000227987766, 1.0400000493973494, 0.0, 0.0, 0.0, 0.0, 0.0, 1.762206477050832E9, 0.0, 2025-11-03 16:47:57.050
23.0, 292.19838353805244, -14.475282778497785, 293.95426656724885, 46.860946444794536, -0.04800000227987766, -0.04800000227987766, 1.0400000493973494, 0.0, 0.0, 0.0, 0.0, 0.0, 1.762206477050832E9, 0.0, 2025-11-03 16:47:57.050
24.0, 231.27915315981954, -76.7221776410006, 230.17401272291318, -15.041877621784806, -0.04800000227987766, -0.04800000227987766, 1.0400000493973494, 0.0, 0.0, 0.0, 0.0, 0.0, 1.7622064770515218E9, 0.0, 2025-11-03 16:47:57.051
24.0, 319.20046121813357, -3.0087495143525302, 308.4949975949712, 63.97098874207586, -0.04800000227987766, -0.04800000227987766, 1.0400000493973494, 0.0, 0.0, 0.0, 0.0, 0.0, 1.7622064770515218E9, 0.0, 2025-11-03 16:47:57.051
25.0, 369.55821412149817, 39.53261248162016, 355.1465096422471, 104.42922646272928, -0.04800000227987766, -0.04800000227987766, 1.0400000493973494, 0.0, 0.0, 0.0, 0.0, 0.0, 1.762206477065237E9, 0.0, 2025-11-03 16:47:57.065
25.0, 220.27262759022415, -84.58344734786078, 225.050349783618, -16.582716403529048, -0.04800000227987766, -0.04800000227987766, 1.0400000493973494, 0.0, 0.0, 0.0, 0.0, 0.0, 1.762206477065237E9, 0.0, 2025-11-03 16:47:57.065
26.0, 265.5628160536289, -60.65930733131245, 254.0233547403477, 4.379422848112881, -0.04800000227987766, -0.04800000227987766, 1.0400000493973494, 0.0, 0.0, 0.0, 0.0, 0.0, 1.7622064770809553E9, 0.0, 2025-11-03 16:47:57.080
26.0, 388.78877969365567, 50.677514349576086, 371.10840265313163, 124.75184282194823, -0.04800000227987766, -0.04800000227987766, 1.0400000493973494, 0.0, 0.0, 0.0, 0.0, 0.0, 1.7622064770809553E9, 0.0, 2025-11-03 16:47:57.080
27.0, 225.4411693289876, -88.72351659880951, 224.81099618645385, -21.36978834681213, -0.04800000227987766, -0.04800000227987766, 1.0400000493973494, 0.0, 0.0, 0.0, 0.0, 0.0, 1.7622064770815477E9, 0.0, 2025-11-03 16:47:57.081
27.0, 229.83181187696755, -93.40587134333327, 210.10944946063682, -34.051789096556604, -0.04800000227987766, -0.04800000227987766, 1.0400000493973494, 0.0, 0.0, 0.0, 0.0, 0.0, 1.7622064770815477E9, 0.0, 2025-11-03 16:47:57.081
28.0, 347.1973522864282, 11.341246615629643, 323.4358979179524, 78.7024546675384, -0.04800000227987766, -0.04800000227987766, 1.0400000493973494, 0.0, 0.0, 0.0, 0.0, 0.0, 1.762206477095214E9, 0.0, 2025-11-03 16:47:57.095
28.0, 277.0181296179071, -45.58377060992643, 263.53766022762284, 24.08121581468731, -0.04800000227987766, -0.04800000227987766, 1.0400000493973494, 0.0, 0.0, 0.0, 0.0, 0.0, 1.762206477095214E9, 0.0, 2025-11-03 16:47:57.095
29.0, 200.88498621992767, -121.29056541295722, 182.11255839234218, -62.987395053729415, -0.04800000227987766, -0.04800000227987766, 1.0400000493973494, 0.0, 0.0, 0.0, 0.0, 0.0, 1.762206477111099E9, 0.0, 2025-11-03 16:47:57.111
29.0, 291.7645551431924, -46.05125810438767, 260.53452056320384, 13.007372045889497, -0.04800000227987766, -0.04800000227987766, 1.0400000493973494, 0.0, 0.0, 0.0, 0.0, 0.0, 1.762206477111099E9, 0.0, 2025-11-03 16:47:57.111
30.0, 346.3932737959549, 9.250642540398985, 314.0562288290821, 56.947456625290215, -0.04800000227987766, -0.04800000227987766, 1.0400000493973494, 0.0, 0.0, 0.0, 0.0, 0.0, 1.7622064771115696E9, 0.0, 2025-11-03 16:47:57.111
30.0, 202.5754209998995, -119.75346653116867, 177.11979195149615, -73.94904182385653, -0.04800000227987766, -0.04800000227987766, 1.0400000493973494, 0.0, 0.0, 0.0, 0.0, 0.0, 1.7622064771115696E9, 0.0, 2025-11-03 16:47:57.111
31.0, 237.66316238418221, -91.431204166729, 210.3749823574908, -34.08544819615781, -0.04800000227987766, -0.04800000227987766, 1.0400000493973494, 0.0, 0.0, 0.0, 0.0, 0.0, 1.76220647712522E9, 0.0, 2025-11-03 16:47:57.125
31.0, 366.2110036611557, 24.494474759791046, 333.4737893990241, 87.00503256917, -0.04800000227987766, -0.04800000227987766, 1.0400000493973494, 0.0, 0.0, 0.0, 0.0, 0.0, 1.76220647712522E9, 0.0, 2025-11-03 16:47:57.125
32.0, 225.32149253040552, -93.00196214811876, 208.40779498079792, -43.218283887952566, -0.04800000227987766, -0.04800000227987766, 1.0400000493973494, 0.0, 0.0, 0.0, 0.0, 0.0, 1.7622064771409569E9, 0.0, 2025-11-03 16:47:57.140
32.0, 219.7378218965605, -106.58153888722882, 192.90964956441894, -56.32289333269, -0.04800000227987766, -0.04800000227987766, 1.0400000493973494, 0.0, 0.0, 0.0, 0.0, 0.0, 1.7622064771409569E9, 0.0, 2025-11-03 16:47:57.140
33.0, 351.9769444297999, 10.043501331005245, 320.1747051565908, 65.81849932018667, -0.04800000227987766, -0.04800000227987766, 1.0400000493973494, 0.0, 0.0, 0.0, 0.0, 0.0, 1.7622064771415594E9, 0.0, 2025-11-03 16:47:57.141
33.0, 281.81268136110157, -43.900815629865974, 268.6688029668294, 18.340469382703304, -0.04800000227987766, -0.04800000227987766, 1.0400000493973494, 0.0, 0.0, 0.0, 0.0, 0.0, 1.7622064771415594E9, 0.0, 2025-11-03 16:47:57.141
34.0, 216.18865683861077, -113.5527124046348, 190.93872228777036, -59.58034619409591, -0.04800000227987766, -0.04800000227987766, 1.0400000493973494, 0.0, 0.0, 0.0, 0.0, 0.0, 1.7622064771551595E9, 0.0, 2025-11-03 16:47:57.155
34.0, 311.86651740502566, -37.19143510935828, 268.08537857374176, 9.596583286300302, -0.04800000227987766, -0.04800000227987766, 1.0400000493973494, 0.0, 0.0, 0.0, 0.0, 0.0, 1.7622064771551595E9, 0.0, 2025-11-03 16:47:57.155
35.0, 342.44767934270203, 6.842146968934685, 314.4638779242523, 62.961215754039586, -0.04800000227987766, -0.04800000227987766, 1.0400000493973494, 0.0, 0.0, 0.0, 0.0, 0.0, 1.76220647717104E9, 0.0, 2025-11-03 16:47:57.171
35.0, 195.18537868745625, -124.14036917919293, 175.45553647121415, -64.56937273498625, -0.04800000227987766, -0.04800000227987766, 1.0400000493973494, 0.0, 0.0, 0.0, 0.0, 0.0, 1.76220647717104E9, 0.0, 2025-11-03 16:47:57.171
36.0, 236.7468868950382, -96.25941500952467, 209.05479767313227, -35.974097673781216, -0.04800000227987766, -0.04800000227987766, 1.0400000493973494, 0.0, 0.0, 0.0, 0.0, 0.0, 1.7622064771715753E9, 0.0, 2025-11-03 16:47:57.171
36.0, 358.64144615083933, 11.236529416870326, 321.2480564438738, 66.60761821083724, -0.04800000227987766, -0.04800000227987766, 1.0400000493973494, 0.0, 0.0, 0.0, 0.0, 0.0, 1.7622064771715753E9, 0.0, 2025-11-03 16:47:57.171
37.0, 210.6236857045442, -107.90546347154304, 196.7467869189568, -52.84478637389839, -0.04800000227987766, -0.04800000227987766, 1.0400000493973494, 0.0, 0.0, 0.0, 0.0, 0.0, 1.7622064771851752E9, 0.0, 2025-11-03 16:47:57.185
37.0, 221.22256217896938, -107.73342807358131, 194.50658684549853, -51.19549049343914, -0.04800000227987766, -0.04800000227987766, 1.0400000493973494, 0.0, 0.0, 0.0, 0.0, 0.0, 1.7622064771851752E9, 0.0, 2025-11-03 16:47:57.185
38.0, 350.6866789450869, 8.416644850280136, 315.93365860683843, 67.05266630556434, -0.04800000227987766, -0.04800000227987766, 1.0400000493973494, 0.0, 0.0, 0.0, 0.0, 0.0, 1.7622064772010057E9, 0.0, 2025-11-03 16:47:57.201
38.0, 284.04914153460413, -45.482793311122805, 256.83201960707083, 3.096637163311243, -0.04800000227987766, -0.04800000227987766, 1.0400000493973494, 0.0, 0.0, 0.0, 0.0, 0.0, 1.7622064772010057E9, 0.0, 2025-11-03 16:47:57.201
39.0, 213.0658403756097, -110.40745654189959, 183.61225827457383, -67.0676259053871, -0.04800000227987766, -0.04800000227987766, 1.0400000493973494, 0.0, 0.0, 0.0, 0.0, 0.0, 1.762206477201566E9, 0.0, 2025-11-03 16:47:57.201
39.0, 298.7432084605098, -41.59703725716099, 257.5164212989621, 10.44554057624191, -0.04800000227987766, -0.04800000227987766, 1.0400000493973494, 0.0, 0.0, 0.0, 0.0, 0.0, 1.762206477201566E9, 0.0, 2025-11-03 16:47:57.201
40.0, 348.7494107680395, 10.469849925953895, 319.3107882668264, 68.30927269067615, -0.04800000227987766, -0.04800000227987766, 1.0400000493973494, 0.0, 0.0, 0.0, 0.0, 0.0, 1.7622064772152407E9, 0.0, 2025-11-03 16:47:57.215
40.0, 225.0709192333743, -91.66307796398178, 206.10775650804862, -38.5359291434288, -0.04800000227987766, -0.04800000227987766, 1.0400000493973494, 0.0, 0.0, 0.0, 0.0, 0.0, 1.7622064772152407E9, 0.0, 2025-11-03 16:47:57.215
41.0, 255.9026544680819, -79.91979210311547, 225.80580957466736, -24.660900307819247, -0.04800000227987766, -0.04800000227987766, 1.0400000493973494, 0.0, 0.0, 0.0, 0.0, 0.0, 1.7622064772309544E9, 0.0, 2025-11-03 16:47:57.230
41.0, 376.2189759425819, 31.701261974405497, 342.6328043905087, 87.89886865857989, -0.04800000227987766, -0.04800000227987766, 1.0400000493973494, 0.0, 0.0, 0.0, 0.0, 0.0, 1.7622064772309544E9, 0.0, 2025-11-03 16:47:57.230
42.0, 238.86741016991436, -84.91629844391719, 213.83438981650397, -31.44881872739643, -0.04800000227987766, -0.04800000227987766, 1.0400000493973494, 0.0, 0.0, 0.0, 0.0, 0.0, 1.762206477231537E9, 0.0, 2025-11-03 16:47:57.231
42.0, 221.90696387086064, -101.48779514757916, 192.48704086942598, -56.25183523353189, -0.04800000227987766, -0.04800000227987766, 1.0400000493973494, 0.0, 0.0, 0.0, 0.0, 0.0, 1.762206477231537E9, 0.0, 2025-11-03 16:47:57.231
43.0, 341.8717347495258, -2.339307422284037, 306.580168817658, 57.45982291921973, -0.04800000227987766, -0.04800000227987766, 1.0400000493973494, 0.0, 0.0, 0.0, 0.0, 0.0, 1.7622064772616353E9, 0.0, 2025-11-03 16:47:57.261
43.0, 267.2682104334235, -63.47171209799126, 239.5723813115619, -5.7332666320726275, -0.04800000227987766, -0.04800000227987766, 1.0400000493973494, 0.0, 0.0, 0.0, 0.0, 0.0, 1.7622064772616353E9, 0.0, 2025-11-03 16:47:57.261
44.0, 204.41545177809894, -123.38864928809926, 171.46506321849301, -70.14182366896421, -0.04800000227987766, -0.04800000227987766, 1.0400000493973494, 0.0, 0.0, 0.0, 0.0, 0.0, 1.762206477262281E9, 0.0, 2025-11-03 16:47:57.262
44.0, 299.0685797566548, -40.632143068592995, 260.37744476506487, 12.599722950719297, -0.04800000227987766, -0.04800000227987766, 1.0400000493973494, 0.0, 0.0, 0.0, 0.0, 0.0, 1.762206477262281E9, 0.0, 2025-11-03 16:47:57.262
45.0, 329.0550976013765, -8.891612144652754, 303.03474365966395, 48.36438622698188, -0.04800000227987766, -0.04800000227987766, 1.0400000493973494, 0.0, 0.0, 0.0, 0.0, 0.0, 1.7622064772630024E9, 0.0, 2025-11-03 16:47:57.263
45.0, 202.388426002115, -122.12082320312038, 180.52310091117397, -70.69158896245062, -0.04800000227987766, -0.04800000227987766, 1.0400000493973494, 0.0, 0.0, 0.0, 0.0, 0.0, 1.7622064772630024E9, 0.0, 2025-11-03 16:47:57.263
46.0, 238.31016507651657, -91.10583287058398, 213.78577111708, -32.15565981902182, -0.04800000227987766, -0.04800000227987766, 1.0400000493973494, 0.0, 0.0, 0.0, 0.0, 0.0, 1.7622064772752342E9, 0.0, 2025-11-03 16:47:57.275
46.0, 374.64073816128075, 26.566379335243255, 330.30983403651044, 76.6305500920862, -0.04800000227987766, -0.04800000227987766, 1.0400000493973494, 0.0, 0.0, 0.0, 0.0, 0.0, 1.7622064772752342E9, 0.0, 2025-11-03 16:47:57.275
47.0, 231.41752945818007, -87.36219301493838, 210.300184358377, -32.798922611400485, -0.04800000227987766, -0.04800000227987766, 1.0400000493973494, 0.0, 0.0, 0.0, 0.0, 0.0, 1.7622064772909434E9, 0.0, 2025-11-03 16:47:57.290
47.0, 210.78824130259454, -108.42156966542825, 186.02449374599382, -57.710396216250956, -0.04800000227987766, -0.04800000227987766, 1.0400000493973494, 0.0, 0.0, 0.0, 0.0, 0.0, 1.7622064772909434E9, 0.0, 2025-11-03 16:47:57.290
48.0, 345.6864327043295, 6.124086177442223, 310.4547051717527, 54.20237005781382, -0.04800000227987766, -0.04800000227987766, 1.0400000493973494, 0.0, 0.0, 0.0, 0.0, 0.0, 1.762206477291567E9, 0.0, 2025-11-03 16:47:57.291
48.0, 290.60892605688423, -31.484347776975483, 274.7723196945153, 27.851034970022738, -0.04800000227987766, -0.04800000227987766, 1.0400000493973494, 0.0, 0.0, 0.0, 0.0, 0.0, 1.762206477291567E9, 0.0, 2025-11-03 16:47:57.291
49.0, 229.27456678356975, -89.92776438454166, 214.24951871158555, -31.01873023249209, -0.04800000227987766, -0.04800000227987766, 1.0400000493973494, 0.0, 0.0, 0.0, 0.0, 0.0, 1.7622064773055084E9, 0.0, 2025-11-03 16:47:57.305
49.0, 283.23384334426373, -51.971519734244794, 248.918391300831, -1.3426240840926766, -0.04800000227987766, -0.04800000227987766, 1.0400000493973494, 0.0, 0.0, 0.0, 0.0, 0.0, 1.7622064773055084E9, 0.0, 2025-11-03 16:47:57.305
50.0, 330.109749388881, 1.3370142341591418, 306.8644012142904, 51.49094258993864, -0.04800000227987766, -0.04800000227987766, 1.0400000493973494, 0.0, 0.0, 0.0, 0.0, 0.0, 1.7622064773209453E9, 0.0, 2025-11-03 16:47:57.320
50.0, 236.64590959623456, -83.44651776133105, 211.90460143936798, -33.78625619970262, -0.04800000227987766, -0.04800000227987766, 1.0400000493973494, 0.0, 0.0, 0.0, 0.0, 0.0, 1.7622064773209453E9, 0.0, 2025-11-03 16:47:57.320
51.0, 237.54722548555583, -89.89036538498476, 207.4167214925401, -48.02031543105841, -0.04800000227987766, -0.04800000227987766, 1.0400000493973494, 0.0, 0.0, 0.0, 0.0, 0.0, 1.7622064773216064E9, 0.0, 2025-11-03 16:47:57.321
51.0, 339.58291597664356, 5.136752589140087, 314.8004689202644, 65.93817611876875, -0.04800000227987766, -0.04800000227987766, 1.0400000493973494, 0.0, 0.0, 0.0, 0.0, 0.0, 1.7622064773216064E9, 0.0, 2025-11-03 16:47:57.321
52.0, 259.10774873010814, -64.14115419005975, 240.23060370376334, -9.185194291174412, -0.04800000227987766, -0.04800000227987766, 1.0400000493973494, 0.0, 0.0, 0.0, 0.0, 0.0, 1.7622064773515627E9, 0.0, 2025-11-03 16:47:57.351
52.0, 232.6629161434248, -97.56837999401614, 204.88480922253802, -47.6164062358439, -0.04800000227987766, -0.04800000227987766, 1.0400000493973494, 0.0, 0.0, 0.0, 0.0, 0.0, 1.7622064773515627E9, 0.0, 2025-11-03 16:47:57.351
53.0, 297.2547282781452, -39.824324678163975, 261.16282375575975, 10.108949580229819, -0.04800000227987766, -0.04800000227987766, 1.0400000493973494, 0.0, 0.0, 0.0, 0.0, 0.0, 1.7622064773522704E9, 0.0, 2025-11-03 16:47:57.352
53.0, 283.55921464040875, -49.42464786441997, 247.25413582054898, -4.143809150904417, -0.04800000227987766, -0.04800000227987766, 1.0400000493973494, 0.0, 0.0, 0.0, 0.0, 0.0, 1.7622064773522704E9, 0.0, 2025-11-03 16:47:57.352
54.0, 230.54613276850432, -99.13165817549452, 193.94934175210074, -50.084740206599236, -0.04800000227987766, -0.04800000227987766, 1.0400000493973494, 0.0, 0.0, 0.0, 0.0, 0.0, 1.76220647735301E9, 0.0, 2025-11-03 16:47:57.353
54.0, 277.40333931334317, -52.62600222649053, 243.56659446423873, 3.7324201557785273, -0.04800000227987766, -0.04800000227987766, 1.0400000493973494, 0.0, 0.0, 0.0, 0.0, 0.0, 1.76220647735301E9, 0.0, 2025-11-03 16:47:57.353
55.0, 337.59328920021653, 11.04953441908583, 311.0082103651948, 58.09186601173133, -0.04800000227987766, -0.04800000227987766, 1.0400000493973494, 0.0, 0.0, 0.0, 0.0, 0.0, 1.7622064773651817E9, 0.0, 2025-11-03 16:47:57.365
55.0, 243.5609846143052, -76.65859934175387, 214.21585961198434, -31.0149903325364, -0.04800000227987766, -0.04800000227987766, 1.0400000493973494, 0.0, 0.0, 0.0, 0.0, 0.0, 1.7622064773651817E9, 0.0, 2025-11-03 16:47:57.365
56.0, 247.338283569552, -79.41116570914164, 220.03140404308215, -31.920046121813357, -0.04800000227987766, -0.04800000227987766, 1.0400000493973494, 0.0, 0.0, 0.0, 0.0, 0.0, 1.7622064773809564E9, 0.0, 2025-11-03 16:47:57.380
56.0, 347.5040240827948, 5.84359368076548, 305.8022696268745, 49.55367441289127, -0.04800000227987766, -0.04800000227987766, 1.0400000493973494, 0.0, 0.0, 0.0, 0.0, 0.0, 1.7622064773809564E9, 0.0, 2025-11-03 16:47:57.380
57.0, 266.3930738437921, -62.749911406543106, 232.36559409694746, -24.032597115263343, -0.04800000227987766, -0.04800000227987766, 1.0400000493973494, 0.0, 0.0, 0.0, 0.0, 0.0, 1.7622064773815963E9, 0.0, 2025-11-03 16:47:57.381
57.0, 219.37505160085857, -101.76080784434453, 193.53421285701916, -54.86059245001525, -0.04800000227987766, -0.04800000227987766, 1.0400000493973494, 0.0, 0.0, 0.0, 0.0, 0.0, 1.7622064773815963E9, 0.0, 2025-11-03 16:47:57.381
58.0, 301.3985374290496, -29.098291605245322, 272.17308922531083, 23.819422817789018, -0.04800000227987766, -0.04800000227987766, 1.0400000493973494, 0.0, 0.0, 0.0, 0.0, 0.0, 1.7622064773952415E9, 0.0, 2025-11-03 16:47:57.395
58.0, 289.0606074752286, -31.94435547152534, 264.2557210191153, 12.47630625218153, -0.04800000227987766, -0.04800000227987766, 1.0400000493973494, 0.0, 0.0, 0.0, 0.0, 0.0, 1.7622064773952415E9, 0.0, 2025-11-03 16:47:57.395
59.0, 236.6346898963675, -83.5774142597802, 208.1497418838553, -46.58793374802917, -0.04800000227987766, -0.04800000227987766, 1.0400000493973494, 0.0, 0.0, 0.0, 0.0, 0.0, 1.7622064774110107E9, 0.0, 2025-11-03 16:47:57.411
59.0, 288.64173868019134, -47.117129591759294, 247.0596610228531, -7.872489406727254, -0.04800000227987766, -0.04800000227987766, 1.0400000493973494, 0.0, 0.0, 0.0, 0.0, 0.0, 1.7622064774110107E9, 0.0, 2025-11-03 16:47:57.411
60.0, 339.5006381776184, -2.862893416080624, 299.1901265052147, 46.32614075113088, -0.04800000227987766, -0.04800000227987766, 1.0400000493973494, 0.0, 0.0, 0.0, 0.0, 0.0, 1.7622064774115884E9, 0.0, 2025-11-03 16:47:57.411
60.0, 240.49800655059516, -91.6555981640704, 202.56607125001028, -49.19090411718935, -0.04800000227987766, -0.04800000227987766, 1.0400000493973494, 0.0, 0.0, 0.0, 0.0, 0.0, 1.7622064774115884E9, 0.0, 2025-11-03 16:47:57.411
61.0, 228.2161750961095, -105.68022299790755, 189.98130789911374, -64.93962283059955, -0.04800000227987766, -0.04800000227987766, 1.0400000493973494, 0.0, 0.0, 0.0, 0.0, 0.0, 1.7622064774252634E9, 0.0, 2025-11-03 16:47:57.425
61.0, 334.99405873101205, -6.513035772833973, 290.4836394083686, 31.153366630896926, -0.04800000227987766, -0.04800000227987766, 1.0400000493973494, 0.0, 0.0, 0.0, 0.0, 0.0, 1.7622064774252634E9, 0.0, 2025-11-03 16:47:57.425
62.0, 248.3368368577212, -73.72651777649298, 223.6067484007217, -26.93475948087871, -0.04800000227987766, -0.04800000227987766, 1.0400000493973494, 0.0, 0.0, 0.0, 0.0, 0.0, 1.762206477441098E9, 0.0, 2025-11-03 16:47:57.441
62.0, 219.8051400957629, -107.89798367163166, 183.79925327235833, -59.415790596045554, -0.04800000227987766, -0.04800000227987766, 1.0400000493973494, 0.0, 0.0, 0.0, 0.0, 0.0, 1.762206477441098E9, 0.0, 2025-11-03 16:47:57.441
63.0, 312.98100759182125, -26.143770640250295, 275.1089106905274, 25.81652939412743, -0.04800000227987766, -0.04800000227987766, 1.0400000493973494, 0.0, 0.0, 0.0, 0.0, 0.0, 1.7622064774415598E9, 0.0, 2025-11-03 16:47:57.441
63.0, 294.6629776088521, -35.16066943341866, 265.35151170613244, 14.196660231798887, -0.04800000227987766, -0.04800000227987766, 1.0400000493973494, 0.0, 0.0, 0.0, 0.0, 0.0, 1.7622064774415598E9, 0.0, 2025-11-03 16:47:57.441
64.0, 240.4493878511712, -83.63725265907124, 212.75729862926528, -37.42143895663321, -0.04800000227987766, -0.04800000227987766, 1.0400000493973494, 0.0, 0.0, 0.0, 0.0, 0.0, 1.7622064774551575E9, 0.0, 2025-11-03 16:47:57.455
64.0, 276.12055362854153, -59.215705948416144, 238.47285072458908, -14.89976142346859, -0.04800000227987766, -0.04800000227987766, 1.0400000493973494, 0.0, 0.0, 0.0, 0.0, 0.0, 1.7622064774551575E9, 0.0, 2025-11-03 16:47:57.455
65.0, 329.4964057961479, -6.666371671017259, 294.72842585807666, 43.214543987996876, -0.04800000227987766, -0.04800000227987766, 1.0400000493973494, 0.0, 0.0, 0.0, 0.0, 0.0, 1.7622064774709802E9, 0.0, 2025-11-03 16:47:57.470
