%OpenBCI Raw EXG Data
%Number of channels = 4
%Sample Rate = 200 Hz
%Board = OpenBCI_GUI$BoardGanglionBLE
Sample Index, EXG Channel 0, EXG Channel 1, EXG Channel 2, EXG Channel 3, Accel Channel 0, Accel Channel 1, Accel Channel 2, Other, Other, Other, Other, Other, Timestamp, Marker Channel, Timestamp (Formatted)
0.0, 202.9699804452248, -136.52130798250437, 144.28160039056093, -117.13366661220789, 0.0, 0.0, 0.0, 0.0, 0.0, 0.0, 0.0, 0.0, 1.7622065294488444E9, 0.0, 2025-11-03 16:48:49.448
1.0, 245.8367137373425, -97.01674475055188, 185.54765650164336, -69.44620227720588, 0.0, -0.03200000151991844, 0.0, 0.0, 0.0, 0.0, 0.0, 0.0, 1.7622065294621124E9, 0.0, 2025-11-03 16:48:49.462
1.0, 367.8920886912383, 11.795644460245967, 307.3337586587295, 47.77722193393856, 0.0, -0.03200000151991844, 0.0, 0.0, 0.0, 0.0, 0.0, 0.0, 1.7622065294621124E9, 0.0, 2025-11-03 16:48:49.462
2.0, 235.93345865467563, -101.49714489746839, 182.3425622396171, -70.58313186373562, -0.03200000151991844, -0.03200000151991844, 0.0, 0.0, 0.0, 0.0, 0.0, 0.0, 1.762206529478948E9, 0.0, 2025-11-03 16:48:49.478
2.0, 213.25470532337204, -123.02774894237518, 158.72883391939104, -98.30327033530921, -0.03200000151991844, -0.03200000151991844, 0.0, 0.0, 0.0, 0.0, 0.0, 0.0, 1.762206529478948E9, 0.0, 2025-11-03 16:48:49.478
3.0, 340.3701649173163, -19.77285106573254, 271.4307190841064, 22.14020773768425, -0.03200000151991844, -0.03200000151991844, 0.0, 0.0, 0.0, 0.0, 0.0, 0.0, 1.762206529479564E9, 0.0, 2025-11-03 16:48:49.479
3.0, 276.67966867191717, -65.49312802404165, 229.1137510854751, -7.842570207081735, -0.03200000151991844, -0.03200000151991844, 0.0, 0.0, 0.0, 0.0, 0.0, 0.0, 1.762206529479564E9, 0.0, 2025-11-03 16:48:49.479
4.0, 213.7109731179662, -121.73748345766217, 164.34990355279297, -82.60317032132298, -0.03200000151991844, -0.03200000151991844, 0.0, 0.0, 0.0, 0.0, 0.0, 0.0, 1.7622065294919505E9, 0.0, 2025-11-03 16:48:49.491
4.0, 296.6133354357444, -53.772281562909484, 234.64132321998477, -17.525171192362905, -0.03200000151991844, -0.03200000151991844, 0.0, 0.0, 0.0, 0.0, 0.0, 0.0, 1.7622065294919505E9, 0.0, 2025-11-03 16:48:49.491
5.0, 334.64063818519935, -19.33528277091682, 272.2684566741809, 24.07747591473162, -0.03200000151991844, -0.03200000151991844, 0.0, 0.0, 0.0, 0.0, 0.0, 0.0, 1.7622065295076687E9, 0.0, 2025-11-03 16:48:49.507
5.0, 211.28751794667915, -123.25962273962796, 163.0072794687003, -83.26513261348009, -0.03200000151991844, -0.03200000151991844, 0.0, 0.0, 0.0, 0.0, 0.0, 0.0, 1.7622065295076687E9, 0.0, 2025-11-03 16:48:49.507
6.0, 259.2479949784465, -89.38734884094447, 194.5720350947231, -55.9152442375198, -0.03200000151991844, -0.03200000151991844, 0.0, 0.0, 0.0, 0.0, 0.0, 0.0, 1.7622065295091896E9, 0.0, 2025-11-03 16:48:49.509
6.0, 388.74203094420955, 29.80326274689287, 324.3390837572515, 72.15014994516969, -0.03200000151991844, -0.03200000151991844, 0.0, 0.0, 0.0, 0.0, 0.0, 0.0, 1.7622065295091896E9, 0.0, 2025-11-03 16:48:49.509
7.0, 231.69989190483466, -102.40594058670104, 181.91621364466846, -65.86337811965495, -0.03200000151991844, -0.03200000151991844, 0.0, 0.0, 0.0, 0.0, 0.0, 0.0, 1.7622065295220165E9, 0.0, 2025-11-03 16:48:49.522
7.0, 232.11876069987193, -107.03219683188945, 175.37138872221112, -60.111411987803876, -0.03200000151991844, -0.03200000151991844, 0.0, 0.0, 0.0, 0.0, 0.0, 0.0, 1.7622065295220165E9, 0.0, 2025-11-03 16:48:49.522
8.0, 351.5487258848734, -9.6713812854141, 280.37281987816095, 25.666933395899832, -0.03200000151991844, -0.03200000151991844, 0.0, 0.0, 0.0, 0.0, 0.0, 0.0, 1.7622065295376968E9, 0.0, 2025-11-03 16:48:49.537
8.0, 296.7591915340163, -45.46222386136651, 240.03051905613393, -9.465686787851155, -0.03200000151991844, -0.03200000151991844, 0.0, 0.0, 0.0, 0.0, 0.0, 0.0, 1.7622065295376968E9, 0.0, 2025-11-03 16:48:49.537
9.0, 209.34650986967608, -120.39485937356949, 163.68046146072447, -81.1146901389584, -0.03200000151991844, -0.03200000151991844, 0.0, 0.0, 0.0, 0.0, 0.0, 0.0, 1.7622065295383713E9, 0.0, 2025-11-03 16:48:49.538
9.0, 283.1609152951278, -65.19767592754215, 227.0717657096684, -9.196413991041481, -0.03200000151991844, -0.03200000151991844, 0.0, 0.0, 0.0, 0.0, 0.0, 0.0, 1.7622065295383713E9, 0.0, 2025-11-03 16:48:49.538
10.0, 350.0004073032178, 0.8639168897643685, 296.34219268895686, 48.23722962848842, -0.03200000151991844, -0.03200000151991844, 0.5280000250786543, 0.0, 0.0, 0.0, 0.0, 0.0, 1.762206529551974E9, 0.0, 2025-11-03 16:48:49.551
10.0, 228.33398194471374, -108.43091941531748, 173.2284260476008, -61.83924576733261, -0.03200000151991844, -0.03200000151991844, 0.5280000250786543, 0.0, 0.0, 0.0, 0.0, 0.0, 1.762206529551974E9, 0.0, 2025-11-03 16:48:49.551
11.0, 253.33521314850077, -88.32521725352854, 198.22591735143214, -31.80784912314266, -0.03200000151991844, -0.04800000227987766, 0.5280000250786543, 0.0, 0.0, 0.0, 0.0, 0.0, 1.7622065295846498E9, 0.0, 2025-11-03 16:48:49.584
11.0, 361.62401636550203, 2.6740284683182836, 287.71798339113593, 9.888295482844114, -0.03200000151991844, -0.04800000227987766, 0.5280000250786543, 0.0, 0.0, 0.0, 0.0, 0.0, 1.7622065295846498E9, 0.0, 2025-11-03 16:48:49.584
12.0, 237.25738323898986, -94.51101178023964, 193.29298930987716, -53.96675636060536, -0.03200000151991844, -0.04800000227987766, 0.5280000250786543, 0.0, 0.0, 0.0, 0.0, 0.0, 1.7622065295851762E9, 0.0, 2025-11-03 16:48:49.585
12.0, 227.73559795180336, -106.00746424403042, 183.44209282658994, -56.091019535437226, -0.03200000151991844, -0.04800000227987766, 0.5280000250786543, 0.0, 0.0, 0.0, 0.0, 0.0, 1.7622065295851762E9, 0.0, 2025-11-03 16:48:49.585
13.0, 333.7355823959224, -16.53783760406077, 280.8103881729767, 44.73668326996267, -0.03200000151991844, -0.04800000227987766, 0.5280000250786543, 0.0, 0.0, 0.0, 0.0, 0.0, 1.7622065295858965E9, 0.0, 2025-11-03 16:48:49.585
13.0, 278.75531314732507, -56.82777982670814, 239.05814506765455, -9.27869179006666, -0.03200000151991844, -0.04800000227987766, 0.5280000250786543, 0.0, 0.0, 0.0, 0.0, 0.0, 1.7622065295858965E9, 0.0, 2025-11-03 16:48:49.585
14.0, 203.17567494278774, -130.14477855805308, 156.79904554225504, -92.95895329862833, -0.03200000151991844, -0.04800000227987766, 0.5280000250786543, 0.0, 0.0, 0.0, 0.0, 0.0, 1.7622065295977623E9, 0.0, 2025-11-03 16:48:49.597
14.0, 288.03026503743604, -59.82717959117144, 229.09879148565233, -18.998691774904728, -0.03200000151991844, -0.04800000227987766, 0.5280000250786543, 0.0, 0.0, 0.0, 0.0, 0.0, 1.7622065295977623E9, 0.0, 2025-11-03 16:48:49.597
15.0, 350.1948821009137, 2.382316271774471, 302.744901413098, 61.65599066950381, -0.03200000151991844, -0.04800000227987766, 0.5280000250786543, 0.0, 0.0, 0.0, 0.0, 0.0, 1.7622065295983863E9, 0.0, 2025-11-03 16:48:49.598
15.0, 220.62978803599253, -113.36010755691677, 168.77046530041844, -83.06317801587284, -0.03200000151991844, -0.04800000227987766, 0.5280000250786543, 0.0, 0.0, 0.0, 0.0, 0.0, 1.7622065295983863E9, 0.0, 2025-11-03 16:48:49.598
16.0, 256.90307770622894, -84.47312029916793, 200.99718321859837, -48.57382062450051, -0.03200000151991844, -0.04800000227987766, 0.5280000250786543, 0.0, 0.0, 0.0, 0.0, 0.0, 1.762206529611979E9, 0.0, 2025-11-03 16:48:49.611
16.0, 378.47600556584075, 30.51758363842964, 327.66011491790414, 70.82248546089977, -0.03200000151991844, -0.04800000227987766, 0.5280000250786543, 0.0, 0.0, 0.0, 0.0, 0.0, 1.762206529611979E9, 0.0, 2025-11-03 16:48:49.611
17.0, 245.64223893964663, -83.3361907126382, 209.23618282098323, -38.3152750460431, -0.03200000151991844, -0.04800000227987766, 0.5280000250786543, 0.0, 0.0, 0.0, 0.0, 0.0, 1.7622065296276803E9, 0.0, 2025-11-03 16:48:49.627
17.0, 233.5399226830341, -95.42728726938367, 196.93565186671913, -46.59167364798486, -0.03200000151991844, -0.04800000227987766, 0.5280000250786543, 0.0, 0.0, 0.0, 0.0, 0.0, 1.7622065296276803E9, 0.0, 2025-11-03 16:48:49.627
18.0, 349.0654323142953, 0.8639168897643685, 298.5449937628582, 46.57297414820641, -0.03200000151991844, -0.04800000227987766, 0.5280000250786543, 0.0, 0.0, 0.0, 0.0, 0.0, 1.76220652962838E9, 0.0, 2025-11-03 16:48:49.628
18.0, 274.7872792943381, -51.15809149388224, 246.05549788475037, 7.816390907391906, -0.03200000151991844, -0.04800000227987766, 0.5280000250786543, 0.0, 0.0, 0.0, 0.0, 0.0, 1.76220652962838E9, 0.0, 2025-11-03 16:48:49.628
19.0, 216.88240828039125, -106.44129263889045, 187.40638677962124, -57.81511341501027, -0.03200000151991844, -0.04800000227987766, 0.5280000250786543, 0.0, 0.0, 0.0, 0.0, 0.0, 1.7622065296420379E9, 0.0, 2025-11-03 16:48:49.642
19.0, 295.62600184744224, -45.00969596672803, 246.32103078160435, -6.092297027818859, -0.03200000151991844, -0.04800000227987766, 0.5280000250786543, 0.0, 0.0, 0.0, 0.0, 0.0, 1.7622065296420379E9, 0.0, 2025-11-03 16:48:49.642
20.0, 329.63291214453056, -11.27205846644938, 286.78300840221345, 34.75115038827062, -0.03200000151991844, -0.04800000227987766, 0.7840000372380018, 0.0, 0.0, 0.0, 0.0, 0.0, 1.762206529657814E9, 0.0, 2025-11-03 16:48:49.657
20.0, 210.55449755536392, -114.85232763923705, 177.7911039935425, -71.18899565655738, -0.03200000151991844, -0.04800000227987766, 0.7840000372380018, 0.0, 0.0, 0.0, 0.0, 0.0, 1.762206529657814E9, 0.0, 2025-11-03 16:48:49.657
21.0, 242.2426698799245, -91.06656392104924, 201.7638627095148, -42.459084196947515, -0.03200000151991844, -0.04800000227987766, 0.7840000372380018, 0.0, 0.0, 0.0, 0.0, 0.0, 1.7622065296583805E9, 0.0, 2025-11-03 16:48:49.658
21.0, 360.5544049781747, 7.64809540938586, 316.1187836546451, 64.34871863760054, -0.03200000151991844, -0.04800000227987766, 0.7840000372380018, 0.0, 0.0, 0.0, 0.0, 0.0, 1.7622065296583805E9, 0.0, 2025-11-03 16:48:49.658
22.0, 236.55054214736447, -98.92783362790942, 197.11142716463655, -57.05217382404953, -0.04800000227987766, -0.04800000227987766, 0.7840000372380018, 0.0, 0.0, 0.0, 0.0, 0.0, 1.7622065296720374E9, 0.0, 2025-11-03 16:48:49.672
22.0, 226.3518349681981, -109.67630610056221, 185.61497470084578, -71.2189148562029, -0.04800000227987766, -0.04800000227987766, 0.7840000372380018, 0.0, 0.0, 0.0, 0.0, 0.0, 1.7622065296720374E9, 0.0, 2025-11-03 16:48:49.672
23.0, 343.9305496751331, 0.03739899955689907, 301.79122692439705, 56.0274412361905, -0.04800000227987766, -0.04800000227987766, 0.7840000372380018, 0.0, 0.0, 0.0, 0.0, 0.0, 1.7622065296876884E9, 0.0, 2025-11-03 16:48:49.687
23.0, 282.2670792057179, -49.347979915328324, 249.73181954119354, 9.6339822858572, -0.04800000227987766, -0.04800000227987766, 0.7840000372380018, 0.0, 0.0, 0.0, 0.0, 0.0, 1.7622065296876884E9, 0.0, 2025-11-03 16:48:49.687
24.0, 215.2667714995332, -111.46771817933768, 178.5989223839715, -72.87195063661784, -0.04800000227987766, -0.04800000227987766, 0.7840000372380018, 0.0, 0.0, 0.0, 0.0, 0.0, 1.762206529688368E9, 0.0, 2025-11-03 16:48:49.688
24.0, 296.4936586371623, -37.10354746039957, 260.3419157154858, 11.118722568266094, -0.04800000227987766, -0.04800000227987766, 0.7840000372380018, 0.0, 0.0, 0.0, 0.0, 0.0, 1.762206529688368E9, 0.0, 2025-11-03 16:48:49.688
25.0, 332.90532460575923, 1.0733512872830033, 307.4085566578433, 61.10622537601739, -0.04800000227987766, -0.04800000227987766, 0.7840000372380018, 0.0, 0.0, 0.0, 0.0, 0.0, 1.762206529701999E9, 0.0, 2025-11-03 16:48:49.701
25.0, 220.41287383856252, -107.83627532236278, 179.2309654764831, -77.64780288003385, -0.04800000227987766, -0.04800000227987766, 0.7840000372380018, 0.0, 0.0, 0.0, 0.0, 0.0, 1.762206529701999E9, 0.0, 2025-11-03 16:48:49.701
26.0, 247.15689842170104, -92.1174758085981, 197.82948795612901, -49.19090411718935, -0.04800000227987766, -0.04800000227987766, 0.7840000372380018, 0.0, 0.0, 0.0, 0.0, 0.0, 1.7622065297178416E9, 0.0, 2025-11-03 16:48:49.717
26.0, 362.903062150348, 9.862116183154285, 314.7724196705967, 62.7704808562994, -0.04800000227987766, -0.04800000227987766, 0.7840000372380018, 0.0, 0.0, 0.0, 0.0, 0.0, 1.7622065297178416E9, 0.0, 2025-11-03 16:48:49.717
27.0, 228.59951484156772, -94.09214298520237, 207.5457480410114, -40.36100032180548, -0.04800000227987766, -0.04800000227987766, 0.7840000372380018, 0.0, 0.0, 0.0, 0.0, 0.0, 1.762206529718382E9, 0.0, 2025-11-03 16:48:49.718
27.0, 212.37208893382922, -120.54445537179708, 178.16509398911148, -70.20540196821094, -0.04800000227987766, -0.04800000227987766, 0.7840000372380018, 0.0, 0.0, 0.0, 0.0, 0.0, 1.762206529718382E9, 0.0, 2025-11-03 16:48:49.718
28.0, 340.31780631793663, -10.292204678058624, 297.6287182737142, 52.76998837478459, -0.04800000227987766, -0.04800000227987766, 0.7840000372380018, 0.0, 0.0, 0.0, 0.0, 0.0, 1.76220652973208E9, 0.0, 2025-11-03 16:48:49.732
28.0, 280.082977631595, -49.07496721856296, 249.84027663990855, 1.7951519787311554, -0.04800000227987766, -0.04800000227987766, 0.7840000372380018, 0.0, 0.0, 0.0, 0.0, 0.0, 1.76220652973208E9, 0.0, 2025-11-03 16:48:49.732
29.0, 208.1497418838553, -118.33043459802866, 169.70170038938522, -74.41278941836208, -0.04800000227987766, -0.04800000227987766, 0.7840000372380018, 0.0, 0.0, 0.0, 0.0, 0.0, 1.7622065297476285E9, 0.0, 2025-11-03 16:48:49.747
29.0, 279.4771138387732, -58.918383901938796, 232.34128474723548, -9.66016158554703, -0.04800000227987766, -0.04800000227987766, 0.7840000372380018, 0.0, 0.0, 0.0, 0.0, 0.0, 1.7622065297476285E9, 0.0, 2025-11-03 16:48:49.747
30.0, 334.27786788949743, -8.900961894541979, 299.5024081515148, 51.767695186659694, -0.04800000227987766, -0.04800000227987766, 0.9120000433176756, 0.0, 0.0, 0.0, 0.0, 0.0, 1.7622065297483568E9, 0.0, 2025-11-03 16:48:49.748
30.0, 211.8185837403871, -114.56435534264892, 182.69785273540765, -62.39275096077472, -0.04800000227987766, -0.04800000227987766, 0.9120000433176756, 0.0, 0.0, 0.0, 0.0, 0.0, 1.7622065297483568E9, 0.0, 2025-11-03 16:48:49.748
31.0, 230.23011122224852, -97.42439384572208, 203.34958029072732, -36.030196173116565, -0.04800000227987766, -0.04800000227987766, 0.9120000433176756, 0.0, 0.0, 0.0, 0.0, 0.0, 1.7622065297619858E9, 0.0, 2025-11-03 16:48:49.761
31.0, 355.99172703223303, 11.373035765253007, 322.3344973810017, 75.63947660382837, -0.04800000227987766, -0.04800000227987766, 0.9120000433176756, 0.0, 0.0, 0.0, 0.0, 0.0, 1.7622065297619858E9, 0.0, 2025-11-03 16:48:49.761
32.0, 237.81088843243197, -83.51196601055562, 218.02120781689882, -11.855482859537005, -0.04800000227987766, -0.04800000227987766, 0.9120000433176756, 0.0, 0.0, 0.0, 0.0, 0.0, 1.7622065297780929E9, 0.0, 2025-11-03 16:48:49.778
32.0, 231.53907620674, -88.99091944564134, 205.9114117603749, -46.40841855015606, -0.04800000227987766, -0.04800000227987766, 0.9120000433176756, 0.0, 0.0, 0.0, 0.0, 0.0, 1.7622065297780929E9, 0.0, 2025-11-03 16:48:49.778
33.0, 345.15723686059937, 7.218006914481521, 311.3765905108303, 67.7370679974556, -0.04800000227987766, -0.04800000227987766, 0.9120000433176756, 0.0, 0.0, 0.0, 0.0, 0.0, 1.7622065297783597E9, 0.0, 2025-11-03 16:48:49.778
33.0, 296.4188606380485, -20.816283153370023, 283.6601919392124, 39.89725272729993, -0.04800000227987766, -0.04800000227987766, 0.9120000433176756, 0.0, 0.0, 0.0, 0.0, 0.0, 1.7622065297783597E9, 0.0, 2025-11-03 16:48:49.778
34.0, 221.05987653089687, -92.97391289845109, 210.1000997107476, -27.073135779239237, -0.04800000227987766, -0.04800000227987766, 0.9120000433176756, 0.0, 0.0, 0.0, 0.0, 0.0, 1.7622065297920496E9, 0.0, 2025-11-03 16:48:49.792
34.0, 294.5339510603808, -26.09702189080417, 281.9585374593735, 50.58214690070599, -0.04800000227987766, -0.04800000227987766, 0.9120000433176756, 0.0, 0.0, 0.0, 0.0, 0.0, 1.7622065297920496E9, 0.0, 2025-11-03 16:48:49.792
35.0, 353.7328274589963, 37.77298955246806, 358.8060017488897, 119.23923028726131, -0.04800000227987766, -0.04800000227987766, 0.9120000433176756, 0.0, 0.0, 0.0, 0.0, 0.0, 1.7622065298078055E9, 0.0, 2025-11-03 16:48:49.807
35.0, 217.20403967658058, -84.71247389633209, 225.27287383098155, -4.2036475501954556, -0.04800000227987766, -0.04800000227987766, 0.9120000433176756, 0.0, 0.0, 0.0, 0.0, 0.0, 1.7622065298078055E9, 0.0, 2025-11-03 16:48:49.807
36.0, 247.04470142303035, -65.07799912896007, 248.2695186585188, 17.016544798389077, -0.04800000227987766, -0.04800000227987766, 0.9120000433176756, 0.0, 0.0, 0.0, 0.0, 0.0, 1.7622065298083465E9, 0.0, 2025-11-03 16:48:49.808
36.0, 369.0851167771034, 42.17859170027077, 366.1025465624407, 133.96321641281247, -0.04800000227987766, -0.04800000227987766, 0.9120000433176756, 0.0, 0.0, 0.0, 0.0, 0.0, 1.7622065298083465E9, 0.0, 2025-11-03 16:48:49.808
37.0, 238.51772952405736, -64.52823383547366, 247.35324316937476, 24.784317006357014, -0.04800000227987766, -0.04800000227987766, 0.9120000433176756, 0.0, 0.0, 0.0, 0.0, 0.0, 1.7622065298219855E9, 0.0, 2025-11-03 16:48:49.821
37.0, 226.91281996155158, -78.13024997431785, 231.06597886234522, 0.20195459760725498, -0.04800000227987766, -0.04800000227987766, 0.9120000433176756, 0.0, 0.0, 0.0, 0.0, 0.0, 1.7622065298219855E9, 0.0, 2025-11-03 16:48:49.821
38.0, 329.7376293432899, 14.623008826747537, 335.6036624237895, 105.83542884606868, -0.04800000227987766, -0.04800000227987766, 0.9120000433176756, 0.0, 0.0, 0.0, 0.0, 0.0, 1.762206529837798E9, 0.0, 2025-11-03 16:48:49.837
38.0, 285.91722156247124, -22.312243135645986, 299.741761748679, 66.67119651008397, -0.04800000227987766, -0.04800000227987766, 0.9120000433176756, 0.0, 0.0, 0.0, 0.0, 0.0, 1.762206529837798E9, 0.0, 2025-11-03 16:48:49.837
39.0, 223.62170800054446, -79.49905335810035, 236.24948020093143, 10.352043077349663, -0.04800000227987766, -0.04800000227987766, 0.9120000433176756, 0.0, 0.0, 0.0, 0.0, 0.0, 1.762206529838384E9, 0.0, 2025-11-03 16:48:49.838
39.0, 289.40280832117423, -32.30151591729373, 289.7300495672971, 60.02165438886732, -0.04800000227987766, -0.04800000227987766, 0.9120000433176756, 0.0, 0.0, 0.0, 0.0, 0.0, 1.762206529838384E9, 0.0, 2025-11-03 16:48:49.838
40.0, 332.9614231050946, 18.14225468505174, 341.9091337490827, 106.3814542395994, -0.04800000227987766, -0.04800000227987766, 0.9760000463575125, 0.0, 0.0, 0.0, 0.0, 0.0, 1.762206529851972E9, 0.0, 2025-11-03 16:48:49.851
40.0, 205.1952209188603, -89.29011144209653, 222.72974186111242, -6.324170825071633, -0.04800000227987766, -0.04800000227987766, 0.9760000463575125, 0.0, 0.0, 0.0, 0.0, 0.0, 1.762206529851972E9, 0.0, 2025-11-03 16:48:49.851
41.0, 241.2403766917996, -62.224455462768674, 255.8615155685693, 17.67102729063481, -0.04800000227987766, -0.04800000227987766, 0.9760000463575125, 0.0, 0.0, 0.0, 0.0, 0.0, 1.7622065298678448E9, 0.0, 2025-11-03 16:48:49.867
41.0, 369.02153847785667, 55.07750664744526, 378.7995069120079, 138.35385896079242, -0.04800000227987766, -0.04800000227987766, 0.9760000463575125, 0.0, 0.0, 0.0, 0.0, 0.0, 1.7622065298678448E9, 0.0, 2025-11-03 16:48:49.867
42.0, 234.0896879765205, -61.18850317504257, 248.60610965453088, 18.800477077253163, -0.04800000227987766, -0.04800000227987766, 0.9760000463575125, 0.0, 0.0, 0.0, 0.0, 0.0, 1.762206529868366E9, 0.0, 2025-11-03 16:48:49.868
42.0, 224.7174986875616, -81.8925893297419, 232.12811044976115, 10.019191981293261, -0.04800000227987766, -0.04800000227987766, 0.9760000463575125, 0.0, 0.0, 0.0, 0.0, 0.0, 1.762206529868366E9, 0.0, 2025-11-03 16:48:49.868
43.0, 335.2091029784642, 16.96044629905373, 334.33209643885493, 107.11447463091463, -0.04800000227987766, -0.04800000227987766, 0.9760000463575125, 0.0, 0.0, 0.0, 0.0, 0.0, 1.7622065298819857E9, 0.0, 2025-11-03 16:48:49.881
43.0, 278.24294685339555, -26.11572139058262, 292.12358553893864, 51.96216998435557, -0.04800000227987766, -0.04800000227987766, 0.9760000463575125, 0.0, 0.0, 0.0, 0.0, 0.0, 1.7622065298819857E9, 0.0, 2025-11-03 16:48:49.881
44.0, 204.8960289224051, -99.16718722507358, 214.6627776566893, -20.808803353458643, -0.04800000227987766, -0.04800000227987766, 0.9760000463575125, 0.0, 0.0, 0.0, 0.0, 0.0, 1.7622065298976667E9, 0.0, 2025-11-03 16:48:49.897
44.0, 277.90635585738346, -40.031889125704765, 275.92981873080134, 39.598060730844736, -0.04800000227987766, -0.04800000227987766, 0.9760000463575125, 0.0, 0.0, 0.0, 0.0, 0.0, 1.7622065298976667E9, 0.0, 2025-11-03 16:48:49.897
45.0, 329.68153084395453, 9.978053081780672, 329.5263249957934, 92.84675629995763, -0.04800000227987766, -0.04800000227987766, 0.9760000463575125, 0.0, 0.0, 0.0, 0.0, 0.0, 1.7622065298983607E9, 0.0, 2025-11-03 16:48:49.898
45.0, 201.7058942602016, -99.77305101789534, 208.73503622692078, -24.13357441406697, -0.04800000227987766, -0.04800000227987766, 0.9760000463575125, 0.0, 0.0, 0.0, 0.0, 0.0, 1.7622065298983607E9, 0.0, 2025-11-03 16:48:49.898
46.0, 225.03913008375093, -81.61583673302084, 231.3689107587561, 3.422008459456265, -0.04800000227987766, -0.04800000227987766, 0.9760000463575125, 0.0, 0.0, 0.0, 0.0, 0.0, 1.7622065299120228E9, 0.0, 2025-11-03 16:48:49.912
46.0, 348.12671742541716, 25.651973796077073, 346.55034959409386, 118.33043459802866, -0.04800000227987766, -0.04800000227987766, 0.9760000463575125, 0.0, 0.0, 0.0, 0.0, 0.0, 1.7622065299120228E9, 0.0, 2025-11-03 16:48:49.912
47.0, 207.4840396917425, -92.3381299059838, 225.17563643213362, 7.614436309784651, -0.04800000227987766, -0.04800000227987766, 0.9760000463575125, 0.0, 0.0, 0.0, 0.0, 0.0, 1.7622065299276936E9, 0.0, 2025-11-03 16:48:49.927
47.0, 202.2294802539982, -105.94388594478369, 204.3930123783648, -19.496098469011486, -0.04800000227987766, -0.04800000227987766, 0.9760000463575125, 0.0, 0.0, 0.0, 0.0, 0.0, 1.7622065299276936E9, 0.0, 2025-11-03 16:48:49.927
48.0, 313.97021113010123, -6.944994217716157, 312.3414846993983, 76.53705259319395, -0.04800000227987766, -0.04800000227987766, 0.9760000463575125, 0.0, 0.0, 0.0, 0.0, 0.0, 1.7622065299285212E9, 0.0, 2025-11-03 16:48:49.928
48.0, 265.6993224020116, -41.91679870337248, 278.25603650324047, 38.72666404116899, -0.04800000227987766, -0.04800000227987766, 0.9760000463575125, 0.0, 0.0, 0.0, 0.0, 0.0, 1.7622065299285212E9, 0.0, 2025-11-03 16:48:49.928
49.0, 211.45955334464088, -93.75555198919028, 218.1820235149935, -17.001585198566318, -0.04800000227987766, -0.04800000227987766, 0.9760000463575125, 0.0, 0.0, 0.0, 0.0, 0.0, 1.7622065299420135E9, 0.0, 2025-11-03 16:48:49.942
49.0, 281.6686952128075, -40.495636720210314, 276.6852785218507, 41.40817230939865, -0.04800000227987766, -0.04800000227987766, 0.9760000463575125, 0.0, 0.0, 0.0, 0.0, 0.0, 1.7622065299420135E9, 0.0, 2025-11-03 16:48:49.942
50.0, 338.98266203375533, 24.290650212205946, 345.8659479022026, 109.56036920193583, -0.04800000227987766, -0.04800000227987766, 1.008000047877431, 0.0, 0.0, 0.0, 0.0, 0.0, 1.7622065299583905E9, 0.0, 2025-11-03 16:48:49.958
50.0, 210.90978805115446, -88.44489405211061, 222.93917625863105, -11.522631763480604, -0.04800000227987766, -0.04800000227987766, 1.008000047877431, 0.0, 0.0, 0.0, 0.0, 0.0, 1.7622065299583905E9, 0.0, 2025-11-03 16:48:49.958
51.0, 244.52400885289535, -64.48709493596107, 238.73651367146522, -0.011219699867069721, -0.04800000227987766, -0.06400000303983688, 1.008000047877431, 0.0, 0.0, 0.0, 0.0, 0.0, 1.7622065299590814E9, 0.0, 2025-11-03 16:48:49.959
51.0, 370.94758695503697, 45.74271635804325, 362.60200020391494, 118.43515179678798, -0.04800000227987766, -0.06400000303983688, 1.008000047877431, 0.0, 0.0, 0.0, 0.0, 0.0, 1.7622065299590814E9, 0.0, 2025-11-03 16:48:49.959
52.0, 229.5307499305345, -70.45971516519785, 237.0012000920251, -8.403555200435221, -0.04800000227987766, -0.06400000303983688, 1.008000047877431, 0.0, 0.0, 0.0, 0.0, 0.0, 1.762206529971953E9, 0.0, 2025-11-03 16:48:49.971
52.0, 211.92704083910212, -94.51849158015102, 209.96546331234276, -13.31404384225607, -0.04800000227987766, -0.06400000303983688, 1.008000047877431, 0.0, 0.0, 0.0, 0.0, 0.0, 1.762206529971953E9, 0.0, 2025-11-03 16:48:49.971
53.0, 339.3678717291914, 14.727726025506854, 329.0438779015094, 95.78257776517421, -0.04800000227987766, -0.06400000303983688, 1.008000047877431, 0.0, 0.0, 0.0, 0.0, 0.0, 1.7622065299877205E9, 0.0, 2025-11-03 16:48:49.987
53.0, 274.0654786028899, -32.99713730905205, 281.4199918657541, 33.71519810054451, -0.04800000227987766, -0.06400000303983688, 1.008000047877431, 0.0, 0.0, 0.0, 0.0, 0.0, 1.7622065299877205E9, 0.0, 2025-11-03 16:48:49.987
54.0, 207.94778728624806, -99.41402062214911, 215.365878848359, -21.76621774211526, -0.04800000227987766, -0.06400000303983688, 1.008000047877431, 0.0, 0.0, 0.0, 0.0, 0.0, 1.7622065299884186E9, 0.0, 2025-11-03 16:48:49.988
54.0, 290.80153090460226, -27.959492068737745, 292.30310073681176, 60.80329347960651, -0.04800000227987766, -0.06400000303983688, 1.008000047877431, 0.0, 0.0, 0.0, 0.0, 0.0, 1.7622065299884186E9, 0.0, 2025-11-03 16:48:49.988
55.0, 331.9628698169254, 9.27869179006666, 332.4210075614974, 82.51715262234211, -0.04800000227987766, -0.06400000303983688, 1.008000047877431, 0.0, 0.0, 0.0, 0.0, 0.0, 1.7622065300019875E9, 0.0, 2025-11-03 16:48:50.001
55.0, 199.78732558293268, -103.18383977748454, 209.60269301664084, -23.179899925366044, -0.04800000227987766, -0.06400000303983688, 1.008000047877431, 0.0, 0.0, 0.0, 0.0, 0.0, 1.7622065300019875E9, 0.0, 2025-11-03 16:48:50.001
56.0, 217.77250446984544, -93.00009219814092, 228.2909730952233, 1.690434779971838, -0.04800000227987766, -0.06400000303983688, 1.008000047877431, 0.0, 0.0, 0.0, 0.0, 0.0, 1.7622065300177813E9, 0.0, 2025-11-03 16:48:50.017
56.0, 346.5260402443819, 19.484878769144416, 343.8688413258642, 106.59088863711804, -0.04800000227987766, -0.06400000303983688, 1.008000047877431, 0.0, 0.0, 0.0, 0.0, 0.0, 1.7622065300177813E9, 0.0, 2025-11-03 16:48:50.017
57.0, 227.2007922581397, -78.01805297564715, 235.5201997095719, 3.2424932615831494, -0.04800000227987766, -0.06400000303983688, 1.008000047877431, 0.0, 0.0, 0.0, 0.0, 0.0, 1.7622065300184155E9, 0.0, 2025-11-03 16:48:50.018
57.0, 192.3711039707996, -125.16323181707412, 187.85891467425972, -43.54365518409759, -0.04800000227987766, -0.06400000303983688, 1.008000047877431, 0.0, 0.0, 0.0, 0.0, 0.0, 1.7622065300184155E9, 0.0, 2025-11-03 16:48:50.018
58.0, 318.3197147785686, -10.45302037615329, 311.9600149039179, 82.01226612832397, -0.04800000227987766, -0.06400000303983688, 1.008000047877431, 0.0, 0.0, 0.0, 0.0, 0.0, 1.7622065300320315E9, 0.0, 2025-11-03 16:48:50.032
58.0, 285.84616346331313, -32.009803720749915, 282.74391645006835, 56.45004993118346, -0.04800000227987766, -0.06400000303983688, 1.008000047877431, 0.0, 0.0, 0.0, 0.0, 0.0, 1.7622065300320315E9, 0.0, 2025-11-03 16:48:50.032
59.0, 203.94983423361555, -104.48158506210893, 200.44741792511195, -27.39102727547288, -0.04800000227987766, -0.06400000303983688, 1.008000047877431, 0.0, 0.0, 0.0, 0.0, 0.0, 1.7622065300476897E9, 0.0, 2025-11-03 16:48:50.047
59.0, 271.27551323594525, -48.861792921088636, 259.1301881298423, 20.853682152926922, -0.04800000227987766, -0.06400000303983688, 1.008000047877431, 0.0, 0.0, 0.0, 0.0, 0.0, 1.7622065300476897E9, 0.0, 2025-11-03 16:48:50.047
60.0, 341.26774090668187, 14.589349727146327, 326.83359702769667, 79.73092715535313, -0.04800000227987766, -0.06400000303983688, 1.0240000486373901, 0.0, 0.0, 0.0, 0.0, 0.0, 1.76220653004842E9, 0.0, 2025-11-03 16:48:50.048
60.0, 216.63183498336002, -93.92384748719633, 210.73962260317057, -18.677060378715396, -0.04800000227987766, -0.06400000303983688, 1.0240000486373901, 0.0, 0.0, 0.0, 0.0, 0.0, 1.76220653004842E9, 0.0, 2025-11-03 16:48:50.048
61.0, 242.39974567806348, -73.31699873134494, 231.21557486057281, 7.24792611412704, -0.04800000227987766, -0.06400000303983688, 1.0240000486373901, 0.0, 0.0, 0.0, 0.0, 0.0, 1.762206530061962E9, 0.0, 2025-11-03 16:48:50.061
61.0, 345.82667895266786, 16.50791840441525, 332.7613384574652, 83.1865947144106, -0.04800000227987766, -0.06400000303983688, 1.0240000486373901, 0.0, 0.0, 0.0, 0.0, 0.0, 1.762206530061962E9, 0.0, 2025-11-03 16:48:50.061
62.0, 229.63172722933814, -81.79161203093827, 228.5191069925204, -2.045725275762379, -0.04800000227987766, -0.06400000303983688, 1.0240000486373901, 0.0, 0.0, 0.0, 0.0, 0.0, 1.7622065300777724E9, 0.0, 2025-11-03 16:48:50.077
62.0, 212.16265453631058, -103.18009987752885, 201.66662531066686, -35.674905677326024, -0.04800000227987766, -0.06400000303983688, 1.0240000486373901, 0.0, 0.0, 0.0, 0.0, 0.0, 1.7622065300777724E9, 0.0, 2025-11-03 16:48:50.077
63.0, 329.22900294931605, 0.9125355891883373, 315.1090106666088, 90.96558662224561, -0.04800000227987766, -0.06400000303983688, 1.0240000486373901, 0.0, 0.0, 0.0, 0.0, 0.0, 1.762206530078503E9, 0.0, 2025-11-03 16:48:50.078
63.0, 287.753512440715, -30.835475134663284, 283.9481642358005, 51.22166979312897, -0.04800000227987766, -0.06400000303983688, 1.0240000486373901, 0.0, 0.0, 0.0, 0.0, 0.0, 1.762206530078503E9, 0.0, 2025-11-03 16:48:50.078
64.0, 212.0504575376399, -106.21689864154905, 199.1309731407091, -38.850080739706755, -0.04800000227987766, -0.06400000303983688, 1.0240000486373901, 0.0, 0.0, 0.0, 0.0, 0.0, 1.7622065300920708E9, 0.0, 2025-11-03 16:48:50.092
64.0, 277.296752164606, -50.30539430398494, 269.4897110071033, 32.88494031038135, -0.04800000227987766, -0.06400000303983688, 1.0240000486373901, 0.0, 0.0, 0.0, 0.0, 0.0, 1.7622065300920708E9, 0.0, 2025-11-03 16:48:50.092
65.0, 340.27666741842404, 12.782978048548102, 322.91418187413365, 82.77520571928471, -0.04800000227987766, -0.06400000303983688, 1.0240000486373901, 0.0, 0.0, 0.0, 0.0, 0.0, 1.762206530107716E9, 0.0, 2025-11-03 16:48:50.107
65.0, 210.0421312614344, -107.38748732767999, 194.63187349401414, -54.33326655626297, -0.04800000227987766, -0.06400000303983688, 1.0240000486373901, 0.0, 0.0, 0.0, 0.0, 0.0, 1.762206530107716E9, 0.0, 2025-11-03 16:48:50.107
66.0, 229.7925429274328, -94.784024477005, 208.68641752749681, -36.09751437231898, -0.04800000227987766, -0.06400000303983688, 1.0240000486373901, 0.0, 0.0, 0.0, 0.0, 0.0, 1.7622065301083856E9, 0.0, 2025-11-03 16:48:50.108
66.0, 345.86781785218045, 6.305471325293183, 326.29131153412163, 85.97282018139958, -0.04800000227987766, -0.06400000303983688, 1.0240000486373901, 0.0, 0.0, 0.0, 0.0, 0.0, 1.7622065301083856E9, 0.0, 2025-11-03 16:48:50.108
67.0, 233.2070715869777, -84.40206220000982, 230.77052676584572, -10.976606369949877, -0.04800000227987766, -0.06400000303983688, 1.0240000486373901, 0.0, 0.0, 0.0, 0.0, 0.0, 1.7622065301383607E9, 0.0, 2025-11-03 16:48:50.138
67.0, 217.01704467879608, -100.99973820336163, 205.78051526192576, -24.870334705337882, -0.04800000227987766, -0.06400000303983688, 1.0240000486373901, 0.0, 0.0, 0.0, 0.0, 0.0, 1.7622065301383607E9, 0.0, 2025-11-03 16:48:50.138
68.0, 325.78829499008134, -11.406694864854217, 307.28140005934983, 87.28178516589105, -0.04800000227987766, -0.06400000303983688, 1.0240000486373901, 0.0, 0.0, 0.0, 0.0, 0.0, 1.7622065301390846E9, 0.0, 2025-11-03 16:48:50.139
68.0, 280.16525543062016, -44.033582078292966, 265.5029776543379, 17.409234293736517, -0.04800000227987766, -0.06400000303983688, 1.0240000486373901, 0.0, 0.0, 0.0, 0.0, 0.0, 1.7622065301390846E9, 0.0, 2025-11-03 16:48:50.139
69.0, 209.57464376697317, -111.03014988452196, 191.24726403411478, -48.21853012870997, -0.04800000227987766, -0.06400000303983688, 1.0240000486373901, 0.0, 0.0, 0.0, 0.0, 0.0, 1.76220653013979E9, 0.0, 2025-11-03 16:48:50.139
69.0, 277.94375485694036, -50.963616696186364, 253.17252750042826, 19.099669073708355, -0.04800000227987766, -0.06400000303983688, 1.0240000486373901, 0.0, 0.0, 0.0, 0.0, 0.0, 1.76220653013979E9, 0.0, 2025-11-03 16:48:50.139
70.0, 333.78420109534636, 4.779592143371701, 315.98414725624025, 80.36297024786472, -0.04800000227987766, -0.06400000303983688, 1.0240000486373901, 0.0, 0.0, 0.0, 0.0, 0.0, 1.7622065301520007E9, 0.0, 2025-11-03 16:48:50.152
70.0, 209.32781036989763, -104.79573665838689, 201.55442831199616, -27.088095379061997, -0.04800000227987766, -0.06400000303983688, 1.0240000486373901, 0.0, 0.0, 0.0, 0.0, 0.0, 1.7622065301520007E9, 0.0, 2025-11-03 16:48:50.152
71.0, 233.2781296861358, -81.30168513674289, 221.3310192776844, -17.917860687710345, -0.04800000227987766, -0.06400000303983688, 1.0240000486373901, 0.0, 0.0, 0.0, 0.0, 0.0, 1.7622065301676698E9, 0.0, 2025-11-03 16:48:50.167
71.0, 353.8151052580215, 18.16469408478588, 328.228579711169, 71.15907645691186, -0.04800000227987766, -0.06400000303983688, 1.0240000486373901, 0.0, 0.0, 0.0, 0.0, 0.0, 1.7622065301676698E9, 0.0, 2025-11-03 16:48:50.167
72.0, 238.9852170185186, -70.699068762362, 236.19338170159608, 10.812050771899521, -0.04800000227987766, -0.06400000303983688, 1.0240000486373901, 0.0, 0.0, 0.0, 0.0, 0.0, 1.7622065301683753E9, 0.0, 2025-11-03 16:48:50.168
72.0, 226.41541326744482, -99.2719044238329, 211.25946869701147, -2.498253170400858, -0.04800000227987766, -0.06400000303983688, 1.0240000486373901, 0.0, 0.0, 0.0, 0.0, 0.0, 1.7622065301683753E9, 0.0, 2025-11-03 16:48:50.168
73.0, 327.6993838674389, -14.780084624886513, 290.7398225553334, 39.34374753385782, -0.04800000227987766, -0.06400000303983688, 1.0240000486373901, 0.0, 0.0, 0.0, 0.0, 0.0, 1.762206530182068E9, 0.0, 2025-11-03 16:48:50.182
73.0, 279.7015078361146, -39.58310113102198, 262.84764868579805, 11.619869162328541, -0.04800000227987766, -0.06400000303983688, 1.0240000486373901, 0.0, 0.0, 0.0, 0.0, 0.0, 1.762206530182068E9, 0.0, 2025-11-03 16:48:50.182
74.0, 217.84356256900355, -97.8245631409809, 208.15161183383316, -25.3453019997105, -0.04800000227987766, -0.06400000303983688, 1.0240000486373901, 0.0, 0.0, 0.0, 0.0, 0.0, 1.7622065301976511E9, 0.0, 2025-11-03 16:48:50.197
74.0, 266.67917619040236, -56.554767129942775, 254.6759672826156, 18.594782579690218, -0.04800000227987766, -0.06400000303983688, 1.0240000486373901, 0.0, 0.0, 0.0, 0.0, 0.0, 1.7622065301976511E9, 0.0, 2025-11-03 16:48:50.197
75.0, 331.581400021445, 3.6090034572407603, 319.6230699131265, 72.99162743519992, -0.04800000227987766, -0.06400000303983688, 1.0240000486373901, 0.0, 0.0, 0.0, 0.0, 0.0, 1.7622065301983595E9, 0.0, 2025-11-03 16:48:50.198
75.0, 211.09678304893896, -101.27649080008268, 214.3261866606772, -6.716860320419073, -0.04800000227987766, -0.06400000303983688, 1.0240000486373901, 0.0, 0.0, 0.0, 0.0, 0.0, 1.7622065301983595E9, 0.0, 2025-11-03 16:48:50.198
76.0, 219.13756795367226, -102.28626378811896, 206.96606354787946, -48.35316652711481, -0.04800000227987766, -0.06400000303983688, 1.0240000486373901, 0.0, 0.0, 0.0, 0.0, 0.0, 1.7622065302120228E9, 0.0, 2025-11-03 16:48:50.212
76.0, 340.08219262072816, 1.166848786175251, 314.2563134767115, 68.60846468713135, -0.04800000227987766, -0.06400000303983688, 1.0240000486373901, 0.0, 0.0, 0.0, 0.0, 0.0, 1.7622065302120228E9, 0.0, 2025-11-03 16:48:50.212
77.0, 259.00490148132667, -60.126371587626636, 244.42116160411388, 6.204494026489556, -0.04800000227987766, -0.06400000303983688, 1.0240000486373901, 0.0, 0.0, 0.0, 0.0, 0.0, 1.7622065302276573E9, 0.0, 2025-11-03 16:48:50.227
77.0, 234.3103420739062, -87.9325277581811, 218.60089231003076, -16.219946107827127, -0.04800000227987766, -0.06400000303983688, 1.0240000486373901, 0.0, 0.0, 0.0, 0.0, 0.0, 1.7622065302276573E9, 0.0, 2025-11-03 16:48:50.227
78.0, 311.32984176138416, -19.073489774018526, 294.8724120063707, 54.79701415076852, -0.04800000227987766, -0.06400000303983688, 1.0240000486373901, 0.0, 0.0, 0.0, 0.0, 0.0, 1.7622065302283568E9, 0.0, 2025-11-03 16:48:50.228
78.0, 285.7077871649526, -31.609634425491095, 278.5664481995627, 25.969865292310715, -0.04800000227987766, -0.06400000303983688, 1.0240000486373901, 0.0, 0.0, 0.0, 0.0, 0.0, 1.7622065302283568E9, 0.0, 2025-11-03 16:48:50.228
79.0, 225.41312007931992, -91.21242001932114, 212.19070378597826, -29.7920430470258, -0.04800000227987766, -0.06400000303983688, 1.0240000486373901, 0.0, 0.0, 0.0, 0.0, 0.0, 1.7622065302420304E9, 0.0, 2025-11-03 16:48:50.242
79.0, 261.0281873573549, -59.43075019586831, 251.33249672222883, 27.619161172769964, -0.04800000227987766, -0.06400000303983688, 1.0240000486373901, 0.0, 0.0, 0.0, 0.0, 0.0, 1.7622065302420304E9, 0.0, 2025-11-03 16:48:50.242
80.0, 315.15575941605493, -15.980592510662973, 295.3249399010092, 47.01802224293351, -0.04800000227987766, -0.06400000303983688, 1.0400000493973494, 0.0, 0.0, 0.0, 0.0, 0.0, 1.7622065302576728E9, 0.0, 2025-11-03 16:48:50.257
80.0, 235.29393576225266, -85.81200448330492, 218.35405891295522, -35.214897982776165, -0.04800000227987766, -0.06400000303983688, 1.0400000493973494, 0.0, 0.0, 0.0, 0.0, 0.0, 1.7622065302576728E9, 0.0, 2025-11-03 16:48:50.257
81.0, 237.97544403048232, -86.29445157758892, 216.71972263231874, -29.855621346272528, -0.04800000227987766, -0.06400000303983688, 1.0400000493973494, 0.0, 0.0, 0.0, 0.0, 0.0, 1.7622065302584236E9, 0.0, 2025-11-03 16:48:50.258
81.0, 333.2157363020815, 2.80866486672312, 321.148949095048, 102.61911488417536, -0.04800000227987766, -0.06400000303983688, 1.0400000493973494, 0.0, 0.0, 0.0, 0.0, 0.0, 1.7622065302584236E9, 0.0, 2025-11-03 16:48:50.258
82.0, 243.64513236330822, -77.29251238424331, 223.53756025154144, -33.04201610852033, -0.04800000227987766, -0.06400000303983688, 1.0400000493973494, 0.0, 0.0, 0.0, 0.0, 0.0, 1.7622065302719982E9, 0.0, 2025-11-03 16:48:50.271
82.0, 221.85647522145882, -101.40364739857614, 201.1318196170032, -49.85286640934646, -0.04800000227987766, -0.06400000303983688, 1.0400000493973494, 0.0, 0.0, 0.0, 0.0, 0.0, 1.7622065302719982E9, 0.0, 2025-11-03 16:48:50.271
83.0, 298.77873751008883, -32.87372061051428, 277.70253130979836, 32.24541741795838, -0.04800000227987766, -0.06400000303983688, 1.0400000493973494, 0.0, 0.0, 0.0, 0.0, 0.0, 1.762206530288029E9, 0.0, 2025-11-03 16:48:50.288
83.0, 285.5207921671681, -34.25374369416386, 282.8822927484289, 51.9509502844885, -0.04800000227987766, -0.06400000303983688, 1.0400000493973494, 0.0, 0.0, 0.0, 0.0, 0.0, 1.762206530288029E9, 0.0, 2025-11-03 16:48:50.288
84.0, 231.50541710713878, -85.12012299150229, 229.16236978489906, 7.752812608145177, -0.04800000227987766, -0.06400000303983688, 1.0400000493973494, 0.0, 0.0, 0.0, 0.0, 0.0, 1.7622065302884092E9, 0.0, 2025-11-03 16:48:50.288
84.0, 258.1073254919611, -71.98185444716364, 236.50753329787403, -9.802277783863246, -0.04800000227987766, -0.06400000303983688, 1.0400000493973494, 0.0, 0.0, 0.0, 0.0, 0.0, 1.7622065302884092E9, 0.0, 2025-11-03 16:48:50.288
85.0, 316.89107299549505, -12.296791054308414, 306.4511422691867, 61.18476327508688, -0.04800000227987766, -0.06400000303983688, 1.0400000493973494, 0.0, 0.0, 0.0, 0.0, 0.0, 1.7622065303019826E9, 0.0, 2025-11-03 16:48:50.301
85.0, 230.84345481498167, -91.29469781834632, 214.8011539550498, -36.54630236700177, -0.04800000227987766, -0.06400000303983688, 1.0400000493973494, 0.0, 0.0, 0.0, 0.0, 0.0, 1.7622065303019826E9, 0.0, 2025-11-03 16:48:50.301
86.0, 239.56490151165053, -92.62236230261624, 220.52320088725537, -22.428180034272373, -0.04800000227987766, -0.06400000303983688, 1.0400000493973494, 0.0, 0.0, 0.0, 0.0, 0.0, 1.762206530317696E9, 0.0, 2025-11-03 16:48:50.317
86.0, 330.3247936363332, -4.84317044261843, 308.79605954140425, 71.79111954942346, -0.04800000227987766, -0.06400000303983688, 1.0400000493973494, 0.0, 0.0, 0.0, 0.0, 0.0, 1.762206530317696E9, 0.0, 2025-11-03 16:48:50.317
87.0, 268.17139627272263, -59.1764369988814, 243.7068407125771, -8.515752199105918, -0.04800000227987766, -0.06400000303983688, 1.0400000493973494, 0.0, 0.0, 0.0, 0.0, 0.0, 1.7622065303183968E9, 0.0, 2025-11-03 16:48:50.318
87.0, 227.42892615543678, -97.06162355002016, 205.3205075673759, -38.36015384551138, -0.04800000227987766, -0.06400000303983688, 1.0400000493973494, 0.0, 0.0, 0.0, 0.0, 0.0, 1.7622065303183968E9, 0.0, 2025-11-03 16:48:50.318
88.0, 305.0954285352491, -26.658006884157658, 282.253989555873, 39.14927273616195, -0.04800000227987766, -0.06400000303983688, 1.0400000493973494, 0.0, 0.0, 0.0, 0.0, 0.0, 1.7622065303320627E9, 0.0, 2025-11-03 16:48:50.332
88.0, 283.7144204885699, -30.801816035062075, 279.9464712832123, 51.42736429069191, -0.04800000227987766, -0.06400000303983688, 1.0400000493973494, 0.0, 0.0, 0.0, 0.0, 0.0, 1.7622065303320627E9, 0.0, 2025-11-03 16:48:50.332
89.0, 226.4939511665143, -88.84506334736943, 210.07766031101346, -39.72521732933819, -0.04800000227987766, -0.06400000303983688, 1.0400000493973494, 0.0, 0.0, 0.0, 0.0, 0.0, 1.7622065303484056E9, 0.0, 2025-11-03 16:48:50.348
89.0, 256.0989992157556, -71.89583674818277, 233.1865021372214, -18.235752183943987, -0.04800000227987766, -0.06400000303983688, 1.0400000493973494, 0.0, 0.0, 0.0, 0.0, 0.0, 1.7622065303484056E9, 0.0, 2025-11-03 16:48:50.348
90.0, 327.4263711706735, 1.1892881859093904, 315.082831366919, 86.5599844744429, -0.04800000227987766, -0.06400000303983688, 1.0400000493973494, 0.0, 0.0, 0.0, 0.0, 0.0, 1.7622065303490984E9, 0.0, 2025-11-03 16:48:50.349
90.0, 243.85830666078255, -75.02613301109523, 224.4762751404196, -9.607802986167371, -0.04800000227987766, -0.06400000303983688, 1.0400000493973494, 0.0, 0.0, 0.0, 0.0, 0.0, 1.7622065303490984E9, 0.0, 2025-11-03 16:48:50.349
91.0, 246.70811042701825, -80.46020764671266, 220.19408969115466, -22.297283535823226, -0.04800000227987766, -0.06400000303983688, 1.0400000493973494, 0.0, 0.0, 0.0, 0.0, 0.0, 1.762206530362019E9, 0.0, 2025-11-03 16:48:50.362
91.0, 342.72256198944524, 4.41308194771409, 309.775913329795, 50.544747901149094, -0.04800000227987766, -0.06400000303983688, 1.0400000493973494, 0.0, 0.0, 0.0, 0.0, 0.0, 1.762206530362019E9, 0.0, 2025-11-03 16:48:50.362
92.0, 261.3012000541203, -50.163278105668724, 249.2269330471754, -9.24877259042114, -0.04800000227987766, -0.06400000303983688, 1.0400000493973494, 0.0, 0.0, 0.0, 0.0, 0.0, 1.7622065303776546E9, 0.0, 2025-11-03 16:48:50.377
92.0, 232.8667406910099, -82.46853392291814, 221.08792578056455, -24.346748711541295, -0.04800000227987766, -0.06400000303983688, 1.0400000493973494, 0.0, 0.0, 0.0, 0.0, 0.0, 1.7622065303776546E9, 0.0, 2025-11-03 16:48:50.377
93.0, 303.67052665213123, -23.916660216636956, 287.0635008988902, 41.96915730275214, -0.04800000227987766, -0.06400000303983688, 1.0400000493973494, 0.0, 0.0, 0.0, 0.0, 0.0, 1.7622065303783727E9, 0.0, 2025-11-03 16:48:50.378
93.0, 297.66050742333755, -20.86490185279399, 288.44726388249546, 40.099207324907184, -0.04800000227987766, -0.06400000303983688, 1.0400000493973494, 0.0, 0.0, 0.0, 0.0, 0.0, 1.7622065303783727E9, 0.0, 2025-11-03 16:48:50.378
94.0, 222.4922582139261, -94.8962214756757, 214.64407815691084, -28.247464365325868, -0.04800000227987766, -0.06400000303983688, 1.0400000493973494, 0.0, 0.0, 0.0, 0.0, 0.0, 1.7622065303921149E9, 0.0, 2025-11-03 16:48:50.392
94.0, 262.2885336424224, -60.81077327951789, 249.36904924549162, 15.053097321651876, -0.04800000227987766, -0.06400000303983688, 1.0400000493973494, 0.0, 0.0, 0.0, 0.0, 0.0, 1.7622065303921149E9, 0.0, 2025-11-03 16:48:50.392
95.0, 332.8380064065568, -3.863316654227674, 311.75432040635496, 61.87664476688951, -0.04800000227987766, -0.06400000303983688, 1.0400000493973494, 0.0, 0.0, 0.0, 0.0, 0.0, 1.7622065304076438E9, 0.0, 2025-11-03 16:48:50.407
95.0, 245.63849903969094, -80.45646774675697, 217.05631362833083, -38.21055784728378, -0.04800000227987766, -0.06400000303983688, 1.0400000493973494, 0.0, 0.0, 0.0, 0.0, 0.0, 1.7622065304076438E9, 0.0, 2025-11-03 16:48:50.407
96.0, 239.3517272141762, -84.04303180426359, 214.0307345641777, -36.022716373205185, -0.04800000227987766, -0.06400000303983688, 1.0400000493973494, 0.0, 0.0, 0.0, 0.0, 0.0, 1.7622065304083643E9, 0.0, 2025-11-03 16:48:50.408
96.0, 331.4804227226414, 0.044878799468278885, 305.01128078624606, 59.011881400831044, -0.04800000227987766, -0.06400000303983688, 1.0400000493973494, 0.0, 0.0, 0.0, 0.0, 0.0, 1.7622065304083643E9, 0.0, 2025-11-03 16:48:50.408
97.0, 259.71174257295206, -59.2512349979952, 240.87199654616416, -6.675721420906484, -0.04800000227987766, -0.06400000303983688, 1.0400000493973494, 0.0, 0.0, 0.0, 0.0, 0.0, 1.7622065304221127E9, 0.0, 2025-11-03 16:48:50.422
97.0, 229.9421389256604, -87.67821456119418, 213.33137327246368, -15.086756421253085, -0.04800000227987766, -0.06400000303983688, 1.0400000493973494, 0.0, 0.0, 0.0, 0.0, 0.0, 1.7622065304221127E9, 0.0, 2025-11-03 16:48:50.422
98.0, 304.6167213409208, -28.771050359122455, 268.45001881942153, 24.376667911186814, -0.04800000227987766, -0.06400000303983688, 1.0400000493973494, 0.0, 0.0, 0.0, 0.0, 0.0, 1.7622065304381309E9, 0.0, 2025-11-03 16:48:50.438
98.0, 305.30112303281203, -22.08036933839321, 278.37197340186685, 34.781069587916136, -0.04800000227987766, -0.06400000303983688, 1.0400000493973494, 0.0, 0.0, 0.0, 0.0, 0.0, 1.7622065304381309E9, 0.0, 2025-11-03 16:48:50.438
99.0, 225.62629437679425, -100.63322800770402, 199.2020312398672, -40.29742202255875, -0.04800000227987766, -0.06400000303983688, 1.0400000493973494, 0.0, 0.0, 0.0, 0.0, 0.0, 1.7622065304533827E9, 0.0, 2025-11-03 16:48:50.453
99.0, 264.9962212103419, -64.70026923343539, 239.95572105702013, 10.123909180052578, -0.04800000227987766, -0.06400000303983688, 1.0400000493973494, 0.0, 0.0, 0.0, 0.0, 0.0, 1.7622065304533827E9, 0.0, 2025-11-03 16:48:50.453
100.0, 325.5900802924298, -12.745579048991203, 299.67444354947656, 59.05302030034363, -0.04800000227987766, -0.06400000303983688, 1.0400000493973494, 0.0, 0.0, 0.0, 0.0, 0.0, 1.7622065304541106E9, 0.0, 2025-11-03 16:48:50.454
100.0, 239.40034591360018, -81.21566743776202, 215.6949900444597, -31.463778327219188, -0.04800000227987766, -0.06400000303983688, 1.0400000493973494, 0.0, 0.0, 0.0, 0.0, 0.0, 1.7622065304541106E9, 0.0, 2025-11-03 16:48:50.454
0.0, 242.35299692861736, -76.61559049226344, 229.80189267732203, 11.395475164987147, -0.04800000227987766, -0.06400000303983688, 1.0400000493973494, 0.0, 0.0, 0.0, 0.0, 0.0, 1.7622065304548485E9, 0.0, 2025-11-03 16:48:50.454
1.0, 329.675920994021, -8.893482094630599, 302.8907575113699, 49.40033851470798, -0.04800000227987766, -0.06400000303983688, 1.0400000493973494, 0.0, 0.0, 0.0, 0.0, 0.0, 1.7622065304670265E9, 0.0, 2025-11-03 16:48:50.467
1.0, 256.7590915579349, -65.35101182572544, 236.47387419827282, -0.46000769454985857, -0.04800000227987766, -0.06400000303983688, 1.0400000493973494, 0.0, 0.0, 0.0, 0.0, 0.0, 1.7622065304670265E9, 0.0, 2025-11-03 16:48:50.467
2.0, 224.9923813343048, -96.76617145352066, 203.99284308310598, -42.014036102220416, -0.04800000227987766, -0.06400000303983688, 1.0400000493973494, 0.0, 0.0, 0.0, 0.0, 0.0, 1.7622065304829447E9, 0.0, 2025-11-03 16:48:50.482
2.0, 291.2484489493072, -43.60349358338863, 264.84475526213646, 24.52626390941441, -0.04800000227987766, -0.06400000303983688, 1.0400000493973494, 0.0, 0.0, 0.0, 0.0, 0.0, 1.7622065304829447E9, 0.0, 2025-11-03 16:48:50.482
3.0, 291.540161145851, -32.54834931436926, 274.15336625184864, 31.45629852730781, -0.04800000227987766, -0.06400000303983688, 1.0400000493973494, 0.0, 0.0, 0.0, 0.0, 0.0, 1.76220653048338E9, 0.0, 2025-11-03 16:48:50.483
3.0, 223.72455524932593, -101.72527879476547, 200.58579422347248, -39.90099262725562, -0.04800000227987766, -0.06400000303983688, 1.0400000493973494, 0.0, 0.0, 0.0, 0.0, 0.0, 1.76220653048338E9, 0.0, 2025-11-03 16:48:50.483
4.0, 270.44338549580425, -59.27367439772934, 248.3368368577212, 4.921708341687918, -0.04800000227987766, -0.06400000303983688, 1.0400000493973494, 0.0, 0.0, 0.0, 0.0, 0.0, 1.7622065304971228E9, 0.0, 2025-11-03 16:48:50.497
4.0, 339.5043780775741, 8.224040002562106, 310.0825851261616, 55.64597144071013, -0.04800000227987766, -0.06400000303983688, 1.0400000493973494, 0.0, 0.0, 0.0, 0.0, 0.0, 1.7622065304971228E9, 0.0, 2025-11-03 16:48:50.497
5.0, 234.0765983266756, -82.41243542358279, 217.07875302806497, -31.878907222300768, -0.04800000227987766, -0.06400000303983688, 1.0400000493973494, 0.0, 0.0, 0.0, 0.0, 0.0, 1.7622065305127962E9, 0.0, 2025-11-03 16:48:50.512
5.0, 256.73291225824505, -67.53885329980403, 233.28747943602502, -5.987579829059541, -0.04800000227987766, -0.06400000303983688, 1.0400000493973494, 0.0, 0.0, 0.0, 0.0, 0.0, 1.7622065305127962E9, 0.0, 2025-11-03 16:48:50.512
6.0, 339.7624311745167, -3.534205458126962, 302.1165982205421, 55.23832234553993, -0.04800000227987766, -0.06400000303983688, 1.0400000493973494, 0.0, 0.0, 0.0, 0.0, 0.0, 1.7622065305134268E9, 0.0, 2025-11-03 16:48:50.513
6.0, 260.315736415796, -62.08981906436384, 235.6697957077995, -15.146594820544124, -0.04800000227987766, -0.06400000303983688, 1.0400000493973494, 0.0, 0.0, 0.0, 0.0, 0.0, 1.7622065305134268E9, 0.0, 2025-11-03 16:48:50.513
7.0, 224.94002273492515, -99.24198522418737, 201.93589810747653, -38.68178524170071, -0.04800000227987766, -0.06400000303983688, 1.0400000493973494, 0.0, 0.0, 0.0, 0.0, 0.0, 1.7622065305271747E9, 0.0, 2025-11-03 16:48:50.527
7.0, 298.3318194653839, -38.6855251416564, 270.6528198933229, 26.721585183404386, -0.04800000227987766, -0.06400000303983688, 1.0400000493973494, 0.0, 0.0, 0.0, 0.0, 0.0, 1.7622065305271747E9, 0.0, 2025-11-03 16:48:50.527
8.0, 293.1296186270192, -30.439045739360154, 278.10644050501287, 45.0209156665951, -0.04800000227987766, -0.06400000303983688, 1.0400000493973494, 0.0, 0.0, 0.0, 0.0, 0.0, 1.7622065305427399E9, 0.0, 2025-11-03 16:48:50.542
8.0, 227.46445520501584, -89.69028073735535, 211.8466329900548, -28.95804535690695, -0.04800000227987766, -0.06400000303983688, 1.0400000493973494, 0.0, 0.0, 0.0, 0.0, 0.0, 1.7622065305427399E9, 0.0, 2025-11-03 16:48:50.542
9.0, 262.3876409912482, -70.59809146355838, 238.6355363726616, 5.591150433756411, -0.04800000227987766, -0.06400000303983688, 1.0400000493973494, 0.0, 0.0, 0.0, 0.0, 0.0, 1.7622065305434413E9, 0.0, 2025-11-03 16:48:50.543
9.0, 316.61245044879615, -16.9342669993639, 294.04215421620756, 47.35087333898991, -0.04800000227987766, -0.06400000303983688, 1.0400000493973494, 0.0, 0.0, 0.0, 0.0, 0.0, 1.7622065305434413E9, 0.0, 2025-11-03 16:48:50.543
10.0, 237.08347789105028, -81.12964973878115, 223.20844905544072, -14.791304324753582, -0.04800000227987766, -0.06400000303983688, 1.0400000493973494, 0.0, 0.0, 0.0, 0.0, 0.0, 1.7622065305570092E9, 0.0, 2025-11-03 16:48:50.557
10.0, 231.997213951312, -93.65083479043096, 218.23064221441746, -15.015698322094977, -0.04800000227987766, -0.06400000303983688, 1.0400000493973494, 0.0, 0.0, 0.0, 0.0, 0.0, 1.7622065305570092E9, 0.0, 2025-11-03 16:48:50.557
11.0, 324.7878717519343, -19.028610974550247, 291.42422424722463, 38.23299724701792, -0.04800000227987766, -0.04800000227987766, 1.0400000493973494, 0.0, 0.0, 0.0, 0.0, 0.0, 1.7622065305727167E9, 0.0, 2025-11-03 16:48:50.572
11.0, 267.6459403289482, -57.26908802147955, 247.2672254703939, 13.635675238445401, -0.04800000227987766, -0.04800000227987766, 1.0400000493973494, 0.0, 0.0, 0.0, 0.0, 0.0, 1.7622065305727167E9, 0.0, 2025-11-03 16:48:50.572
12.0, 229.00529398676008, -97.23739884793758, 207.03338174708188, -35.996537073515356, -0.04800000227987766, -0.04800000227987766, 1.0400000493973494, 0.0, 0.0, 0.0, 0.0, 0.0, 1.762206530573428E9, 0.0, 2025-11-03 16:48:50.573
12.0, 305.0374600859359, -32.19679871853441, 277.51927621196955, 31.516136926598847, -0.04800000227987766, -0.04800000227987766, 1.0400000493973494, 0.0, 0.0, 0.0, 0.0, 0.0, 1.762206530573428E9, 0.0, 2025-11-03 16:48:50.573
13.0, 301.6154516264796, -21.70637934282422, 288.6866174796596, 38.18437854759395, -0.04800000227987766, -0.04800000227987766, 1.0400000493973494, 0.0, 0.0, 0.0, 0.0, 0.0, 1.762206530586965E9, 0.0, 2025-11-03 16:48:50.586
13.0, 231.26419355999678, -87.51739886309952, 212.24306238535792, -30.689619036391377, -0.04800000227987766, -0.04800000227987766, 1.0400000493973494, 0.0, 0.0, 0.0, 0.0, 0.0, 1.762206530586965E9, 0.0, 2025-11-03 16:48:50.586
14.0, 259.0516502307728, -71.19273555651307, 234.69742171932012, -12.592243150807917, -0.04800000227987766, -0.04800000227987766, 1.0400000493973494, 0.0, 0.0, 0.0, 0.0, 0.0, 1.7622065306027045E9, 0.0, 2025-11-03 16:48:50.602
14.0, 333.8683488443494, 3.8857560539618134, 311.69074210710824, 67.31071940250695, -0.04800000227987766, -0.04800000227987766, 1.0400000493973494, 0.0, 0.0, 0.0, 0.0, 0.0, 1.7622065306027045E9, 0.0, 2025-11-03 16:48:50.602
15.0, 241.61249673739076, -76.86990368925035, 229.68595577869564, -9.533004987053573, -0.04800000227987766, -0.04800000227987766, 1.0400000493973494, 0.0, 0.0, 0.0, 0.0, 0.0, 1.762206530603403E9, 0.0, 2025-11-03 16:48:50.603
15.0, 241.7097341362387, -77.81983827799559, 224.2930200425908, -17.34939589444548, -0.04800000227987766, -0.04800000227987766, 1.0400000493973494, 0.0, 0.0, 0.0, 0.0, 0.0, 1.762206530603403E9, 0.0, 2025-11-03 16:48:50.603
16.0, 325.98463973775506, -11.814343960024416, 300.23542854283005, 43.99618307873607, -0.04800000227987766, -0.04800000227987766, 1.0400000493973494, 0.0, 0.0, 0.0, 0.0, 0.0, 1.7622065306172488E9, 0.0, 2025-11-03 16:48:50.617
16.0, 265.0093108601868, -58.525694406591356, 242.55121162626892, -9.091696792282164, -0.04800000227987766, -0.04800000227987766, 1.0400000493973494, 0.0, 0.0, 0.0, 0.0, 0.0, 1.7622065306172488E9, 0.0, 2025-11-03 16:48:50.617
17.0, 227.64397040288895, -91.95292021054775, 208.0655941348523, -42.19355130009353, -0.04800000227987766, -0.04800000227987766, 1.0400000493973494, 0.0, 0.0, 0.0, 0.0, 0.0, 1.7622065306328125E9, 0.0, 2025-11-03 16:48:50.632
17.0, 299.01248125731945, -32.428672515787184, 274.92004574276507, 32.15939971897751, -0.04800000227987766, -0.04800000227987766, 1.0400000493973494, 0.0, 0.0, 0.0, 0.0, 0.0, 1.7622065306328125E9, 0.0, 2025-11-03 16:48:50.632
18.0, 294.8462327066809, -35.73474407661706, 272.7509037684649, 26.082062290981412, -0.04800000227987766, -0.04800000227987766, 1.0400000493973494, 0.0, 0.0, 0.0, 0.0, 0.0, 1.7622065306334145E9, 0.0, 2025-11-03 16:48:50.633
18.0, 224.45009584072977, -96.99804525077343, 206.66313165146858, -35.237337382510304, -0.04800000227987766, -0.04800000227987766, 1.0400000493973494, 0.0, 0.0, 0.0, 0.0, 0.0, 1.7622065306334145E9, 0.0, 2025-11-03 16:48:50.633
19.0, 252.8284567045048, -73.30203913152218, 234.76847981847823, -5.022685640491545, -0.04800000227987766, -0.04800000227987766, 1.0400000493973494, 0.0, 0.0, 0.0, 0.0, 0.0, 1.7622065306470456E9, 0.0, 2025-11-03 16:48:50.647
19.0, 326.69522072933614, -2.771265867166221, 309.8469714289531, 67.105024904944, -0.04800000227987766, -0.04800000227987766, 1.0400000493973494, 0.0, 0.0, 0.0, 0.0, 0.0, 1.7622065306470456E9, 0.0, 2025-11-03 16:48:50.647
20.0, 238.28398577682674, -85.0378451924771, 220.2913270900026, -13.968526334501803, -0.04800000227987766, -0.04800000227987766, 1.0400000493973494, 0.0, 0.0, 0.0, 0.0, 0.0, 1.7622065306626894E9, 0.0, 2025-11-03 16:48:50.662
20.0, 240.61394344922155, -89.80247773602605, 217.9912886172533, -33.3486879048869, -0.04800000227987766, -0.04800000227987766, 1.0400000493973494, 0.0, 0.0, 0.0, 0.0, 0.0, 1.7622065306626894E9, 0.0, 2025-11-03 16:48:50.662
21.0, 331.61692907102406, -10.512858775444329, 303.57141930330545, 51.87989218533039, -0.04800000227987766, -0.04800000227987766, 1.0400000493973494, 0.0, 0.0, 0.0, 0.0, 0.0, 1.7622065306634111E9, 0.0, 2025-11-03 16:48:50.663
21.0, 255.74557866994292, -61.9177836664021, 247.80203116405755, 6.122216227464378, -0.04800000227987766, -0.04800000227987766, 1.0400000493973494, 0.0, 0.0, 0.0, 0.0, 0.0, 1.7622065306634111E9, 0.0, 2025-11-03 16:48:50.663
22.0, 233.10048443824053, -90.4158213287592, 219.5844859983772, -20.827502853237092, -0.04800000227987766, -0.04800000227987766, 1.0400000493973494, 0.0, 0.0, 0.0, 0.0, 0.0, 1.762206530693401E9, 0.0, 2025-11-03 16:48:50.693
22.0, 313.01466669142246, -29.649926848709583, 281.2741357674822, 25.147087302058935, -0.04800000227987766, -0.04800000227987766, 1.0400000493973494, 0.0, 0.0, 0.0, 0.0, 0.0, 1.762206530693401E9, 0.0, 2025-11-03 16:48:50.693
23.0, 325.4124350445345, -7.532158510759473, 298.776867560111, 52.496975678019226, -0.04800000227987766, -0.04800000227987766, 1.0400000493973494, 0.0, 0.0, 0.0, 0.0, 0.0, 1.762206530694095E9, 0.0, 2025-11-03 16:48:50.694
23.0, 236.16346250195056, -81.35778363607824, 219.76400119625032, -4.532758746296167, -0.04800000227987766, -0.04800000227987766, 1.0400000493973494, 0.0, 0.0, 0.0, 0.0, 0.0, 1.762206530694095E9, 0.0, 2025-11-03 16:48:50.694
24.0, 260.5251708133146, -70.22784136794508, 232.99202733952552, -20.50587145704776, -0.04800000227987766, -0.04800000227987766, 1.0400000493973494, 0.0, 0.0, 0.0, 0.0, 0.0, 1.7622065306948316E9, 0.0, 2025-11-03 16:48:50.694
24.0, 337.8588220970705, -0.9125355891883373, 299.693143049255, 47.55656783655286, -0.04800000227987766, -0.04800000227987766, 1.0400000493973494, 0.0, 0.0, 0.0, 0.0, 0.0, 1.7622065306948316E9, 0.0, 2025-11-03 16:48:50.694
25.0, 245.3411769932136, -80.29191214870661, 216.12133863940835, -35.170019183307886, -0.04800000227987766, -0.04800000227987766, 1.0400000493973494, 0.0, 0.0, 0.0, 0.0, 0.0, 1.7622065307070549E9, 0.0, 2025-11-03 16:48:50.707
25.0, 241.38062294013798, -80.11613685078919, 215.64263144508004, -30.304409340955317, -0.04800000227987766, -0.04800000227987766, 1.0400000493973494, 0.0, 0.0, 0.0, 0.0, 0.0, 1.7622065307070549E9, 0.0, 2025-11-03 16:48:50.707
26.0, 324.24184635840356, -14.249018831178546, 294.74899530783296, 48.887972220778465, -0.04800000227987766, -0.04800000227987766, 1.0400000493973494, 0.0, 0.0, 0.0, 0.0, 0.0, 1.7622065307226713E9, 0.0, 2025-11-03 16:48:50.722
26.0, 262.4213000908494, -58.79122730344534, 240.45686765108258, -0.2505732970312238, -0.04800000227987766, -0.04800000227987766, 1.0400000493973494, 0.0, 0.0, 0.0, 0.0, 0.0, 1.7622065307226713E9, 0.0, 2025-11-03 16:48:50.722
27.0, 228.98659448698163, -98.39302793424577, 208.92951102461666, -34.27244319394231, -0.04800000227987766, -0.04800000227987766, 1.0400000493973494, 0.0, 0.0, 0.0, 0.0, 0.0, 1.7622065307233691E9, 0.0, 2025-11-03 16:48:50.723
27.0, 292.67709073238075, -43.42397838551551, 258.337329339236, 10.703593673184514, -0.04800000227987766, -0.04800000227987766, 1.0400000493973494, 0.0, 0.0, 0.0, 0.0, 0.0, 1.7622065307233691E9, 0.0, 2025-11-03 16:48:50.723
28.0, 299.0760595565662, -28.692512460052967, 277.15276601631194, 25.061069603078067, -0.04800000227987766, -0.04800000227987766, 1.0400000493973494, 0.0, 0.0, 0.0, 0.0, 0.0, 1.7622065307370377E9, 0.0, 2025-11-03 16:48:50.737
28.0, 237.7828391827643, -80.84167744219303, 222.9541358584538, -25.876367793418467, -0.04800000227987766, -0.04800000227987766, 1.0400000493973494, 0.0, 0.0, 0.0, 0.0, 0.0, 1.7622065307370377E9, 0.0, 2025-11-03 16:48:50.737
29.0, 269.56076910626143, -58.903424302116036, 245.92086148634553, -2.139222774654627, -0.04800000227987766, -0.04800000227987766, 1.0400000493973494, 0.0, 0.0, 0.0, 0.0, 0.0, 1.7622065307526739E9, 0.0, 2025-11-03 16:48:50.752
29.0, 339.43705987837166, 3.500546358525753, 319.376236516051, 83.10057701542974, -0.04800000227987766, -0.04800000227987766, 1.0400000493973494, 0.0, 0.0, 0.0, 0.0, 0.0, 1.7622065307526739E9, 0.0, 2025-11-03 16:48:50.752
30.0, 247.02413197327405, -81.73925343155861, 224.30797964241356, -27.955752168782055, -0.04800000227987766, -0.04800000227987766, 1.0400000493973494, 0.0, 0.0, 0.0, 0.0, 0.0, 1.7622065307533855E9, 0.0, 2025-11-03 16:48:50.753
30.0, 238.32138477638364, -88.60196985024959, 216.12507853936404, -35.79084257595241, -0.04800000227987766, -0.04800000227987766, 1.0400000493973494, 0.0, 0.0, 0.0, 0.0, 0.0, 1.7622065307533855E9, 0.0, 2025-11-03 16:48:50.753
31.0, 331.39253507368267, -1.5857175812125206, 309.1887490367517, 56.921277325600386, -0.04800000227987766, -0.06400000303983688, 1.0400000493973494, 0.0, 0.0, 0.0, 0.0, 0.0, 1.7622065307670689E9, 0.0, 2025-11-03 16:48:50.767
31.0, 263.2440780811012, -60.178730187006295, 243.79285841155797, -2.4271950712427497, -0.04800000227987766, -0.06400000303983688, 1.0400000493973494, 0.0, 0.0, 0.0, 0.0, 0.0, 1.7622065307670689E9, 0.0, 2025-11-03 16:48:50.767
32.0, 232.75267374236137, -86.61982287373394, 213.7278026677668, -26.044663291424513, -0.04800000227987766, -0.06400000303983688, 1.0400000493973494, 0.0, 0.0, 0.0, 0.0, 0.0, 1.7622065307829587E9, 0.0, 2025-11-03 16:48:50.782
32.0, 305.3590914821252, -26.669226584024727, 276.63291992247105, 28.355921464040875, -0.04800000227987766, -0.06400000303983688, 1.0400000493973494, 0.0, 0.0, 0.0, 0.0, 0.0, 1.7622065307829587E9, 0.0, 2025-11-03 16:48:50.782
33.0, 314.3049321761355, -16.175067308358848, 286.3678795071319, 29.919199645519257, -0.04800000227987766, -0.06400000303983688, 1.0400000493973494, 0.0, 0.0, 0.0, 0.0, 0.0, 1.7622065307833903E9, 0.0, 2025-11-03 16:48:50.783
33.0, 237.82771798223257, -81.34282403625548, 211.50256219413131, -34.56041549053043, -0.04800000227987766, -0.06400000303983688, 1.0400000493973494, 0.0, 0.0, 0.0, 0.0, 0.0, 1.7622065307833903E9, 0.0, 2025-11-03 16:48:50.783
34.0, 269.3924736082554, -59.56912649422884, 236.97876069229096, -10.755952272564173, -0.04800000227987766, -0.06400000303983688, 1.0400000493973494, 0.0, 0.0, 0.0, 0.0, 0.0, 1.7622065307970836E9, 0.0, 2025-11-03 16:48:50.797
34.0, 331.81140386871994, -1.009772988036275, 304.00898759812117, 53.48430926632136, -0.04800000227987766, -0.06400000303983688, 1.0400000493973494, 0.0, 0.0, 0.0, 0.0, 0.0, 1.7622065307970836E9, 0.0, 2025-11-03 16:48:50.797
35.0, 245.36361639294773, -74.37913031876087, 224.90262373536825, -18.04875718615949, -0.04800000227987766, -0.06400000303983688, 1.0400000493973494, 0.0, 0.0, 0.0, 0.0, 0.0, 1.762206530812673E9, 0.0, 2025-11-03 16:48:50.812
35.0, 246.8595763752237, -74.5175066171214, 230.50499386899173, -12.745579048991203, -0.04800000227987766, -0.06400000303983688, 1.0400000493973494, 0.0, 0.0, 0.0, 0.0, 0.0, 1.762206530812673E9, 0.0, 2025-11-03 16:48:50.812
36.0, 359.2772291433066, 18.430226981639862, 325.92106143850833, 76.46599449403584, -0.04800000227987766, -0.06400000303983688, 1.0400000493973494, 0.0, 0.0, 0.0, 0.0, 0.0, 1.7622065308133793E9, 0.0, 2025-11-03 16:48:50.813
36.0, 284.3558133309707, -44.415051873773336, 256.2242858642712, 12.341669853776693, -0.04800000227987766, -0.06400000303983688, 1.0400000493973494, 0.0, 0.0, 0.0, 0.0, 0.0, 1.7622065308133793E9, 0.0, 2025-11-03 16:48:50.813
37.0, 231.46614815760404, -96.46323955710977, 206.20312395691872, -40.817268116399646, -0.04800000227987766, -0.06400000303983688, 1.0400000493973494, 0.0, 0.0, 0.0, 0.0, 0.0, 1.7622065308271348E9, 0.0, 2025-11-03 16:48:50.827
37.0, 300.9908883338794, -38.793982240371406, 268.9848245130852, 24.12983451411128, -0.04800000227987766, -0.06400000303983688, 1.0400000493973494, 0.0, 0.0, 0.0, 0.0, 0.0, 1.7622065308271348E9, 0.0, 2025-11-03 16:48:50.827
38.0, 316.64984944835305, -20.07204306218773, 285.37680601887405, 36.75199686456472, -0.04800000227987766, -0.06400000303983688, 1.0400000493973494, 0.0, 0.0, 0.0, 0.0, 0.0, 1.7622065308426807E9, 0.0, 2025-11-03 16:48:50.842
38.0, 246.65762177761644, -80.93517494108528, 222.86063835956156, -21.7886571418494, -0.04800000227987766, -0.06400000303983688, 1.0400000493973494, 0.0, 0.0, 0.0, 0.0, 0.0, 1.7622065308426807E9, 0.0, 2025-11-03 16:48:50.842
39.0, 279.26954939123243, -61.734528568573296, 244.3388838050887, 3.814697954803705, -0.04800000227987766, -0.06400000303983688, 1.0400000493973494, 0.0, 0.0, 0.0, 0.0, 0.0, 1.7622065308433836E9, 0.0, 2025-11-03 16:48:50.843
39.0, 355.533589287661, 16.90060789976269, 326.7774985283613, 77.48698718193918, -0.04800000227987766, -0.06400000303983688, 1.0400000493973494, 0.0, 0.0, 0.0, 0.0, 0.0, 1.7622065308433836E9, 0.0, 2025-11-03 16:48:50.843
40.0, 261.54990340117365, -70.48589446488768, 231.32029205933213, -34.74367058835924, -0.04800000227987766, -0.06400000303983688, 1.0400000493973494, 0.0, 0.0, 0.0, 0.0, 0.0, 1.7622065308571262E9, 0.0, 2025-11-03 16:48:50.857
40.0, 243.46374721545726, -94.7466254774481, 209.71862991526723, -45.77637545764446, -0.04800000227987766, -0.06400000303983688, 1.0400000493973494, 0.0, 0.0, 0.0, 0.0, 0.0, 1.7622065308571262E9, 0.0, 2025-11-03 16:48:50.857
41.0, 351.74133073259145, -0.38520969543606043, 308.702562042512, 62.164617063477635, -0.04800000227987766, -0.06400000303983688, 1.0400000493973494, 0.0, 0.0, 0.0, 0.0, 0.0, 1.7622065308727336E9, 0.0, 2025-11-03 16:48:50.872
41.0, 282.7626159498468, -53.79846086259931, 239.24514006543905, -30.794336235150695, -0.04800000227987766, -0.06400000303983688, 1.0400000493973494, 0.0, 0.0, 0.0, 0.0, 0.0, 1.7622065308727336E9, 0.0, 2025-11-03 16:48:50.872
42.0, 243.27675221767277, -95.5993226673454, 198.99633674230427, -67.05266630556434, -0.04800000227987766, -0.06400000303983688, 1.0400000493973494, 0.0, 0.0, 0.0, 0.0, 0.0, 1.7622065308734193E9, 0.0, 2025-11-03 16:48:50.873
42.0, 322.644909077324, -26.59068868495524, 276.06819502916187, 20.805063453502953, -0.04800000227987766, -0.06400000303983688, 1.0400000493973494, 0.0, 0.0, 0.0, 0.0, 0.0, 1.7622065308734193E9, 0.0, 2025-11-03 16:48:50.873
43.0, 324.9337278502062, -11.70588686130941, 289.9619233645499, 28.352181564085186, -0.04800000227987766, -0.06400000303983688, 1.0400000493973494, 0.0, 0.0, 0.0, 0.0, 0.0, 1.7622065308870103E9, 0.0, 2025-11-03 16:48:50.887
43.0, 257.9296802440658, -79.17368206195533, 216.27093463763595, -42.13745280075818, -0.04800000227987766, -0.06400000303983688, 1.0400000493973494, 0.0, 0.0, 0.0, 0.0, 0.0, 1.7622065308870103E9, 0.0, 2025-11-03 16:48:50.887
44.0, 296.1140587916598, -49.36293951515108, 241.06647134386003, -24.675859907642007, -0.04800000227987766, -0.06400000303983688, 1.0400000493973494, 0.0, 0.0, 0.0, 0.0, 0.0, 1.762206530902905E9, 0.0, 2025-11-03 16:48:50.902
44.0, 369.2964211245999, 16.017991510219872, 315.20624806545675, 47.48550973739475, -0.04800000227987766, -0.06400000303983688, 1.0400000493973494, 0.0, 0.0, 0.0, 0.0, 0.0, 1.762206530902905E9, 0.0, 2025-11-03 16:48:50.902
45.0, 274.51987644750625, -60.35824538487941, 229.8467714767903, -14.742685625329614, -0.04800000227987766, -0.06400000303983688, 1.0400000493973494, 0.0, 0.0, 0.0, 0.0, 0.0, 1.7622065309034135E9, 0.0, 2025-11-03 16:48:50.903
45.0, 268.90254671406, -78.41074247099459, 207.11191964615136, -81.0024931402877, -0.04800000227987766, -0.06400000303983688, 1.0400000493973494, 0.0, 0.0, 0.0, 0.0, 0.0, 1.7622065309034135E9, 0.0, 2025-11-03 16:48:50.903
46.0, 352.1377601278946, 1.3987225834280252, 297.15375097934157, 19.608295467682183, -0.04800000227987766, -0.06400000303983688, 1.0400000493973494, 0.0, 0.0, 0.0, 0.0, 0.0, 1.762206530917039E9, 0.0, 2025-11-03 16:48:50.917
46.0, 292.1834239382297, -46.842246945016086, 242.32307772897184, -15.408387817442417, -0.04800000227987766, -0.06400000303983688, 1.0400000493973494, 0.0, 0.0, 0.0, 0.0, 0.0, 1.762206530917039E9, 0.0, 2025-11-03 16:48:50.917
47.0, 256.7478718580678, -79.95906105265021, 207.91973803658038, -44.57212767191231, -0.04800000227987766, -0.06400000303983688, 1.0400000493973494, 0.0, 0.0, 0.0, 0.0, 0.0, 1.7622065309326725E9, 0.0, 2025-11-03 16:48:50.932
47.0, 315.28478596452624, -37.10354746039957, 250.1544282361865, -13.089649844914675, -0.04800000227987766, -0.06400000303983688, 1.0400000493973494, 0.0, 0.0, 0.0, 0.0, 0.0, 1.7622065309326725E9, 0.0, 2025-11-03 16:48:50.932
48.0, 320.2663327055052, -26.351335087791085, 262.2679641926661, 4.701054244302213, -0.04800000227987766, -0.06400000303983688, 1.0400000493973494, 0.0, 0.0, 0.0, 0.0, 0.0, 1.7622065309333944E9, 0.0, 2025-11-03 16:48:50.933
48.0, 243.8601766107604, -100.50607140921056, 182.44353953842074, -86.61608297377825, -0.04800000227987766, -0.06400000303983688, 1.0400000493973494, 0.0, 0.0, 0.0, 0.0, 0.0, 1.7622065309333944E9, 0.0, 2025-11-03 16:48:50.933
49.0, 283.22262364439666, -69.52474017627537, 222.72974186111242, -26.250357788987458, -0.04800000227987766, -0.06400000303983688, 1.0400000493973494, 0.0, 0.0, 0.0, 0.0, 0.0, 1.7622065309470563E9, 0.0, 2025-11-03 16:48:50.947
49.0, 337.1145820058882, -17.162400896660984, 275.391273137182, 6.365309724584222, -0.04800000227987766, -0.06400000303983688, 1.0400000493973494, 0.0, 0.0, 0.0, 0.0, 0.0, 1.7622065309470563E9, 0.0, 2025-11-03 16:48:50.947
50.0, 256.6356748593971, -80.74817994330078, 212.1720042861998, -17.005325098522007, -0.04800000227987766, -0.06400000303983688, 1.0400000493973494, 0.0, 0.0, 0.0, 0.0, 0.0, 1.7622065309628372E9, 0.0, 2025-11-03 16:48:50.962
50.0, 233.97562102787197, -117.86668700352311, 159.7760059069842, -125.75413601007313, -0.04800000227987766, -0.06400000303983688, 1.0400000493973494, 0.0, 0.0, 0.0, 0.0, 0.0, 1.7622065309628372E9, 0.0, 2025-11-03 16:48:50.962
51.0, 340.44309296645224, -19.458699469454587, 268.81278911512345, -4.401862247847021, -0.04800000227987766, -0.06400000303983688, 1.0400000493973494, 0.0, 0.0, 0.0, 0.0, 0.0, 1.7622065309633846E9, 0.0, 2025-11-03 16:48:50.963
51.0, 276.1317733284086, -69.67807607445866, 209.26984192058444, -61.86542506702244, -0.04800000227987766, -0.06400000303983688, 1.0400000493973494, 0.0, 0.0, 0.0, 0.0, 0.0, 1.7622065309633846E9, 0.0, 2025-11-03 16:48:50.963
52.0, 256.5683566601947, -89.31629074178636, 195.71270458120853, -62.02250086516142, -0.04800000227987766, -0.06400000303983688, 1.0400000493973494, 0.0, 0.0, 0.0, 0.0, 0.0, 1.7622065309770508E9, 0.0, 2025-11-03 16:48:50.977
52.0, 314.8621772695333, -46.105486653745174, 239.56677146162838, -14.245278931222856, -0.04800000227987766, -0.06400000303983688, 1.0400000493973494, 0.0, 0.0, 0.0, 0.0, 0.0, 1.7622065309770508E9, 0.0, 2025-11-03 16:48:50.977
53.0, 316.0327659556642, -38.21803764719516, 246.8595763752237, -12.397768353112042, -0.04800000227987766, -0.06400000303983688, 1.0400000493973494, 0.0, 0.0, 0.0, 0.0, 0.0, 1.762206530992661E9, 0.0, 2025-11-03 16:48:50.992
53.0, 236.24574030097574, -108.98816450871527, 171.23879927117378, -76.88486328907311, -0.04800000227987766, -0.06400000303983688, 1.0400000493973494, 0.0, 0.0, 0.0, 0.0, 0.0, 1.762206530992661E9, 0.0, 2025-11-03 16:48:50.992
54.0, 270.3162288973108, -80.86037694197148, 200.38009972590953, -57.381285020150244, -0.04800000227987766, -0.06400000303983688, 1.0400000493973494, 0.0, 0.0, 0.0, 0.0, 0.0, 1.7622065309933715E9, 0.0, 2025-11-03 16:48:50.993
54.0, 337.54467050079256, -21.2688110480085, 264.7512577632442, -5.475213535130024, -0.04800000227987766, -0.06400000303983688, 1.0400000493973494, 0.0, 0.0, 0.0, 0.0, 0.0, 1.7622065309933715E9, 0.0, 2025-11-03 16:48:50.993
55.0, 242.15852213092148, -97.49545194488019, 177.95939949154854, -86.36176977679133, -0.04800000227987766, -0.06400000303983688, 1.0400000493973494, 0.0, 0.0, 0.0, 0.0, 0.0, 1.7622065310070171E9, 0.0, 2025-11-03 16:48:51.007
55.0, 251.69526701793075, -89.24149274267256, 208.12169263418764, -7.087110416032374, -0.04800000227987766, -0.06400000303983688, 1.0400000493973494, 0.0, 0.0, 0.0, 0.0, 0.0, 1.7622065310070171E9, 0.0, 2025-11-03 16:48:51.007
56.0, 331.84880286827683, -29.451712151058018, 264.35856826789677, -3.21257406193763, -0.04800000227987766, -0.06400000303983688, 1.0400000493973494, 0.0, 0.0, 0.0, 0.0, 0.0, 1.7622065310228295E9, 0.0, 2025-11-03 16:48:51.022
56.0, 267.3205690328032, -69.30408607888967, 227.75616740155965, 7.722893408499658, -0.04800000227987766, -0.06400000303983688, 1.0400000493973494, 0.0, 0.0, 0.0, 0.0, 0.0, 1.7622065310228295E9, 0.0, 2025-11-03 16:48:51.022
57.0, 222.08647906873375, -120.39485937356949, 152.39718329440802, -137.8751517664641, -0.04800000227987766, -0.06400000303983688, 1.0400000493973494, 0.0, 0.0, 0.0, 0.0, 0.0, 1.7622065310235057E9, 0.0, 2025-11-03 16:48:51.023
57.0, 297.04155398067087, -55.04758744779974, 230.46385496947914, -27.83233547024429, -0.04800000227987766, -0.06400000303983688, 1.0400000493973494, 0.0, 0.0, 0.0, 0.0, 0.0, 1.7622065310235057E9, 0.0, 2025-11-03 16:48:51.023
58.0, 307.83864515274763, -40.34978062193841, 250.58825663104653, -6.82531741913408, -0.04800000227987766, -0.06400000303983688, 1.0400000493973494, 0.0, 0.0, 0.0, 0.0, 0.0, 1.7622065310369952E9, 0.0, 2025-11-03 16:48:51.036
58.0, 241.8518503345549, -100.69306640699506, 191.5389762306586, -58.70146970450878, -0.04800000227987766, -0.06400000303983688, 1.0400000493973494, 0.0, 0.0, 0.0, 0.0, 0.0, 1.7622065310369952E9, 0.0, 2025-11-03 16:48:51.036
59.0, 261.1310346061364, -80.64346274454147, 209.10902622248977, -53.01308187190443, -0.04800000227987766, -0.06400000303983688, 1.0400000493973494, 0.0, 0.0, 0.0, 0.0, 0.0, 1.7622065310527947E9, 0.0, 2025-11-03 16:48:51.052
59.0, 348.63347386941314, 3.059238163754344, 315.7859325585887, 110.84689478669316, -0.04800000227987766, -0.06400000303983688, 1.0400000493973494, 0.0, 0.0, 0.0, 0.0, 0.0, 1.7622065310527947E9, 0.0, 2025-11-03 16:48:51.052
60.0, 237.8576371818781, -99.92638691607863, 174.53739103209227, -106.90878013335168, -0.04800000227987766, -0.06400000303983688, 1.0400000493973494, 0.0, 0.0, 0.0, 0.0, 0.0, 1.7622065310534983E9, 0.0, 2025-11-03 16:48:51.053
60.0, 243.61334321368486, -94.14450158458203, 193.5024237073958, -46.120446253567934, -0.04800000227987766, -0.06400000303983688, 1.0400000493973494, 0.0, 0.0, 0.0, 0.0, 0.0, 1.7622065310534983E9, 0.0, 2025-11-03 16:48:51.053
61.0, 332.5369444601238, -22.92558672837913, 266.007864148356, -5.744486331939697, -0.04800000227987766, -0.06400000303983688, 1.0400000493973494, 0.0, 0.0, 0.0, 0.0, 0.0, 1.7622065310670483E9, 0.0, 2025-11-03 16:48:51.067
61.0, 273.9140126546845, -61.89908416662365, 230.64711006730795, -10.628795674070716, -0.04800000227987766, -0.06400000303983688, 1.0400000493973494, 0.0, 0.0, 0.0, 0.0, 0.0, 1.7622065310670483E9, 0.0, 2025-11-03 16:48:51.067
62.0, 237.02737939171493, -100.8277028053999, 189.57926865387708, -56.199476634152234, -0.04800000227987766, -0.06400000303983688, 1.0400000493973494, 0.0, 0.0, 0.0, 0.0, 0.0, 1.7622065310827718E9, 0.0, 2025-11-03 16:48:51.082
62.0, 296.4656093874946, -48.41300492640585, 240.10157715529203, -25.77539049461484, -0.04800000227987766, -0.06400000303983688, 1.0400000493973494, 0.0, 0.0, 0.0, 0.0, 0.0, 1.7622065310827718E9, 0.0, 2025-11-03 16:48:51.082
63.0, 320.2364135058597, -23.142500925809145, 274.66573254577816, 45.00969596672803, -0.04800000227987766, -0.06400000303983688, 1.0400000493973494, 0.0, 0.0, 0.0, 0.0, 0.0, 1.762206531083429E9, 0.0, 2025-11-03 16:48:51.083
63.0, 231.8476179530844, -99.91516721621156, 192.088741524145, -49.37041931506246, -0.04800000227987766, -0.06400000303983688, 1.0400000493973494, 0.0, 0.0, 0.0, 0.0, 0.0, 1.762206531083429E9, 0.0, 2025-11-03 16:48:51.083
64.0, 244.27904540579766, -99.65337421931326, 191.3145822333172, -53.357152667827904, -0.04800000227987766, -0.06400000303983688, 1.0400000493973494, 0.0, 0.0, 0.0, 0.0, 0.0, 1.7622065310970132E9, 0.0, 2025-11-03 16:48:51.097
64.0, 322.10262358374894, -27.854774869978428, 269.02970331255347, 16.94922659918666, -0.04800000227987766, -0.06400000303983688, 1.0400000493973494, 0.0, 0.0, 0.0, 0.0, 0.0, 1.7622065310970132E9, 0.0, 2025-11-03 16:48:51.097
65.0, 230.50499386899173, -102.9744053799659, 188.25534406956285, -58.65285100508481, -0.04800000227987766, -0.06400000303983688, 1.0400000493973494, 0.0, 0.0, 0.0, 0.0, 0.0, 1.7622065311129987E9, 0.0, 2025-11-03 16:48:51.112
65.0, 237.3677102876827, -105.89900714531541, 176.10814901348203, -77.9282953767106, -0.04800000227987766, -0.06400000303983688, 1.0400000493973494, 0.0, 0.0, 0.0, 0.0, 0.0, 1.7622065311129987E9, 0.0, 2025-11-03 16:48:51.112
66.0, 320.7487797997892, -28.460638662800193, 267.4290261315182, 13.164447844028473, -0.04800000227987766, -0.06400000303983688, 1.0400000493973494, 0.0, 0.0, 0.0, 0.0, 0.0, 1.7622065311134284E9, 0.0, 2025-11-03 16:48:51.113
66.0, 274.92004574276507, -65.01442082971334, 226.8137126127258, -16.44808000512421, -0.04800000227987766, -0.06400000303983688, 1.0400000493973494, 0.0, 0.0, 0.0, 0.0, 0.0, 1.7622065311134284E9, 0.0, 2025-11-03 16:48:51.113
67.0, 229.7757133776322, -100.72298560664058, 198.28575575072318, -30.18099264241755, -0.04800000227987766, -0.06400000303983688, 1.0400000493973494, 0.0, 0.0, 0.0, 0.0, 0.0, 1.7622065311277037E9, 0.0, 2025-11-03 16:48:51.127
67.0, 285.0140357231721, -64.29262013826519, 229.5214001806453, -23.74836471863091, -0.04800000227987766, -0.06400000303983688, 1.0400000493973494, 0.0, 0.0, 0.0, 0.0, 0.0, 1.7622065311277037E9, 0.0, 2025-11-03 16:48:51.127
68.0, 303.8519117999822, -30.880353934131563, 267.15227353479713, 38.891219639219344, -0.04800000227987766, -0.06400000303983688, 1.0400000493973494, 0.0, 0.0, 0.0, 0.0, 0.0, 1.7622065311427343E9, 0.0, 2025-11-03 16:48:51.142
68.0, 229.98140787519515, -106.10844154283404, 183.59916862472892, -92.73455930128694, -0.04800000227987766, -0.06400000303983688, 1.0400000493973494, 0.0, 0.0, 0.0, 0.0, 0.0, 1.7622065311427343E9, 0.0, 2025-11-03 16:48:51.142
69.0, 255.50622507277876, -85.60257008578628, 208.9519504243508, -41.999076502397656, -0.04800000227987766, -0.06400000303983688, 1.0400000493973494, 0.0, 0.0, 0.0, 0.0, 0.0, 1.7622065311434126E9, 0.0, 2025-11-03 16:48:51.143
69.0, 341.51270435377955, -7.292804913595319, 294.11695221532136, 31.935005721636117, -0.04800000227987766, -0.06400000303983688, 1.0400000493973494, 0.0, 0.0, 0.0, 0.0, 0.0, 1.7622065311434126E9, 0.0, 2025-11-03 16:48:51.143
70.0, 248.98757945001125, -84.01685250457376, 213.86617896612734, -29.04032315593213, -0.04800000227987766, -0.06400000303983688, 1.0400000493973494, 0.0, 0.0, 0.0, 0.0, 0.0, 1.762206531157172E9, 0.0, 2025-11-03 16:48:51.157
70.0, 223.04389345739037, -109.54914950206876, 187.7167984759435, -47.317214239388704, -0.04800000227987766, -0.06400000303983688, 1.0400000493973494, 0.0, 0.0, 0.0, 0.0, 0.0, 1.762206531157172E9, 0.0, 2025-11-03 16:48:51.157
71.0, 330.6482949825004, -11.23839936684817, 278.5739279994741, 14.002185434103012, -0.04800000227987766, -0.06400000303983688, 1.0400000493973494, 0.0, 0.0, 0.0, 0.0, 0.0, 1.7622065311892133E9, 0.0, 2025-11-03 16:48:51.189
71.0, 280.74306997377425, -50.32409380376339, 239.8173447586596, -4.603816845454276, -0.04800000227987766, -0.06400000303983688, 1.0400000493973494, 0.0, 0.0, 0.0, 0.0, 0.0, 1.7622065311892133E9, 0.0, 2025-11-03 16:48:51.189
72.0, 235.58003810886294, -100.0498036146164, 193.0498958127573, -40.491896820254624, -0.04800000227987766, -0.06400000303983688, 1.0400000493973494, 0.0, 0.0, 0.0, 0.0, 0.0, 1.7622065311898274E9, 0.0, 2025-11-03 16:48:51.189
72.0, 302.56912611518055, -48.28958822786808, 245.86476298701018, -25.255544400773942, -0.04800000227987766, -0.06400000303983688, 1.0400000493973494, 0.0, 0.0, 0.0, 0.0, 0.0, 1.7622065311898274E9, 0.0, 2025-11-03 16:48:51.189
73.0, 316.9752207444981, -21.425886846147478, 274.48995724786073, 19.522277768701315, -0.04800000227987766, -0.06400000303983688, 1.0400000493973494, 0.0, 0.0, 0.0, 0.0, 0.0, 1.7622065311905465E9, 0.0, 2025-11-03 16:48:51.190
73.0, 231.18939556088299, -101.20543270092458, 184.29852991644293, -72.2960060434416, -0.04800000227987766, -0.06400000303983688, 1.0400000493973494, 0.0, 0.0, 0.0, 0.0, 0.0, 1.7622065311905465E9, 0.0, 2025-11-03 16:48:51.190
74.0, 267.4888645308092, -77.02697948738933, 217.28070762567222, -37.9450249504298, -0.04800000227987766, -0.06400000303983688, 1.0400000493973494, 0.0, 0.0, 0.0, 0.0, 0.0, 1.7622065311913018E9, 0.0, 2025-11-03 16:48:51.191
74.0, 330.4164211852476, -11.522631763480604, 287.6544050918892, 38.96227773837745, -0.04800000227987766, -0.06400000303983688, 1.0400000493973494, 0.0, 0.0, 0.0, 0.0, 0.0, 1.7622065311913018E9, 0.0, 2025-11-03 16:48:51.191
75.0, 242.31933782901615, -85.82696408312768, 211.2108499975875, -22.301023435778916, -0.04800000227987766, -0.06400000303983688, 1.0400000493973494, 0.0, 0.0, 0.0, 0.0, 0.0, 1.762206531202021E9, 0.0, 2025-11-03 16:48:51.202
75.0, 242.67836822476238, -96.22762585990131, 203.45055758953094, -43.85032698046416, -0.04800000227987766, -0.06400000303983688, 1.0400000493973494, 0.0, 0.0, 0.0, 0.0, 0.0, 1.762206531202021E9, 0.0, 2025-11-03 16:48:51.202
76.0, 322.5588913783431, -31.41889952775091, 263.2440780811012, 4.151288950815797, -0.04800000227987766, -0.06400000303983688, 1.0400000493973494, 0.0, 0.0, 0.0, 0.0, 0.0, 1.7622065312170916E9, 0.0, 2025-11-03 16:48:51.217
76.0, 268.0161904245615, -63.365124949254096, 234.60018432047218, -1.7764524789527059, -0.04800000227987766, -0.06400000303983688, 1.0400000493973494, 0.0, 0.0, 0.0, 0.0, 0.0, 1.7622065312170916E9, 0.0, 2025-11-03 16:48:51.217
77.0, 236.93762179277837, -92.84675629995763, 191.28466303367168, -51.12443239428103, -0.04800000227987766, -0.06400000303983688, 1.0400000493973494, 0.0, 0.0, 0.0, 0.0, 0.0, 1.7622065312325768E9, 0.0, 2025-11-03 16:48:51.232
77.0, 298.53003416303545, -35.641246577724814, 265.9854247486219, 35.01294338516891, -0.04800000227987766, -0.06400000303983688, 1.0400000493973494, 0.0, 0.0, 0.0, 0.0, 0.0, 1.7622065312325768E9, 0.0, 2025-11-03 16:48:51.232
78.0, 309.35330463480204, -27.615421272814274, 270.08061520010233, 16.47425930481404, -0.04800000227987766, -0.06400000303983688, 1.0400000493973494, 0.0, 0.0, 0.0, 0.0, 0.0, 1.7622065312477376E9, 0.0, 2025-11-03 16:48:51.247
78.0, 240.46434745099396, -86.27201217785478, 210.03652141150087, -7.199307414703071, -0.04800000227987766, -0.06400000303983688, 1.0400000493973494, 0.0, 0.0, 0.0, 0.0, 0.0, 1.7622065312477376E9, 0.0, 2025-11-03 16:48:51.247
79.0, 261.9089337969199, -80.39662934746593, 212.7292493795976, -51.9509502844885, -0.04800000227987766, -0.06400000303983688, 1.0400000493973494, 0.0, 0.0, 0.0, 0.0, 0.0, 1.76220653124846E9, 0.0, 2025-11-03 16:48:51.248
79.0, 338.745178386569, -6.978653317317367, 289.01572867576033, 39.42228543292731, -0.04800000227987766, -0.06400000303983688, 1.0400000493973494, 0.0, 0.0, 0.0, 0.0, 0.0, 1.76220653124846E9, 0.0, 2025-11-03 16:48:51.248
80.0, 245.42345479223877, -79.72344735544175, 204.5388684766367, -37.686971853487194, -0.04800000227987766, -0.06400000303983688, 1.0400000493973494, 0.0, 0.0, 0.0, 0.0, 0.0, 1.7622065312629611E9, 0.0, 2025-11-03 16:48:51.262
80.0, 233.64276993181556, -100.63696790765971, 190.48806434310973, -53.360892567783594, -0.04800000227987766, -0.06400000303983688, 1.0400000493973494, 0.0, 0.0, 0.0, 0.0, 0.0, 1.7622065312629611E9, 0.0, 2025-11-03 16:48:51.262
81.0, 318.5497186258435, -28.468118462711573, 269.14190031122416, 14.952120022848248, -0.04800000227987766, -0.04800000227987766, 1.0400000493973494, 0.0, 0.0, 0.0, 0.0, 0.0, 1.7622065312634654E9, 0.0, 2025-11-03 16:48:51.263
81.0, 271.48681758344173, -56.35655243229121, 240.0753978556022, 3.9231550535187125, -0.04800000227987766, -0.04800000227987766, 1.0400000493973494, 0.0, 0.0, 0.0, 0.0, 0.0, 1.7622065312634654E9, 0.0, 2025-11-03 16:48:51.263
82.0, 220.91215048264712, -111.53877627849579, 184.04421671945602, -46.00450935494155, -0.04800000227987766, -0.04800000227987766, 1.0400000493973494, 0.0, 0.0, 0.0, 0.0, 0.0, 1.7622065312771084E9, 0.0, 2025-11-03 16:48:51.277
82.0, 281.03852207027376, -66.72355510946363, 230.12726397346705, -17.31947669479996, -0.04800000227987766, -0.04800000227987766, 1.0400000493973494, 0.0, 0.0, 0.0, 0.0, 0.0, 1.7622065312771084E9, 0.0, 2025-11-03 16:48:51.277
83.0, 297.75961477216333, -38.861300439573824, 256.9460865557194, 14.346256230026484, -0.04800000227987766, -0.04800000227987766, 1.0400000493973494, 0.0, 0.0, 0.0, 0.0, 0.0, 1.7622065312927835E9, 0.0, 2025-11-03 16:48:51.292
83.0, 233.06308543868363, -99.57109642028809, 189.26511705759913, -46.59915344789624, -0.04800000227987766, -0.04800000227987766, 1.0400000493973494, 0.0, 0.0, 0.0, 0.0, 0.0, 1.7622065312927835E9, 0.0, 2025-11-03 16:48:51.292
84.0, 262.5035778898746, -80.80801834259182, 207.36997274309397, -45.241569763980806, -0.04800000227987766, -0.04800000227987766, 1.0400000493973494, 0.0, 0.0, 0.0, 0.0, 0.0, 1.762206531293511E9, 0.0, 2025-11-03 16:48:51.293
84.0, 342.3130429442972, -2.0307656759396195, 306.49228116869926, 78.78099256660789, -0.04800000227987766, -0.04800000227987766, 1.0400000493973494, 0.0, 0.0, 0.0, 0.0, 0.0, 1.762206531293511E9, 0.0, 2025-11-03 16:48:51.293
85.0, 267.6160211293027, -63.54464014712721, 234.04667912703007, -0.5535051934421062, -0.04800000227987766, -0.04800000227987766, 1.0400000493973494, 0.0, 0.0, 0.0, 0.0, 0.0, 1.762206531307046E9, 0.0, 2025-11-03 16:48:51.307
85.0, 238.43732167501003, -96.1191687611863, 195.58554798271507, -39.4634243324399, -0.04800000227987766, -0.04800000227987766, 1.0400000493973494, 0.0, 0.0, 0.0, 0.0, 0.0, 1.762206531307046E9, 0.0, 2025-11-03 16:48:51.307
86.0, 332.95955315511674, -2.621669868938625, 292.7593685314059, 29.7920430470258, -0.04800000227987766, -0.04800000227987766, 1.0400000493973494, 0.0, 0.0, 0.0, 0.0, 0.0, 1.762206531322446E9, 0.0, 2025-11-03 16:48:51.322
86.0, 286.71569020301104, -39.03333583753556, 262.48113849014044, 22.92558672837913, -0.04800000227987766, -0.04800000227987766, 1.0400000493973494, 0.0, 0.0, 0.0, 0.0, 0.0, 1.762206531322446E9, 0.0, 2025-11-03 16:48:51.322
87.0, 235.4117426108569, -95.3038705708459, 195.4995302837342, -61.17354357521981, -0.04800000227987766, -0.04800000227987766, 1.0400000493973494, 0.0, 0.0, 0.0, 0.0, 0.0, 1.7622065313377013E9, 0.0, 2025-11-03 16:48:51.337
87.0, 305.9686951749027, -37.578514754772186, 253.8980680918321, -1.813851478509605, -0.04800000227987766, -0.04800000227987766, 1.0400000493973494, 0.0, 0.0, 0.0, 0.0, 0.0, 1.7622065313377013E9, 0.0, 2025-11-03 16:48:51.337
88.0, 310.09754472598433, -26.433612886816263, 271.206325086765, 24.242031512781978, -0.04800000227987766, -0.04800000227987766, 1.0400000493973494, 0.0, 0.0, 0.0, 0.0, 0.0, 1.7622065313383915E9, 0.0, 2025-11-03 16:48:51.338
88.0, 230.49751406908035, -98.7857174295932, 194.58325479459018, -37.3503808574751, -0.04800000227987766, -0.04800000227987766, 1.0400000493973494, 0.0, 0.0, 0.0, 0.0, 0.0, 1.7622065313383915E9, 0.0, 2025-11-03 16:48:51.338
89.0, 257.7576448461041, -82.0010464284569, 209.62887231633067, -35.92547897435725, -0.04800000227987766, -0.04800000227987766, 1.0400000493973494, 0.0, 0.0, 0.0, 0.0, 0.0, 1.7622065313527453E9, 0.0, 2025-11-03 16:48:51.352
89.0, 339.0555900828913, -4.83569064270705, 302.60278521478176, 76.04338579904288, -0.04800000227987766, -0.04800000227987766, 1.0400000493973494, 0.0, 0.0, 0.0, 0.0, 0.0, 1.7622065313527453E9, 0.0, 2025-11-03 16:48:51.352
90.0, 242.54373182635754, -84.57035769801587, 208.12917243409902, -16.13766830880195, -0.04800000227987766, -0.04800000227987766, 1.0400000493973494, 0.0, 0.0, 0.0, 0.0, 0.0, 1.762206531353408E9, 0.0, 2025-11-03 16:48:51.353
90.0, 225.7328815255314, -110.13257389515638, 179.0813694782555, -68.64212378673255, -0.04800000227987766, -0.04800000227987766, 1.0400000493973494, 0.0, 0.0, 0.0, 0.0, 0.0, 1.762206531353408E9, 0.0, 2025-11-03 16:48:51.353
91.0, 325.5919502424076, -22.88818772882223, 277.2051246156916, 23.464132321998477, -0.04800000227987766, -0.04800000227987766, 1.0400000493973494, 0.0, 0.0, 0.0, 0.0, 0.0, 1.7622065313670492E9, 0.0, 2025-11-03 16:48:51.367
91.0, 277.3958595134318, -53.746102263219655, 241.2609461415559, 4.3270642487332225, -0.04800000227987766, -0.04800000227987766, 1.0400000493973494, 0.0, 0.0, 0.0, 0.0, 0.0, 1.7622065313670492E9, 0.0, 2025-11-03 16:48:51.367
92.0, 225.04847983364016, -100.0834627142176, 196.34474767372012, -36.99135046172887, -0.04800000227987766, -0.04800000227987766, 1.0400000493973494, 0.0, 0.0, 0.0, 0.0, 0.0, 1.7622065313828623E9, 0.0, 2025-11-03 16:48:51.382
92.0, 282.59432045184076, -56.7305424278602, 246.1190761839971, -4.256006149575114, -0.04800000227987766, -0.04800000227987766, 1.0400000493973494, 0.0, 0.0, 0.0, 0.0, 0.0, 1.7622065313828623E9, 0.0, 2025-11-03 16:48:51.382
93.0, 312.90246969275177, -20.423593658022583, 283.1440857453272, 33.150473207235336, -0.04800000227987766, -0.04800000227987766, 1.0400000493973494, 0.0, 0.0, 0.0, 0.0, 0.0, 1.76220653138341E9, 0.0, 2025-11-03 16:48:51.383
93.0, 218.26430131401867, -106.69186593592167, 200.41375882551074, -37.212004559114575, -0.04800000227987766, -0.04800000227987766, 1.0400000493973494, 0.0, 0.0, 0.0, 0.0, 0.0, 1.76220653138341E9, 0.0, 2025-11-03 16:48:51.383
94.0, 250.19930703565478, -85.54647158645093, 214.6253786571324, -34.62025388982147, -0.04800000227987766, -0.04800000227987766, 1.0400000493973494, 0.0, 0.0, 0.0, 0.0, 0.0, 1.762206531397008E9, 0.0, 2025-11-03 16:48:51.397
94.0, 324.6270560538396, -11.836783359758556, 297.38188487663865, 49.62847241200507, -0.04800000227987766, -0.04800000227987766, 1.0400000493973494, 0.0, 0.0, 0.0, 0.0, 0.0, 1.762206531397008E9, 0.0, 2025-11-03 16:48:51.397
95.0, 237.56966488528997, -87.69691406097263, 210.30579420831054, -25.625794496387243, -0.04800000227987766, -0.04800000227987766, 1.0400000493973494, 0.0, 0.0, 0.0, 0.0, 0.0, 1.7622065314127548E9, 0.0, 2025-11-03 16:48:51.412
95.0, 241.49655983876437, -88.31399755366147, 204.21723708044738, -47.06664094235748, -0.04800000227987766, -0.04800000227987766, 1.0400000493973494, 0.0, 0.0, 0.0, 0.0, 0.0, 1.7622065314127548E9, 0.0, 2025-11-03 16:48:51.412
96.0, 336.39652121439576, -10.007972281426191, 290.1376986624673, 46.76744894590229, -0.04800000227987766, -0.04800000227987766, 1.0400000493973494, 0.0, 0.0, 0.0, 0.0, 0.0, 1.7622065314133992E9, 0.0, 2025-11-03 16:48:51.413
96.0, 278.6487259985879, -52.25014228094369, 245.22150019463152, 21.38474794663489, -0.04800000227987766, -0.04800000227987766, 1.0400000493973494, 0.0, 0.0, 0.0, 0.0, 0.0, 1.7622065314133992E9, 0.0, 2025-11-03 16:48:51.413
97.0, 239.57799116149545, -91.10770282056183, 200.350180526264, -40.001969926059246, -0.04800000227987766, -0.04800000227987766, 1.0400000493973494, 0.0, 0.0, 0.0, 0.0, 0.0, 1.7622065314270637E9, 0.0, 2025-11-03 16:48:51.427
97.0, 282.63171945139766, -58.24146200995892, 241.73591343592852, -12.09483645670116, -0.04800000227987766, -0.04800000227987766, 1.0400000493973494, 0.0, 0.0, 0.0, 0.0, 0.0, 1.7622065314270637E9, 0.0, 2025-11-03 16:48:51.427
98.0, 317.02757934387773, -21.048156950622797, 274.6395532460883, 24.57862250879407, -0.04800000227987766, -0.04800000227987766, 1.0400000493973494, 0.0, 0.0, 0.0, 0.0, 0.0, 1.7622065314432564E9, 0.0, 2025-11-03 16:48:51.443
98.0, 230.5124736689031, -90.40086172893643, 199.73309703357518, -48.62617922388017, -0.04800000227987766, -0.04800000227987766, 1.0400000493973494, 0.0, 0.0, 0.0, 0.0, 0.0, 1.7622065314432564E9, 0.0, 2025-11-03 16:48:51.443
99.0, 254.43287378549576, -78.64635616820306, 219.0309808049351, -19.088449373841286, -0.04800000227987766, -0.04800000227987766, 1.0400000493973494, 0.0, 0.0, 0.0, 0.0, 0.0, 1.762206531443406E9, 0.0, 2025-11-03 16:48:51.443
99.0, 326.05943773686886, -10.202447079122066, 293.08847972750664, 39.42228543292731, -0.04800000227987766, -0.04800000227987766, 1.0400000493973494, 0.0, 0.0, 0.0, 0.0, 0.0, 1.762206531443406E9, 0.0, 2025-11-03 16:48:51.443
100.0, 251.46713312063366, -72.12023074552417, 221.3684182772413, -22.611435132101178, -0.04800000227987766, -0.04800000227987766, 1.0400000493973494, 0.0, 0.0, 0.0, 0.0, 0.0, 1.7622065314577503E9, 0.0, 2025-11-03 16:48:51.457
100.0, 241.3731431402266, -83.9644939051941, 216.19987653847784, -15.183993820101023, -0.04800000227987766, -0.04800000227987766, 1.0400000493973494, 0.0, 0.0, 0.0, 0.0, 0.0, 1.7622065314577503E9, 0.0, 2025-11-03 16:48:51.457
0.0, 320.30560165503994, -21.455806045792997, 281.05909152003005, 30.685879136435688, -0.04800000227987766, -0.04800000227987766, 1.0400000493973494, 0.0, 0.0, 0.0, 0.0, 0.0, 1.7622065314584513E9, 0.0, 2025-11-03 16:48:51.458
1.0, 272.42366252234206, -57.81885331496596, 245.63475913973525, 1.6717352801933885, -0.04800000227987766, -0.04800000227987766, 1.0400000493973494, 0.0, 0.0, 0.0, 0.0, 0.0, 1.7622065314721532E9, 0.0, 2025-11-03 16:48:51.472
1.0, 226.25833746930584, -99.05125032644719, 197.50224671000615, -51.07581369485706, -0.04800000227987766, -0.04800000227987766, 1.0400000493973494, 0.0, 0.0, 0.0, 0.0, 0.0, 1.7622065314721532E9, 0.0, 2025-11-03 16:48:51.472
2.0, 296.4824389372952, -41.04540201369673, 267.0008075865917, 29.197398954071105, -0.04800000227987766, -0.04800000227987766, 1.0400000493973494, 0.0, 0.0, 0.0, 0.0, 0.0, 1.7622065314877973E9, 0.0, 2025-11-03 16:48:51.487
2.0, 317.37725998973474, -19.024871074594557, 290.0909499130212, 44.55716807208955, -0.04800000227987766, -0.04800000227987766, 1.0400000493973494, 0.0, 0.0, 0.0, 0.0, 0.0, 1.7622065314877973E9, 0.0, 2025-11-03 16:48:51.487
3.0, 246.8390069254674, -83.95327420532703, 216.0858095898293, -32.61566751357168, -0.04800000227987766, -0.04800000227987766, 1.0400000493973494, 0.0, 0.0, 0.0, 0.0, 0.0, 1.7622065314884496E9, 0.0, 2025-11-03 16:48:51.488
3.0, 265.7030623019673, -63.8812311431393, 237.82584803225473, -9.409588288515806, -0.04800000227987766, -0.04800000227987766, 1.0400000493973494, 0.0, 0.0, 0.0, 0.0, 0.0, 1.7622065314884496E9, 0.0, 2025-11-03 16:48:51.488
4.0, 341.3350591058843, 4.9703270411118865, 311.8609075550921, 58.843585902825, -0.04800000227987766, -0.04800000227987766, 1.0400000493973494, 0.0, 0.0, 0.0, 0.0, 0.0, 1.7622065315021305E9, 0.0, 2025-11-03 16:48:51.502
4.0, 258.3653785889037, -70.24654086772352, 223.81992269819602, -26.59442858491093, -0.04800000227987766, -0.04800000227987766, 1.0400000493973494, 0.0, 0.0, 0.0, 0.0, 0.0, 1.7622065315021305E9, 0.0, 2025-11-03 16:48:51.502
5.0, 240.23434360371903, -83.61294330935925, 219.32082305150107, -21.39222774654627, -0.04800000227987766, -0.04800000227987766, 1.0400000493973494, 0.0, 0.0, 0.0, 0.0, 0.0, 1.7622065315178063E9, 0.0, 2025-11-03 16:48:51.517
5.0, 324.5466482047923, -12.020038457587361, 292.1142357890494, 41.13515961263329, -0.04800000227987766, -0.04800000227987766, 1.0400000493973494, 0.0, 0.0, 0.0, 0.0, 0.0, 1.7622065315178063E9, 0.0, 2025-11-03 16:48:51.517
6.0, 287.162608247716, -42.18981140013784, 250.6574447802268, -5.63976913318038, -0.04800000227987766, -0.04800000227987766, 1.0400000493973494, 0.0, 0.0, 0.0, 0.0, 0.0, 1.7622065315184631E9, 0.0, 2025-11-03 16:48:51.518
6.0, 242.9906498710625, -84.61523649748415, 207.05021129688248, -49.54619461297989, -0.04800000227987766, -0.04800000227987766, 1.0400000493973494, 0.0, 0.0, 0.0, 0.0, 0.0, 1.7622065315184631E9, 0.0, 2025-11-03 16:48:51.518
7.0, 287.3870022450574, -45.275228863582015, 255.17150402674451, 3.0741977635771036, -0.04800000227987766, -0.04800000227987766, 1.0400000493973494, 0.0, 0.0, 0.0, 0.0, 0.0, 1.762206531532038E9, 0.0, 2025-11-03 16:48:51.532
7.0, 309.2354977861978, -19.72423236630857, 285.53575176699087, 39.48212383221835, -0.04800000227987766, -0.04800000227987766, 1.0400000493973494, 0.0, 0.0, 0.0, 0.0, 0.0, 1.762206531532038E9, 0.0, 2025-11-03 16:48:51.532
8.0, 236.78241594461724, -78.15642927400768, 217.98193886736408, -22.611435132101178, -0.04800000227987766, -0.04800000227987766, 1.0400000493973494, 0.0, 0.0, 0.0, 0.0, 0.0, 1.7622065315477667E9, 0.0, 2025-11-03 16:48:51.547
8.0, 261.6265713502653, -66.0690726172179, 235.04336246522143, -11.328156965784729, -0.04800000227987766, -0.04800000227987766, 1.0400000493973494, 0.0, 0.0, 0.0, 0.0, 0.0, 1.7622065315477667E9, 0.0, 2025-11-03 16:48:51.547
9.0, 332.1461249147542, -4.962847241200507, 301.6061018765904, 54.2098498577252, -0.04800000227987766, -0.04800000227987766, 1.0400000493973494, 0.0, 0.0, 0.0, 0.0, 0.0, 1.762206531548468E9, 0.0, 2025-11-03 16:48:51.548
9.0, 240.4624775010161, -88.17188135534525, 213.69975341809914, -27.892173869535327, -0.04800000227987766, -0.04800000227987766, 1.0400000493973494, 0.0, 0.0, 0.0, 0.0, 0.0, 1.762206531548468E9, 0.0, 2025-11-03 16:48:51.548
10.0, 226.91655986150727, -100.58460930828005, 203.40380884008482, -40.93694491498172, -0.04800000227987766, -0.04800000227987766, 1.0400000493973494, 0.0, 0.0, 0.0, 0.0, 0.0, 1.7622065315621376E9, 0.0, 2025-11-03 16:48:51.562
10.0, 319.70721766212955, -25.547256597317755, 284.484839879442, 39.07447473704815, -0.04800000227987766, -0.04800000227987766, 1.0400000493973494, 0.0, 0.0, 0.0, 0.0, 0.0, 1.7622065315621376E9, 0.0, 2025-11-03 16:48:51.562
11.0, 278.7814924470149, -48.67105802334845, 259.1507575795986, 8.43347440008074, -0.04800000227987766, -0.04800000227987766, 1.0400000493973494, 0.0, 0.0, 0.0, 0.0, 0.0, 1.7622065315777292E9, 0.0, 2025-11-03 16:48:51.577
11.0, 243.51423586485907, -80.84915724210441, 221.09727553045377, -25.943685992620885, -0.04800000227987766, -0.04800000227987766, 1.0400000493973494, 0.0, 0.0, 0.0, 0.0, 0.0, 1.7622065315777292E9, 0.0, 2025-11-03 16:48:51.577
12.0, 293.2661249754019, -40.21140432357788, 264.1734432200901, 12.274351654574275, -0.04800000227987766, -0.04800000227987766, 1.0400000493973494, 0.0, 0.0, 0.0, 0.0, 0.0, 1.7622065315785773E9, 0.0, 2025-11-03 16:48:51.578
12.0, 311.8422080553137, -15.097976121120155, 287.4917194438167, 34.08544819615781, -0.04800000227987766, -0.04800000227987766, 1.0400000493973494, 0.0, 0.0, 0.0, 0.0, 0.0, 1.7622065315785773E9, 0.0, 2025-11-03 16:48:51.578
13.0, 237.81836823234335, -80.82297794241458, 214.9339204034768, -34.47065789159387, -0.04800000227987766, -0.04800000227987766, 1.0400000493973494, 0.0, 0.0, 0.0, 0.0, 0.0, 1.762206531592022E9, 0.0, 2025-11-03 16:48:51.592
13.0, 262.4119503409602, -73.99018072336912, 227.00257756048813, -20.55449015647173, -0.04800000227987766, -0.04800000227987766, 1.0400000493973494, 0.0, 0.0, 0.0, 0.0, 0.0, 1.762206531592022E9, 0.0, 2025-11-03 16:48:51.592
14.0, 338.0327274450101, -1.249126585200429, 302.6158748646267, 58.544393906369805, -0.04800000227987766, -0.04800000227987766, 1.0400000493973494, 0.0, 0.0, 0.0, 0.0, 0.0, 1.7622065316079326E9, 0.0, 2025-11-03 16:48:51.607
14.0, 238.25593652715907, -80.40036924742162, 216.0072716907598, -20.57692955620587, -0.04800000227987766, -0.04800000227987766, 1.0400000493973494, 0.0, 0.0, 0.0, 0.0, 0.0, 1.7622065316079326E9, 0.0, 2025-11-03 16:48:51.607
15.0, 229.018383636605, -95.77883786521852, 200.0378988799639, -31.620854125358164, -0.04800000227987766, -0.04800000227987766, 1.0400000493973494, 0.0, 0.0, 0.0, 0.0, 0.0, 1.7622065316084564E9, 0.0, 2025-11-03 16:48:51.608
15.0, 322.7253169263713, -10.411881476640701, 290.1994070117362, 37.08858786057681, -0.04800000227987766, -0.04800000227987766, 1.0400000493973494, 0.0, 0.0, 0.0, 0.0, 0.0, 1.7622065316084564E9, 0.0, 2025-11-03 16:48:51.608
16.0, 261.8060865481384, -50.944917196407914, 251.1024928749539, 15.539284315891564, -0.04800000227987766, -0.04800000227987766, 1.0400000493973494, 0.0, 0.0, 0.0, 0.0, 0.0, 1.7622065316220024E9, 0.0, 2025-11-03 16:48:51.622
16.0, 235.08076146477833, -91.91552121099085, 206.706140500959, -49.17968441732228, -0.04800000227987766, -0.04800000227987766, 1.0400000493973494, 0.0, 0.0, 0.0, 0.0, 0.0, 1.7622065316220024E9, 0.0, 2025-11-03 16:48:51.622
17.0, 287.3870022450574, -46.18776445277035, 258.7057094848715, 23.120061526075006, -0.04800000227987766, -0.04800000227987766, 1.0400000493973494, 0.0, 0.0, 0.0, 0.0, 0.0, 1.762206531637803E9, 0.0, 2025-11-03 16:48:51.637
17.0, 317.8036085846834, -15.68140051420778, 287.7011538413353, 37.34290105756372, -0.04800000227987766, -0.04800000227987766, 1.0400000493973494, 0.0, 0.0, 0.0, 0.0, 0.0, 1.762206531637803E9, 0.0, 2025-11-03 16:48:51.637
18.0, 231.72981110448018, -85.73346658423543, 213.28462452301756, -33.10559440776706, -0.04800000227987766, -0.04800000227987766, 1.0400000493973494, 0.0, 0.0, 0.0, 0.0, 0.0, 1.762206531638456E9, 0.0, 2025-11-03 16:48:51.638
18.0, 266.31266599474475, -71.09175825770944, 228.29284304520115, -30.58490183763206, -0.04800000227987766, -0.04800000227987766, 1.0400000493973494, 0.0, 0.0, 0.0, 0.0, 0.0, 1.762206531638456E9, 0.0, 2025-11-03 16:48:51.638
19.0, 353.6393299601041, 7.0646710162982345, 307.02895681234077, 60.6574373813346, -0.04800000227987766, -0.04800000227987766, 1.0400000493973494, 0.0, 0.0, 0.0, 0.0, 0.0, 1.762206531651991E9, 0.0, 2025-11-03 16:48:51.651
19.0, 233.40528628462926, -85.66240848507732, 219.70229284698144, -19.398861070163548, -0.04800000227987766, -0.04800000227987766, 1.0400000493973494, 0.0, 0.0, 0.0, 0.0, 0.0, 1.762206531651991E9, 0.0, 2025-11-03 16:48:51.651
20.0, 231.22118471050635, -90.38590212911367, 218.77479765797034, -23.33697572350502, -0.04800000227987766, -0.04800000227987766, 1.0400000493973494, 0.0, 0.0, 0.0, 0.0, 0.0, 1.7622065316677303E9, 0.0, 2025-11-03 16:48:51.667
20.0, 332.2957209129818, -8.194120802916586, 303.58824885310605, 45.82125425711274, -0.04800000227987766, -0.04800000227987766, 1.0400000493973494, 0.0, 0.0, 0.0, 0.0, 0.0, 1.7622065316677303E9, 0.0, 2025-11-03 16:48:51.667
21.0, 275.93916848069057, -50.78784139826894, 253.85131934238598, 14.51455172803253, -0.04800000227987766, -0.06400000303983688, 1.0400000493973494, 0.0, 0.0, 0.0, 0.0, 0.0, 1.7622065316684225E9, 0.0, 2025-11-03 16:48:51.668
21.0, 234.39635977288708, -89.95207373425364, 217.25639827596024, -19.024871074594557, -0.04800000227987766, -0.06400000303983688, 1.0400000493973494, 0.0, 0.0, 0.0, 0.0, 0.0, 1.7622065316684225E9, 0.0, 2025-11-03 16:48:51.668
22.0, 284.58207727828994, -52.523154977709055, 253.1407383508049, 5.183501338586211, -0.04800000227987766, -0.06400000303983688, 1.0400000493973494, 0.0, 0.0, 0.0, 0.0, 0.0, 1.7622065316820214E9, 0.0, 2025-11-03 16:48:51.682
22.0, 305.00193103635684, -24.664640207774937, 282.98513999721035, 36.25085027050227, -0.04800000227987766, -0.06400000303983688, 1.0400000493973494, 0.0, 0.0, 0.0, 0.0, 0.0, 1.7622065316820214E9, 0.0, 2025-11-03 16:48:51.682
23.0, 235.51832975959405, -86.09997677989304, 211.28003814676777, -36.030196173116565, -0.04800000227987766, -0.06400000303983688, 1.0400000493973494, 0.0, 0.0, 0.0, 0.0, 0.0, 1.7622065316977348E9, 0.0, 2025-11-03 16:48:51.697
23.0, 256.8432393069379, -77.61788368038833, 218.23999196430668, -33.42722580395639, -0.04800000227987766, -0.06400000303983688, 1.0400000493973494, 0.0, 0.0, 0.0, 0.0, 0.0, 1.7622065316977348E9, 0.0, 2025-11-03 16:48:51.697
24.0, 340.60203871456906, 7.790211607702076, 312.4331122483127, 63.50724114757031, -0.04800000227987766, -0.06400000303983688, 1.0400000493973494, 0.0, 0.0, 0.0, 0.0, 0.0, 1.7622065316984708E9, 0.0, 2025-11-03 16:48:51.698
24.0, 256.6861635087989, -63.746594744734466, 235.74646365689114, -4.521539046429098, -0.04800000227987766, -0.06400000303983688, 1.0400000493973494, 0.0, 0.0, 0.0, 0.0, 0.0, 1.7622065316984708E9, 0.0, 2025-11-03 16:48:51.698
25.0, 244.18741785688326, -81.94120802916586, 214.07000351371244, -29.096421655267477, -0.04800000227987766, -0.06400000303983688, 1.0400000493973494, 0.0, 0.0, 0.0, 0.0, 0.0, 1.7622065317121942E9, 0.0, 2025-11-03 16:48:51.712
25.0, 326.0201687873341, -6.2979915253818035, 297.9036009204574, 49.744409310631454, -0.04800000227987766, -0.06400000303983688, 1.0400000493973494, 0.0, 0.0, 0.0, 0.0, 0.0, 1.7622065317121942E9, 0.0, 2025-11-03 16:48:51.712
26.0, 288.2733585345559, -47.16387834120542, 244.1687183571048, -22.308503235690296, -0.04800000227987766, -0.06400000303983688, 1.0400000493973494, 0.0, 0.0, 0.0, 0.0, 0.0, 1.7622065317274773E9, 0.0, 2025-11-03 16:48:51.727
26.0, 234.1308268760331, -92.88415529951453, 202.32671765284613, -49.94262400828302, -0.04800000227987766, -0.06400000303983688, 1.0400000493973494, 0.0, 0.0, 0.0, 0.0, 0.0, 1.7622065317274773E9, 0.0, 2025-11-03 16:48:51.727
27.0, 270.3367983470671, -60.75467478018254, 247.2503959205933, 14.200400131754577, -0.04800000227987766, -0.06400000303983688, 1.0400000493973494, 0.0, 0.0, 0.0, 0.0, 0.0, 1.7622065317429798E9, 0.0, 2025-11-03 16:48:51.742
27.0, 290.0535509134643, -36.32564826961607, 268.1414770730771, 12.741839149035513, -0.04800000227987766, -0.06400000303983688, 1.0400000493973494, 0.0, 0.0, 0.0, 0.0, 0.0, 1.7622065317429798E9, 0.0, 2025-11-03 16:48:51.742
28.0, 238.6897649220191, -95.95087326318026, 203.69552103662863, -43.674551682546735, -0.04800000227987766, -0.06400000303983688, 1.0400000493973494, 0.0, 0.0, 0.0, 0.0, 0.0, 1.7622065317434485E9, 0.0, 2025-11-03 16:48:51.743
28.0, 248.42098460672423, -86.91527497023344, 218.55040366062894, -16.15262790862471, -0.04800000227987766, -0.06400000303983688, 1.0400000493973494, 0.0, 0.0, 0.0, 0.0, 0.0, 1.7622065317434485E9, 0.0, 2025-11-03 16:48:51.743
29.0, 331.90303141763434, -9.207633690908551, 302.2643242687918, 63.757814444601536, -0.04800000227987766, -0.06400000303983688, 1.0400000493973494, 0.0, 0.0, 0.0, 0.0, 0.0, 1.7622065317577233E9, 0.0, 2025-11-03 16:48:51.757
29.0, 246.24062293255702, -85.83818378299475, 209.17073457175866, -46.909565144218504, -0.04800000227987766, -0.06400000303983688, 1.0400000493973494, 0.0, 0.0, 0.0, 0.0, 0.0, 1.7622065317577233E9, 0.0, 2025-11-03 16:48:51.757
30.0, 241.40493228984997, -94.33149658236653, 204.0807307320647, -37.79916885215789, -0.04800000227987766, -0.06400000303983688, 1.0400000493973494, 0.0, 0.0, 0.0, 0.0, 0.0, 1.7622065317584438E9, 0.0, 2025-11-03 16:48:51.758
30.0, 314.04500912921503, -25.584655596874654, 287.7909114402719, 57.21672942209989, -0.04800000227987766, -0.06400000303983688, 1.0400000493973494, 0.0, 0.0, 0.0, 0.0, 0.0, 1.7622065317584438E9, 0.0, 2025-11-03 16:48:51.758
31.0, 277.7343204594217, -50.496129201725125, 254.52450133441016, 16.021731410175562, -0.04800000227987766, -0.04800000227987766, 1.0400000493973494, 0.0, 0.0, 0.0, 0.0, 0.0, 1.7622065317721255E9, 0.0, 2025-11-03 16:48:51.772
31.0, 234.40383957279846, -86.20843387860805, 205.71880691265687, -38.90243933908641, -0.04800000227987766, -0.04800000227987766, 1.0400000493973494, 0.0, 0.0, 0.0, 0.0, 0.0, 1.7622065317721255E9, 0.0, 2025-11-03 16:48:51.772
32.0, 288.57629043096676, -48.99642931949347, 252.46381645882502, -16.16010770853609, -0.04800000227987766, -0.04800000227987766, 1.0400000493973494, 0.0, 0.0, 0.0, 0.0, 0.0, 1.762206531787726E9, 0.0, 2025-11-03 16:48:51.787
32.0, 311.8796070548706, -14.810003824532032, 294.3170368629508, 51.303947592154145, -0.04800000227987766, -0.04800000227987766, 1.0400000493973494, 0.0, 0.0, 0.0, 0.0, 0.0, 1.762206531787726E9, 0.0, 2025-11-03 16:48:51.787
33.0, 250.22735628532246, -79.43547505885363, 216.43362028570846, -17.629888391122222, -0.04800000227987766, -0.04800000227987766, 1.0400000493973494, 0.0, 0.0, 0.0, 0.0, 0.0, 1.7622065317884147E9, 0.0, 2025-11-03 16:48:51.788
33.0, 246.2443628325127, -82.0758444275707, 222.48103851405904, -23.516490921378136, -0.04800000227987766, -0.04800000227987766, 1.0400000493973494, 0.0, 0.0, 0.0, 0.0, 0.0, 1.7622065317884147E9, 0.0, 2025-11-03 16:48:51.788
34.0, 326.5811537806876, -7.771512107923627, 297.80636352160946, 50.83646009769291, -0.04800000227987766, -0.04800000227987766, 1.0400000493973494, 0.0, 0.0, 0.0, 0.0, 0.0, 1.7622065318020701E9, 0.0, 2025-11-03 16:48:51.802
34.0, 248.94083070056513, -71.21143505629152, 234.30660217395052, 17.69720659032464, -0.04800000227987766, -0.04800000227987766, 1.0400000493973494, 0.0, 0.0, 0.0, 0.0, 0.0, 1.7622065318020701E9, 0.0, 2025-11-03 16:48:51.802
35.0, 229.9421389256604, -94.0061252862215, 211.79614434065297, -23.77828391827643, -0.04800000227987766, -0.04800000227987766, 1.0400000493973494, 0.0, 0.0, 0.0, 0.0, 0.0, 1.762206531817966E9, 0.0, 2025-11-03 16:48:51.817
35.0, 311.3186220615171, -30.278230041265488, 270.79306614166126, 6.716860320419073, -0.04800000227987766, -0.04800000227987766, 1.0400000493973494, 0.0, 0.0, 0.0, 0.0, 0.0, 1.762206531817966E9, 0.0, 2025-11-03 16:48:51.817
36.0, 273.3810769109987, -50.72052319906652, 249.99922238802537, 6.230673326179385, -0.04800000227987766, -0.04800000227987766, 1.0400000493973494, 0.0, 0.0, 0.0, 0.0, 0.0, 1.7622065318185444E9, 0.0, 2025-11-03 16:48:51.818
36.0, 223.99569799611345, -102.98562507983297, 193.8147053536959, -49.52375521324575, -0.04800000227987766, -0.04800000227987766, 1.0400000493973494, 0.0, 0.0, 0.0, 0.0, 0.0, 1.7622065318185444E9, 0.0, 2025-11-03 16:48:51.818
37.0, 288.25465903477743, -40.37969982158393, 278.24294685339555, 107.04715643171221, -0.04800000227987766, -0.04800000227987766, 1.0400000493973494, 0.0, 0.0, 0.0, 0.0, 0.0, 1.7622065318320472E9, 0.0, 2025-11-03 16:48:51.832
37.0, 293.277344675269, -45.56320116017014, 248.07317391084507, -48.29332812782377, -0.04800000227987766, -0.04800000227987766, 1.0400000493973494, 0.0, 0.0, 0.0, 0.0, 0.0, 1.7622065318320472E9, 0.0, 2025-11-03 16:48:51.832
38.0, 232.29827589774504, -95.78257776517421, 214.60854910733178, -18.318029982969165, -0.04800000227987766, -0.04800000227987766, 1.0400000493973494, 0.0, 0.0, 0.0, 0.0, 0.0, 1.7622065318477273E9, 0.0, 2025-11-03 16:48:51.847
38.0, 251.8055940666236, -80.7070410437882, 220.1249015419744, -34.373420492745936, -0.04800000227987766, -0.04800000227987766, 1.0400000493973494, 0.0, 0.0, 0.0, 0.0, 0.0, 1.7622065318477273E9, 0.0, 2025-11-03 16:48:51.847
39.0, 330.97179632866755, -2.049465175718069, 307.6460403050296, 55.23832234553993, -0.04800000227987766, -0.04800000227987766, 1.0400000493973494, 0.0, 0.0, 0.0, 0.0, 0.0, 1.7622065318484285E9, 0.0, 2025-11-03 16:48:51.848
39.0, 246.15834513353184, -65.08173902891576, 241.8724197843112, 21.534343944862485, -0.04800000227987766, -0.04800000227987766, 1.0400000493973494, 0.0, 0.0, 0.0, 0.0, 0.0, 1.7622065318484285E9, 0.0, 2025-11-03 16:48:51.848
40.0, 229.6803459287621, -93.10106949694455, 204.7875718236901, -48.899191920645535, -0.04800000227987766, -0.04800000227987766, 1.0400000493973494, 0.0, 0.0, 0.0, 0.0, 0.0, 1.76220653186208E9, 0.0, 2025-11-03 16:48:51.862
40.0, 315.9822773062624, -20.610588655807078, 280.8646167223342, 13.055990745313466, -0.04800000227987766, -0.04800000227987766, 1.0400000493973494, 0.0, 0.0, 0.0, 0.0, 0.0, 1.76220653186208E9, 0.0, 2025-11-03 16:48:51.862
41.0, 277.97741395654157, -47.7996613336727, 259.4088106765412, 4.110150051303208, -0.04800000227987766, -0.06400000303983688, 1.0400000493973494, 0.0, 0.0, 0.0, 0.0, 0.0, 1.762206531877772E9, 0.0, 2025-11-03 16:48:51.877
41.0, 237.7211308334954, -85.92420148197562, 215.53978419629857, -25.3827009992674, -0.04800000227987766, -0.06400000303983688, 1.0400000493973494, 0.0, 0.0, 0.0, 0.0, 0.0, 1.762206531877772E9, 0.0, 2025-11-03 16:48:51.877
42.0, 287.79839124018326, -50.31287410389632, 256.27477451367304, 15.902054611593485, -0.04800000227987766, -0.06400000303983688, 1.0400000493973494, 0.0, 0.0, 0.0, 0.0, 0.0, 1.7622065318784523E9, 0.0, 2025-11-03 16:48:51.878
42.0, 310.40982637228444, -21.624101543799043, 289.32427042210475, 43.708210782147944, -0.04800000227987766, -0.06400000303983688, 1.0400000493973494, 0.0, 0.0, 0.0, 0.0, 0.0, 1.7622065318784523E9, 0.0, 2025-11-03 16:48:51.878
43.0, 232.69470529304817, -88.04472475685179, 218.5990223600529, -20.446033057756722, -0.04800000227987766, -0.06400000303983688, 1.0400000493973494, 0.0, 0.0, 0.0, 0.0, 0.0, 1.7622065318920715E9, 0.0, 2025-11-03 16:48:51.892
43.0, 248.74635590286925, -76.39867629483342, 226.0563828716986, -33.236490906216204, -0.04800000227987766, -0.06400000303983688, 1.0400000493973494, 0.0, 0.0, 0.0, 0.0, 0.0, 1.7622065318920715E9, 0.0, 2025-11-03 16:48:51.892
44.0, 326.3118809838779, -2.6029703691601753, 302.14464747020975, 55.02140814810991, -0.04800000227987766, -0.06400000303983688, 1.0400000493973494, 0.0, 0.0, 0.0, 0.0, 0.0, 1.7622065319077249E9, 0.0, 2025-11-03 16:48:51.907
44.0, 247.96097691217437, -70.49711416475475, 232.14867989951745, -1.4548210827633739, -0.04800000227987766, -0.06400000303983688, 1.0400000493973494, 0.0, 0.0, 0.0, 0.0, 0.0, 1.7622065319077249E9, 0.0, 2025-11-03 16:48:51.907
45.0, 225.92548637324944, -100.790303805843, 199.80602508271113, -44.063501277938485, -0.04800000227987766, -0.06400000303983688, 1.0400000493973494, 0.0, 0.0, 0.0, 0.0, 0.0, 1.7622065319084318E9, 0.0, 2025-11-03 16:48:51.908
45.0, 321.6145666395314, -23.224778724834323, 289.6646013180725, 44.00740277860314, -0.04800000227987766, -0.06400000303983688, 1.0400000493973494, 0.0, 0.0, 0.0, 0.0, 0.0, 1.7622065319084318E9, 0.0, 2025-11-03 16:48:51.908
46.0, 275.7783527825959, -46.72257014643401, 260.42606346448883, 18.620961879380047, -0.04800000227987766, -0.06400000303983688, 1.0400000493973494, 0.0, 0.0, 0.0, 0.0, 0.0, 1.7622065319220412E9, 0.0, 2025-11-03 16:48:51.922
46.0, 238.55886842356995, -81.855190330185, 217.98941866727546, -17.585009591653943, -0.04800000227987766, -0.06400000303983688, 1.0400000493973494, 0.0, 0.0, 0.0, 0.0, 0.0, 1.7622065319220412E9, 0.0, 2025-11-03 16:48:51.922
47.0, 284.7541126762517, -41.35581371001899, 271.3615309349261, 42.907872191630304, -0.04800000227987766, -0.06400000303983688, 1.0400000493973494, 0.0, 0.0, 0.0, 0.0, 0.0, 1.7622065319377627E9, 0.0, 2025-11-03 16:48:51.937
47.0, 320.96382404724136, -4.0390919521451, 302.09976867074147, 34.70627158880234, -0.04800000227987766, -0.06400000303983688, 1.0400000493973494, 0.0, 0.0, 0.0, 0.0, 0.0, 1.7622065319377627E9, 0.0, 2025-11-03 16:48:51.937
48.0, 256.15883761504665, -59.340992596931756, 253.18561715027317, 21.29873024765402, -0.04800000227987766, -0.06400000303983688, 1.0400000493973494, 0.0, 0.0, 0.0, 0.0, 0.0, 1.762206531938423E9, 0.0, 2025-11-03 16:48:51.938
48.0, 276.6347898724489, -40.73499031737447, 273.79994570603594, 23.70348591916263, -0.04800000227987766, -0.06400000303983688, 1.0400000493973494, 0.0, 0.0, 0.0, 0.0, 0.0, 1.762206531938423E9, 0.0, 2025-11-03 16:48:51.938
49.0, 351.7357208826579, 28.53543666191399, 353.1045242664404, 121.98805675469339, -0.04800000227987766, -0.06400000303983688, 1.0400000493973494, 0.0, 0.0, 0.0, 0.0, 0.0, 1.7622065319521017E9, 0.0, 2025-11-03 16:48:51.952
49.0, 261.20396265527233, -48.77577522210777, 261.31241975398734, 12.603462850674987, -0.04800000227987766, -0.06400000303983688, 1.0400000493973494, 0.0, 0.0, 0.0, 0.0, 0.0, 1.7622065319521017E9, 0.0, 2025-11-03 16:48:51.952
50.0, 253.23423584969714, -57.08583292365074, 257.1760904029943, 20.1206617616117, -0.04800000227987766, -0.06400000303983688, 1.0400000493973494, 0.0, 0.0, 0.0, 0.0, 0.0, 1.762206531967771E9, 0.0, 2025-11-03 16:48:51.967
50.0, 336.42457046406344, 6.627102721482515, 327.2131968731992, 94.61572897899896, -0.04800000227987766, -0.06400000303983688, 1.0400000493973494, 0.0, 0.0, 0.0, 0.0, 0.0, 1.762206531967771E9, 0.0, 2025-11-03 16:48:51.967
51.0, 301.647240776103, -11.500192363746464, 303.20303915767, 66.73103490937501, -0.04800000227987766, -0.04800000227987766, 1.0400000493973494, 0.0, 0.0, 0.0, 0.0, 0.0, 1.7622065319684143E9, 0.0, 2025-11-03 16:48:51.968
51.0, 246.19948403304443, -60.582639382220805, 256.93299690587446, 30.715798336081207, -0.04800000227987766, -0.04800000227987766, 1.0400000493973494, 0.0, 0.0, 0.0, 0.0, 0.0, 1.7622065319684143E9, 0.0, 2025-11-03 16:48:51.968
52.0, 302.3129429682158, -15.67766061425209, 315.4362519127317, 99.54865702055395, -0.04800000227987766, -0.04800000227987766, 1.0400000493973494, 0.0, 0.0, 0.0, 0.0, 0.0, 1.7622065319827535E9, 0.0, 2025-11-03 16:48:51.982
52.0, 323.6976909148507, 4.8880492420867085, 322.89735232433304, 65.54174672346562, -0.04800000227987766, -0.04800000227987766, 1.0400000493973494, 0.0, 0.0, 0.0, 0.0, 0.0, 1.7622065319827535E9, 0.0, 2025-11-03 16:48:51.982
53.0, 245.7693955381401, -59.84961899090558, 257.83057289524004, 19.439999969676137, -0.04800000227987766, -0.04800000227987766, 1.0400000493973494, 0.0, 0.0, 0.0, 0.0, 0.0, 1.7622065319977272E9, 0.0, 2025-11-03 16:48:51.997
53.0, 257.6959364968352, -53.52544816583395, 266.6567367906682, 41.58768750727177, -0.04800000227987766, -0.04800000227987766, 1.0400000493973494, 0.0, 0.0, 0.0, 0.0, 0.0, 1.7622065319977272E9, 0.0, 2025-11-03 16:48:51.997
54.0, 347.9659017273225, 24.455205810256302, 348.09679822577164, 98.41172743402421, -0.04800000227987766, -0.04800000227987766, 1.0400000493973494, 0.0, 0.0, 0.0, 0.0, 0.0, 1.7622065319984152E9, 0.0, 2025-11-03 16:48:51.998
54.0, 265.41509000537917, -38.26665634661913, 281.6649553128518, 35.83946127537638, -0.04800000227987766, -0.04800000227987766, 1.0400000493973494, 0.0, 0.0, 0.0, 0.0, 0.0, 1.7622065319984152E9, 0.0, 2025-11-03 16:48:51.998
55.0, 246.04614813486114, -49.60603301227093, 273.06318541476503, 59.355952196754515, -0.04800000227987766, -0.04800000227987766, 1.0400000493973494, 0.0, 0.0, 0.0, 0.0, 0.0, 1.7622065320120523E9, 0.0, 2025-11-03 16:48:52.012
55.0, 321.97359703527763, 4.334544048644602, 327.9985758638941, 89.90345503482968, -0.04800000227987766, -0.04800000227987766, 1.0400000493973494, 0.0, 0.0, 0.0, 0.0, 0.0, 1.7622065320120523E9, 0.0, 2025-11-03 16:48:52.012
56.0, 300.5664096889086, -7.969726805575192, 318.9928967705928, 107.013497332111, -0.04800000227987766, -0.04800000227987766, 1.0400000493973494, 0.0, 0.0, 0.0, 0.0, 0.0, 1.7622065320277913E9, 0.0, 2025-11-03 16:48:52.027
56.0, 237.67251213407144, -58.44715650752187, 257.11999190365896, 9.768618684262037, -0.04800000227987766, -0.04800000227987766, 1.0400000493973494, 0.0, 0.0, 0.0, 0.0, 0.0, 1.7622065320277913E9, 0.0, 2025-11-03 16:48:52.027
57.0, 295.3118502511643, -17.061423597857356, 308.95500528952107, 68.86651778407395, -0.04800000227987766, -0.04800000227987766, 1.0400000493973494, 0.0, 0.0, 0.0, 0.0, 0.0, 1.7622065320284176E9, 0.0, 2025-11-03 16:48:52.028
57.0, 319.2098109680228, 12.027518257498741, 344.28210027096793, 114.92338573839515, -0.04800000227987766, -0.04800000227987766, 1.0400000493973494, 0.0, 0.0, 0.0, 0.0, 0.0, 1.7622065320284176E9, 0.0, 2025-11-03 16:48:52.028
58.0, 229.7252247282304, -66.23736811522394, 246.31542093167081, -7.954767205752432, -0.04800000227987766, -0.04800000227987766, 1.0400000493973494, 0.0, 0.0, 0.0, 0.0, 0.0, 1.7622065320420663E9, 0.0, 2025-11-03 16:48:52.042
58.0, 247.3177141197957, -51.51338198967278, 269.53271985659376, 49.58359361253679, -0.04800000227987766, -0.04800000227987766, 1.0400000493973494, 0.0, 0.0, 0.0, 0.0, 0.0, 1.7622065320420663E9, 0.0, 2025-11-03 16:48:52.042
59.0, 314.44891832442954, 7.535898410715163, 341.9259632988833, 123.78694863338023, -0.04800000227987766, -0.04800000227987766, 1.0400000493973494, 0.0, 0.0, 0.0, 0.0, 0.0, 1.762206532057731E9, 0.0, 2025-11-03 16:48:52.057
59.0, 233.78301618015394, -73.0365062346682, 247.01852212334052, 4.858130042441189, -0.04800000227987766, -0.04800000227987766, 1.0400000493973494, 0.0, 0.0, 0.0, 0.0, 0.0, 1.762206532057731E9, 0.0, 2025-11-03 16:48:52.057
60.0, 208.91268147481605, -87.26682556606829, 230.4283259199001, -0.5572450933977962, -0.04800000227987766, -0.04800000227987766, 1.0400000493973494, 0.0, 0.0, 0.0, 0.0, 0.0, 1.762206532058453E9, 0.0, 2025-11-03 16:48:52.058
60.0, 297.9297802201472, -15.883355111815035, 308.0237702005543, 78.86327036563307, -0.04800000227987766, -0.04800000227987766, 1.0400000493973494, 0.0, 0.0, 0.0, 0.0, 0.0, 1.762206532058453E9, 0.0, 2025-11-03 16:48:52.058
61.0, 252.97992265271023, -46.63655244745314, 269.517760256771, 40.409619021229446, -0.04800000227987766, -0.04800000227987766, 1.0400000493973494, 0.0, 0.0, 0.0, 0.0, 0.0, 1.762206532072056E9, 0.0, 2025-11-03 16:48:52.072
61.0, 215.98483229102567, -89.12555584404618, 229.00342403678223, 8.369896100834012, -0.04800000227987766, -0.04800000227987766, 1.0400000493973494, 0.0, 0.0, 0.0, 0.0, 0.0, 1.762206532072056E9, 0.0, 2025-11-03 16:48:52.072
62.0, 266.20420889602974, -52.3212003801018, 269.71971485437825, 37.11850706022233, -0.04800000227987766, -0.04800000227987766, 1.0400000493973494, 0.0, 0.0, 0.0, 0.0, 0.0, 1.7622065320877044E9, 0.0, 2025-11-03 16:48:52.087
62.0, 296.5385374366306, -21.72133894264698, 301.28447048040107, 57.05217382404953, -0.04800000227987766, -0.04800000227987766, 1.0400000493973494, 0.0, 0.0, 0.0, 0.0, 0.0, 1.7622065320877044E9, 0.0, 2025-11-03 16:48:52.087
63.0, 214.70578650617972, -89.83239693567157, 227.47380495490506, -2.169141974300146, -0.04800000227987766, -0.04800000227987766, 1.0400000493973494, 0.0, 0.0, 0.0, 0.0, 0.0, 1.762206532088418E9, 0.0, 2025-11-03 16:48:52.088
63.0, 232.9826775896363, -78.27236617263407, 239.21709081577137, 11.174821067601442, -0.04800000227987766, -0.04800000227987766, 1.0400000493973494, 0.0, 0.0, 0.0, 0.0, 0.0, 1.762206532088418E9, 0.0, 2025-11-03 16:48:52.088
64.0, 326.12114608613774, 2.098083875142038, 323.428418118041, 84.87328959442675, -0.04800000227987766, -0.04800000227987766, 1.0400000493973494, 0.0, 0.0, 0.0, 0.0, 0.0, 1.7622065321021783E9, 0.0, 2025-11-03 16:48:52.102
64.0, 249.53173489356413, -54.29960745666176, 259.15823737950996, 36.056375472806394, -0.04800000227987766, -0.04800000227987766, 1.0400000493973494, 0.0, 0.0, 0.0, 0.0, 0.0, 1.7622065321021783E9, 0.0, 2025-11-03 16:48:52.102
65.0, 233.63342018192634, -83.93831460550427, 215.99605199089274, -33.614220801740885, -0.04800000227987766, -0.04800000227987766, 1.0400000493973494, 0.0, 0.0, 0.0, 0.0, 0.0, 1.76220653211782E9, 0.0, 2025-11-03 16:48:52.117
