%OpenBCI Raw EXG Data
%Number of channels = 4
%Sample Rate = 200 Hz
%Board = OpenBCI_GUI$BoardGanglionBLE
Sample Index, EXG Channel 0, EXG Channel 1, EXG Channel 2, EXG Channel 3, Accel Channel 0, Accel Channel 1, Accel Channel 2, Other, Other, Other, Other, Other, Timestamp, Marker Channel, Timestamp (Formatted)
0.0, 240.63077299902216, -61.01459782710299, 247.94788726232946, 22.342162335291505, 0.0, 0.0, 0.0, 0.0, 0.0, 0.0, 0.0, 0.0, 1.7622068215837636E9, 0.0, 2025-11-03 16:53:41.583
1.0, 205.9656403097324, -90.46630997816101, 219.176836903207, -15.038137721829116, 0.0, -0.06400000303983688, 0.0, 0.0, 0.0, 0.0, 0.0, 0.0, 1.7622068215972233E9, 0.0, 2025-11-03 16:53:41.597
1.0, 247.2466560206376, -61.29883022373542, 258.0044782431796, 41.82704110443592, 0.0, -0.06400000303983688, 0.0, 0.0, 0.0, 0.0, 0.0, 0.0, 1.7622068215972233E9, 0.0, 2025-11-03 16:53:41.597
2.0, 323.92956471210346, 5.065694489981979, 326.99441272579134, 137.92377046588808, -0.04800000227987766, -0.06400000303983688, 0.0, 0.0, 0.0, 0.0, 0.0, 0.0, 1.7622068216139417E9, 0.0, 2025-11-03 16:53:41.613
2.0, 183.32054607803002, -126.95277394587174, 165.483093239367, 368.91682127909735, -0.04800000227987766, -0.06400000303983688, 0.0, 0.0, 0.0, 0.0, 0.0, 0.0, 1.7622068216139417E9, 0.0, 2025-11-03 16:53:41.613
3.0, 189.3642244064249, -123.68410138459876, 191.9092263262719, 434.2902725045569, -0.04800000227987766, -0.06400000303983688, 0.0, 0.0, 0.0, 0.0, 0.0, 0.0, 1.7622068216146803E9, 0.0, 2025-11-03 16:53:41.614
3.0, 322.9833700233139, -1.0527818375267088, 326.7849783282727, 585.3784908144735, -0.04800000227987766, -0.06400000303983688, 0.0, 0.0, 0.0, 0.0, 0.0, 0.0, 1.7622068216146803E9, 0.0, 2025-11-03 16:53:41.614
4.0, 198.82617129432037, -105.12671780446544, 202.19395120441914, 464.84899504249915, -0.04800000227987766, -0.06400000303983688, 0.0, 0.0, 0.0, 0.0, 0.0, 0.0, 1.7622068216270535E9, 0.0, 2025-11-03 16:53:41.627
4.0, 189.37918400624767, -111.74260082608089, 200.6119735231623, 458.84645561361685, -0.04800000227987766, -0.06400000303983688, 0.0, 0.0, 0.0, 0.0, 0.0, 0.0, 1.7622068216270535E9, 0.0, 2025-11-03 16:53:41.627
5.0, 313.1362134399824, 1.9428780269809067, 328.8606228036806, 614.426293770317, -0.04800000227987766, -0.06400000303983688, 0.0, 0.0, 0.0, 0.0, 0.0, 0.0, 1.7622068216428113E9, 0.0, 2025-11-03 16:53:41.642
5.0, 255.23508232599124, -58.44528655754402, 252.64894150663167, 503.6990757822059, -0.04800000227987766, -0.06400000303983688, 0.0, 0.0, 0.0, 0.0, 0.0, 0.0, 1.7622068216428113E9, 0.0, 2025-11-03 16:53:41.642
6.0, 179.42357032420114, -134.29045765893534, 155.5947977565229, 383.14714061049744, -0.04800000227987766, -0.06400000303983688, 0.0, 0.0, 0.0, 0.0, 0.0, 0.0, 1.762206821643495E9, 0.0, 2025-11-03 16:53:41.643
6.0, 273.2539203125052, -46.04377830447629, 253.80457059293985, 490.41869103955105, -0.04800000227987766, -0.06400000303983688, 0.0, 0.0, 0.0, 0.0, 0.0, 0.0, 1.762206821643495E9, 0.0, 2025-11-03 16:53:41.643
7.0, 286.69512075325474, -30.306279290933162, 259.6687337234616, 466.5843086219393, -0.04800000227987766, -0.06400000303983688, 0.0, 0.0, 0.0, 0.0, 0.0, 0.0, 1.7622068216572144E9, 0.0, 2025-11-03 16:53:41.657
7.0, 205.2288800184615, -97.61699869344011, 224.00878764595836, 545.3540814886801, -0.04800000227987766, -0.06400000303983688, 0.0, 0.0, 0.0, 0.0, 0.0, 0.0, 1.7622068216572144E9, 0.0, 2025-11-03 16:53:41.657
8.0, 212.0504575376399, -115.56103868084028, 178.47924558538944, 400.44791780551895, -0.04800000227987766, -0.06400000303983688, 0.0, 0.0, 0.0, 0.0, 0.0, 0.0, 1.7622068216731615E9, 0.0, 2025-11-03 16:53:41.673
8.0, 300.95535928430036, -17.751435139682144, 306.4810614688322, 586.9829078954645, -0.04800000227987766, -0.06400000303983688, 0.0, 0.0, 0.0, 0.0, 0.0, 0.0, 1.7622068216731615E9, 0.0, 2025-11-03 16:53:41.673
9.0, 210.58067685505375, -90.67948427563533, 229.4054632820189, 529.1677944804542, -0.04800000227987766, -0.06400000303983688, 0.0, 0.0, 0.0, 0.0, 0.0, 0.0, 1.7622068216735332E9, 0.0, 2025-11-03 16:53:41.673
9.0, 191.12197738559917, -127.06123104458675, 157.22913403715938, 381.28467043256387, -0.04800000227987766, -0.06400000303983688, 0.0, 0.0, 0.0, 0.0, 0.0, 0.0, 1.7622068216735332E9, 0.0, 2025-11-03 16:53:41.673
10.0, 302.6906728637405, -17.227849145885557, 295.1790838027373, 553.3649471937679, -0.04800000227987766, -0.06400000303983688, 1.0400000493973494, 0.0, 0.0, 0.0, 0.0, 0.0, 1.7622068216870513E9, 0.0, 2025-11-03 16:53:41.687
10.0, 243.1365059693344, -71.89770669816062, 225.28035363089293, 437.38690966786817, -0.04800000227987766, -0.06400000303983688, 1.0400000493973494, 0.0, 0.0, 0.0, 0.0, 0.0, 1.7622068216870513E9, 0.0, 2025-11-03 16:53:41.687
11.0, 199.50309318630025, -108.5524661638774, 193.41266610845923, 440.3863094323315, -0.04800000227987766, -0.03200000151991844, 1.0400000493973494, 0.0, 0.0, 0.0, 0.0, 0.0, 1.7622068217028592E9, 0.0, 2025-11-03 16:53:41.702
11.0, 267.2551207835786, -56.49679868062958, 244.8250707993284, 477.3888795939274, -0.04800000227987766, -0.03200000151991844, 1.0400000493973494, 0.0, 0.0, 0.0, 0.0, 0.0, 1.7622068217028592E9, 0.0, 2025-11-03 16:53:41.702
12.0, 302.8589683617465, -1.40807233331725, 330.0087720900774, 623.9144199579023, -0.03200000151991844, -0.03200000151991844, 1.0400000493973494, 0.0, 0.0, 0.0, 0.0, 0.0, 1.7622068217035632E9, 0.0, 2025-11-03 16:53:41.703
12.0, 201.3693032641895, -113.26848000800237, 178.1576141892001, 412.98032255703583, -0.03200000151991844, -0.03200000151991844, 1.0400000493973494, 0.0, 0.0, 0.0, 0.0, 0.0, 1.7622068217035632E9, 0.0, 2025-11-03 16:53:41.703
13.0, 216.65053448313847, -104.22540191514418, 198.14363955240697, 430.008087055292, -0.03200000151991844, -0.03200000151991844, 1.0400000493973494, 0.0, 0.0, 0.0, 0.0, 0.0, 1.7622068217170658E9, 0.0, 2025-11-03 16:53:41.717
13.0, 292.480745984707, -26.988988030236214, 282.41480525396764, 517.5404455182143, -0.03200000151991844, -0.03200000151991844, 1.0400000493973494, 0.0, 0.0, 0.0, 0.0, 0.0, 1.7622068217170658E9, 0.0, 2025-11-03 16:53:41.717
14.0, 219.92668684432283, -81.61022688308731, 241.1487491428852, 538.9102338650264, -0.03200000151991844, -0.03200000151991844, 1.0400000493973494, 0.0, 0.0, 0.0, 0.0, 0.0, 1.7622068217328393E9, 0.0, 2025-11-03 16:53:41.732
14.0, 200.16505547845736, -105.90835689520463, 201.78256220929325, 458.9324733125977, -0.03200000151991844, -0.03200000151991844, 1.0400000493973494, 0.0, 0.0, 0.0, 0.0, 0.0, 1.7622068217328393E9, 0.0, 2025-11-03 16:53:41.732
15.0, 273.87848360510543, -46.38784910039976, 261.48258520197123, 491.12927203113213, -0.03200000151991844, -0.03200000151991844, 1.0400000493973494, 0.0, 0.0, 0.0, 0.0, 0.0, 1.762206821733478E9, 0.0, 2025-11-03 16:53:41.733
15.0, 260.2166290669702, -43.870896430220455, 288.2415693849325, 562.131272689905, -0.03200000151991844, -0.03200000151991844, 1.0400000493973494, 0.0, 0.0, 0.0, 0.0, 0.0, 1.762206821733478E9, 0.0, 2025-11-03 16:53:41.733
16.0, 186.31994584249333, -121.79171200701967, 186.19091929402202, 453.25156527990475, -0.03200000151991844, -0.03200000151991844, 1.0400000493973494, 0.0, 0.0, 0.0, 0.0, 0.0, 1.7622068217470932E9, 0.0, 2025-11-03 16:53:41.747
16.0, 263.68725622585043, -60.25539813609794, 223.06259295716882, 414.68197703687474, -0.03200000151991844, -0.03200000151991844, 1.0400000493973494, 0.0, 0.0, 0.0, 0.0, 0.0, 1.7622068217470932E9, 0.0, 2025-11-03 16:53:41.747
17.0, 300.62624808819965, -14.393004979472607, 292.4078179355711, 533.6818537269719, -0.03200000151991844, -0.03200000151991844, 1.0400000493973494, 0.0, 0.0, 0.0, 0.0, 0.0, 1.762206821762845E9, 0.0, 2025-11-03 16:53:41.762
17.0, 228.14698694692925, -75.92931885039434, 241.2983451411128, 558.6868248307146, -0.03200000151991844, -0.03200000151991844, 1.0400000493973494, 0.0, 0.0, 0.0, 0.0, 0.0, 1.762206821762845E9, 0.0, 2025-11-03 16:53:41.762
18.0, 201.8180912588723, -114.46150809386745, 175.18065382447094, 417.16153070749715, -0.03200000151991844, -0.03200000151991844, 1.0400000493973494, 0.0, 0.0, 0.0, 0.0, 0.0, 1.7622068217634773E9, 0.0, 2025-11-03 16:53:41.763
18.0, 326.03886828711256, 1.7484032292850316, 316.34691755194217, 553.7725962889381, -0.03200000151991844, -0.03200000151991844, 1.0400000493973494, 0.0, 0.0, 0.0, 0.0, 0.0, 1.7622068217634773E9, 0.0, 2025-11-03 16:53:41.763
19.0, 220.15482074161991, -84.50864934874699, 226.30134631879628, 520.0349587886594, -0.03200000151991844, -0.03200000151991844, 1.0400000493973494, 0.0, 0.0, 0.0, 0.0, 0.0, 1.76220682177714E9, 0.0, 2025-11-03 16:53:41.777
19.0, 236.34484764980152, -76.69973824126646, 223.4440627526492, 460.55184999341145, -0.03200000151991844, -0.03200000151991844, 1.0400000493973494, 0.0, 0.0, 0.0, 0.0, 0.0, 1.76220682177714E9, 0.0, 2025-11-03 16:53:41.777
20.0, 290.06851051328704, -22.635744481813163, 293.6494647208601, 547.2165516666137, -0.03200000151991844, -0.03200000151991844, 0.5120000243186951, 0.0, 0.0, 0.0, 0.0, 0.0, 1.7622068217927134E9, 0.0, 2025-11-03 16:53:41.792
20.0, 245.9526506359689, -66.44493256276473, 236.73192729521543, 460.0918422988616, -0.03200000151991844, -0.03200000151991844, 0.5120000243186951, 0.0, 0.0, 0.0, 0.0, 0.0, 1.7622068217927134E9, 0.0, 2025-11-03 16:53:41.792
21.0, 226.7146052639, -92.27642155671492, 230.3703574705869, 495.15714428341016, -0.03200000151991844, -0.04800000227987766, 0.5120000243186951, 0.0, 0.0, 0.0, 0.0, 0.0, 1.7622068217934792E9, 0.0, 2025-11-03 16:53:41.793
21.0, 248.97822970012203, -64.60864168452099, 259.0217310311273, 542.5080176224001, -0.03200000151991844, -0.04800000227987766, 0.5120000243186951, 0.0, 0.0, 0.0, 0.0, 0.0, 1.7622068217934792E9, 0.0, 2025-11-03 16:53:41.793
22.0, 298.9358133082278, -7.406871862243861, 323.3031314695254, 584.5968517237343, -0.04800000227987766, -0.04800000227987766, 0.5120000243186951, 0.0, 0.0, 0.0, 0.0, 0.0, 1.762206821807062E9, 0.0, 2025-11-03 16:53:41.807
22.0, 208.61722937831655, -93.63400524063036, 232.49836054537445, 539.6544739562087, -0.04800000227987766, -0.04800000227987766, 0.5120000243186951, 0.0, 0.0, 0.0, 0.0, 0.0, 1.762206821807062E9, 0.0, 2025-11-03 16:53:41.807
23.0, 209.1146360724233, -111.922116023954, 197.29094236250967, 443.0154591011815, -0.04800000227987766, -0.04800000227987766, 0.5120000243186951, 0.0, 0.0, 0.0, 0.0, 0.0, 1.7622068218228424E9, 0.0, 2025-11-03 16:53:41.822
23.0, 321.18821804458275, 4.519669096451253, 346.55408949404955, 638.0549816903658, -0.04800000227987766, -0.04800000227987766, 0.5120000243186951, 0.0, 0.0, 0.0, 0.0, 0.0, 1.7622068218228424E9, 0.0, 2025-11-03 16:53:41.822
24.0, 202.0424852562137, -98.5818928820081, 229.75701387785375, 498.1341046481393, -0.04800000227987766, -0.04800000227987766, 0.5120000243186951, 0.0, 0.0, 0.0, 0.0, 0.0, 1.7622068218234968E9, 0.0, 2025-11-03 16:53:41.823
24.0, 205.55425131460652, -104.1805231156759, 205.4701035656035, 414.8016538354568, -0.04800000227987766, -0.04800000227987766, 0.5120000243186951, 0.0, 0.0, 0.0, 0.0, 0.0, 1.7622068218234968E9, 0.0, 2025-11-03 16:53:41.823
25.0, 316.41610570112243, 2.5076029202900827, 334.2049398403615, 612.0963360979222, -0.04800000227987766, -0.04800000227987766, 0.5120000243186951, 0.0, 0.0, 0.0, 0.0, 0.0, 1.76220682183705E9, 0.0, 2025-11-03 16:53:41.837
25.0, 266.5968983913772, -38.283485896419734, 279.5089029883966, 567.9991757203825, -0.04800000227987766, -0.04800000227987766, 0.5120000243186951, 0.0, 0.0, 0.0, 0.0, 0.0, 1.76220682183705E9, 0.0, 2025-11-03 16:53:41.837
26.0, 198.66161569627002, -111.86975742457435, 193.19201201107353, 424.23368152370676, -0.04800000227987766, -0.04800000227987766, 0.5120000243186951, 0.0, 0.0, 0.0, 0.0, 0.0, 1.7622068218527248E9, 0.0, 2025-11-03 16:53:41.852
26.0, 283.0075793969445, -45.026525516528636, 268.55473601818085, 557.8229079409502, -0.04800000227987766, -0.04800000227987766, 0.5120000243186951, 0.0, 0.0, 0.0, 0.0, 0.0, 1.7622068218527248E9, 0.0, 2025-11-03 16:53:41.852
27.0, 305.44323923112825, -12.216383205261081, 303.60507840290666, 537.7059860792942, -0.04800000227987766, -0.04800000227987766, 0.5120000243186951, 0.0, 0.0, 0.0, 0.0, 0.0, 1.762206821853523E9, 0.0, 2025-11-03 16:53:41.853
27.0, 217.40599427418783, -84.22067705215886, 222.0266406694427, 479.34484727075323, -0.04800000227987766, -0.04800000227987766, 0.5120000243186951, 0.0, 0.0, 0.0, 0.0, 0.0, 1.762206821853523E9, 0.0, 2025-11-03 16:53:41.853
28.0, 232.81438209163025, -66.6805462599732, 258.9394532321021, 551.891426611226, -0.04800000227987766, -0.04800000227987766, 0.5120000243186951, 0.0, 0.0, 0.0, 0.0, 0.0, 1.7622068218670547E9, 0.0, 2025-11-03 16:53:41.867
28.0, 348.2538740239106, 29.22918810369447, 353.0839548166841, 630.1002144846134, -0.04800000227987766, -0.04800000227987766, 0.5120000243186951, 0.0, 0.0, 0.0, 0.0, 0.0, 1.7622068218670547E9, 0.0, 2025-11-03 16:53:41.867
29.0, 216.65427438309416, -87.94561740802601, 221.5142743755132, 457.8591220253147, -0.04800000227987766, -0.04800000227987766, 0.5120000243186951, 0.0, 0.0, 0.0, 0.0, 0.0, 1.7622068218827212E9, 0.0, 2025-11-03 16:53:41.882
29.0, 195.75945333065465, -114.60736419213936, 184.99041140824556, 450.6448550107889, -0.04800000227987766, -0.04800000227987766, 0.5120000243186951, 0.0, 0.0, 0.0, 0.0, 0.0, 1.7622068218827212E9, 0.0, 2025-11-03 16:53:41.882
30.0, 319.400545865763, -2.8367141163907945, 322.57759087812155, 604.1153895924799, -0.04800000227987766, -0.04800000227987766, 0.7840000372380018, 0.0, 0.0, 0.0, 0.0, 0.0, 1.7622068218834667E9, 0.0, 2025-11-03 16:53:41.883
30.0, 240.2044244040735, -71.01883020857349, 238.45602117478848, 454.51565146492794, -0.04800000227987766, -0.04800000227987766, 0.7840000372380018, 0.0, 0.0, 0.0, 0.0, 0.0, 1.7622068218834667E9, 0.0, 2025-11-03 16:53:41.883
31.0, 188.5900651155971, -127.09115024423227, 182.0097111435607, 445.39777537295595, -0.04800000227987766, -0.04800000227987766, 0.7840000372380018, 0.0, 0.0, 0.0, 0.0, 0.0, 1.762206821897136E9, 0.0, 2025-11-03 16:53:41.897
31.0, 257.5500803985633, -55.920854087453336, 268.4612385192886, 520.016259288881, -0.04800000227987766, -0.04800000227987766, 0.7840000372380018, 0.0, 0.0, 0.0, 0.0, 0.0, 1.762206821897136E9, 0.0, 2025-11-03 16:53:41.897
32.0, 280.28867212915793, -32.90550976013765, 294.4273639116436, 537.7097259792499, -0.04800000227987766, -0.04800000227987766, 0.7840000372380018, 0.0, 0.0, 0.0, 0.0, 0.0, 1.7622068219127312E9, 0.0, 2025-11-03 16:53:41.912
32.0, 183.91145027102903, -123.1118966913782, 182.46971883811057, 452.6419615871273, -0.04800000227987766, -0.04800000227987766, 0.7840000372380018, 0.0, 0.0, 0.0, 0.0, 0.0, 1.7622068219127312E9, 0.0, 2025-11-03 16:53:41.912
33.0, 180.08179271640256, -140.73430528258905, 167.46150031592697, 393.162592691835, -0.04800000227987766, -0.04800000227987766, 0.7840000372380018, 0.0, 0.0, 0.0, 0.0, 0.0, 1.7622068219134662E9, 0.0, 2025-11-03 16:53:41.913
33.0, 317.5081564881839, -11.932150808628649, 302.79352011252195, 572.32250006916, -0.04800000227987766, -0.04800000227987766, 0.7840000372380018, 0.0, 0.0, 0.0, 0.0, 0.0, 1.7622068219134662E9, 0.0, 2025-11-03 16:53:41.913
34.0, 229.82620202703401, -79.7253173054196, 228.9641550872475, 480.11526666162536, -0.04800000227987766, -0.04800000227987766, 0.7840000372380018, 0.0, 0.0, 0.0, 0.0, 0.0, 1.762206821927817E9, 0.0, 2025-11-03 16:53:41.927
34.0, 203.39632904017344, -106.00185439409688, 213.1032393751666, 515.3376444443129, -0.04800000227987766, -0.04800000227987766, 0.7840000372380018, 0.0, 0.0, 0.0, 0.0, 0.0, 1.762206821927817E9, 0.0, 2025-11-03 16:53:41.927
35.0, 290.13582871248946, -50.61019615037367, 226.68281611427665, 401.19215789670125, -0.04800000227987766, -0.04800000227987766, 0.7840000372380018, 0.0, 0.0, 0.0, 0.0, 0.0, 1.7622068219427173E9, 0.0, 2025-11-03 16:53:41.942
35.0, 250.8818387775682, -67.21535195363685, 238.5569984735921, 491.00959523255005, -0.04800000227987766, -0.04800000227987766, 0.7840000372380018, 0.0, 0.0, 0.0, 0.0, 0.0, 1.7622068219427173E9, 0.0, 2025-11-03 16:53:41.942
36.0, 188.48908781679347, -128.86760272318497, 185.3868408035487, 458.5285641173832, -0.04800000227987766, -0.04800000227987766, 0.7840000372380018, 0.0, 0.0, 0.0, 0.0, 0.0, 1.7622068219438484E9, 0.0, 2025-11-03 16:53:41.943
36.0, 302.1633469699882, -26.854351631831378, 285.85177331324667, 567.3559129280038, -0.04800000227987766, -0.04800000227987766, 0.7840000372380018, 0.0, 0.0, 0.0, 0.0, 0.0, 1.7622068219438484E9, 0.0, 2025-11-03 16:53:41.943
37.0, 281.216167318169, -38.02169289952144, 262.62699458841234, 456.40804084250703, -0.04800000227987766, -0.04800000227987766, 0.7840000372380018, 0.0, 0.0, 0.0, 0.0, 0.0, 1.7622068219571056E9, 0.0, 2025-11-03 16:53:41.957
37.0, 176.3643321604468, -125.10526336776093, 192.70208511687815, 475.440391717013, -0.04800000227987766, -0.04800000227987766, 0.7840000372380018, 0.0, 0.0, 0.0, 0.0, 0.0, 1.7622068219571056E9, 0.0, 2025-11-03 16:53:41.957
38.0, 240.12214660504833, -67.08445545518771, 253.99904539063573, 566.2937813405879, -0.04800000227987766, -0.04800000227987766, 0.7840000372380018, 0.0, 0.0, 0.0, 0.0, 0.0, 1.7622068219728684E9, 0.0, 2025-11-03 16:53:41.972
38.0, 323.3910191184841, 2.4702039207331836, 313.0819848906249, 523.7598991445266, -0.04800000227987766, -0.04800000227987766, 0.7840000372380018, 0.0, 0.0, 0.0, 0.0, 0.0, 1.7622068219728684E9, 0.0, 2025-11-03 16:53:41.972
39.0, 225.85816817404702, -74.13790677161887, 230.08612507395446, 459.3550820075907, -0.04800000227987766, -0.04800000227987766, 0.7840000372380018, 0.0, 0.0, 0.0, 0.0, 0.0, 1.7622068219734733E9, 0.0, 2025-11-03 16:53:41.973
39.0, 190.79286618949845, -121.21202751388773, 164.73885314818472, 385.5631159818731, -0.04800000227987766, -0.04800000227987766, 0.7840000372380018, 0.0, 0.0, 0.0, 0.0, 0.0, 1.7622068219734733E9, 0.0, 2025-11-03 16:53:41.973
40.0, 309.1345204873942, -10.769041922409087, 315.7522734589875, 584.0919652297162, -0.04800000227987766, -0.04800000227987766, 0.9120000433176756, 0.0, 0.0, 0.0, 0.0, 0.0, 1.7622068219872887E9, 0.0, 2025-11-03 16:53:41.987
40.0, 267.46081528114155, -46.238253102172166, 268.21440512221307, 528.603069587145, -0.04800000227987766, -0.04800000227987766, 0.9120000433176756, 0.0, 0.0, 0.0, 0.0, 0.0, 1.7622068219872887E9, 0.0, 2025-11-03 16:53:41.987
41.0, 214.69082690635696, -97.15699099889025, 216.9927353290841, 503.46720198495314, -0.04800000227987766, -0.04800000227987766, 0.9120000433176756, 0.0, 0.0, 0.0, 0.0, 0.0, 1.7622068220027385E9, 0.0, 2025-11-03 16:53:42.002
41.0, 223.94707929668948, -96.71568280411884, 223.97886844631284, 474.9504648228176, -0.04800000227987766, -0.04800000227987766, 0.9120000433176756, 0.0, 0.0, 0.0, 0.0, 0.0, 1.7622068220027385E9, 0.0, 2025-11-03 16:53:42.002
42.0, 271.1782758370973, -55.38978829374537, 242.17348173074424, 477.9573443871923, -0.04800000227987766, -0.04800000227987766, 0.9120000433176756, 0.0, 0.0, 0.0, 0.0, 0.0, 1.7622068220034842E9, 0.0, 2025-11-03 16:53:42.003
42.0, 188.08891852153465, -125.93552115792409, 189.725124752149, 472.5307495514862, -0.04800000227987766, -0.04800000227987766, 0.9120000433176756, 0.0, 0.0, 0.0, 0.0, 0.0, 1.7622068220034842E9, 0.0, 2025-11-03 16:53:42.003
43.0, 212.1888338360004, -104.10946501651779, 209.74106931500137, 464.73679804382846, -0.04800000227987766, -0.04800000227987766, 0.9120000433176756, 0.0, 0.0, 0.0, 0.0, 0.0, 1.7622068220170548E9, 0.0, 2025-11-03 16:53:42.017
43.0, 332.89410490589216, 10.208056929055601, 337.8999609965831, 597.204054474365, -0.04800000227987766, -0.04800000227987766, 0.9120000433176756, 0.0, 0.0, 0.0, 0.0, 0.0, 1.7622068220170548E9, 0.0, 2025-11-03 16:53:42.017
44.0, 221.59468222456053, -93.11415914678946, 211.62971879262477, 446.76283885678276, -0.04800000227987766, -0.04800000227987766, 0.9120000433176756, 0.0, 0.0, 0.0, 0.0, 0.0, 1.7622068220328953E9, 0.0, 2025-11-03 16:53:42.032
44.0, 196.34661762369797, -123.47840688703582, 176.58685620781034, 417.3634853051044, -0.04800000227987766, -0.04800000227987766, 0.9120000433176756, 0.0, 0.0, 0.0, 0.0, 0.0, 1.7622068220328953E9, 0.0, 2025-11-03 16:53:42.032
45.0, 293.44190027331933, -28.80283950874582, 296.42073058802634, 553.9895104863681, -0.04800000227987766, -0.04800000227987766, 0.9120000433176756, 0.0, 0.0, 0.0, 0.0, 0.0, 1.7622068220334916E9, 0.0, 2025-11-03 16:53:42.033
45.0, 263.1898495317437, -50.77849164837971, 254.3468560865149, 509.13689031777903, -0.04800000227987766, -0.04800000227987766, 0.9120000433176756, 0.0, 0.0, 0.0, 0.0, 0.0, 1.7622068220334916E9, 0.0, 2025-11-03 16:53:42.033
46.0, 188.7060020142235, -134.5971294553019, 156.64570964407176, 398.8360209246166, -0.04800000227987766, -0.04800000227987766, 0.9120000433176756, 0.0, 0.0, 0.0, 0.0, 0.0, 1.7622068220470614E9, 0.0, 2025-11-03 16:53:42.047
46.0, 262.7784605366178, -63.36325499927625, 253.20992649998516, 536.3745816950686, -0.04800000227987766, -0.04800000227987766, 0.9120000433176756, 0.0, 0.0, 0.0, 0.0, 0.0, 1.7622068220470614E9, 0.0, 2025-11-03 16:53:42.047
47.0, 294.2721580634825, -28.36153131397441, 283.387179242447, 551.7006917134859, -0.04800000227987766, -0.04800000227987766, 0.9120000433176756, 0.0, 0.0, 0.0, 0.0, 0.0, 1.762206822062894E9, 0.0, 2025-11-03 16:53:42.062
47.0, 187.64761032676324, -127.46140033984557, 167.8167908117175, 387.5041240588762, -0.04800000227987766, -0.04800000227987766, 0.9120000433176756, 0.0, 0.0, 0.0, 0.0, 0.0, 1.762206822062894E9, 0.0, 2025-11-03 16:53:42.062
48.0, 216.87492848047987, -102.72944193286821, 193.17331251129508, 423.52684043208137, -0.04800000227987766, -0.04800000227987766, 0.9120000433176756, 0.0, 0.0, 0.0, 0.0, 0.0, 1.7622068220634944E9, 0.0, 2025-11-03 16:53:42.063
48.0, 336.57042656233534, 3.82030780473724, 318.9611076209694, 583.2093488401733, -0.04800000227987766, -0.04800000227987766, 0.9120000433176756, 0.0, 0.0, 0.0, 0.0, 0.0, 1.7622068220634944E9, 0.0, 2025-11-03 16:53:42.063
49.0, 201.62735636113212, -110.41867624176666, 182.59687543660402, 397.6841317382641, -0.04800000227987766, -0.04800000227987766, 0.9120000433176756, 0.0, 0.0, 0.0, 0.0, 0.0, 1.7622068220773232E9, 0.0, 2025-11-03 16:53:42.077
49.0, 207.27460529422387, -107.8082260726951, 188.9023467618972, 418.103985496331, -0.04800000227987766, -0.04800000227987766, 0.9120000433176756, 0.0, 0.0, 0.0, 0.0, 0.0, 1.7622068220773232E9, 0.0, 2025-11-03 16:53:42.077
50.0, 300.40559399081394, -25.706202345434576, 289.1316655743867, 543.0054243165068, -0.04800000227987766, -0.04800000227987766, 0.9760000463575125, 0.0, 0.0, 0.0, 0.0, 0.0, 1.7622068220927887E9, 0.0, 2025-11-03 16:53:42.092
50.0, 250.68362407991663, -57.79828386520967, 244.79141169972718, 481.3157745474018, -0.04800000227987766, -0.04800000227987766, 0.9760000463575125, 0.0, 0.0, 0.0, 0.0, 0.0, 1.7622068220927887E9, 0.0, 2025-11-03 16:53:42.092
51.0, 215.9736125911586, -91.59949966473505, 215.05920705199242, 459.51963760564104, -0.04800000227987766, -0.04800000227987766, 0.9760000463575125, 0.0, 0.0, 0.0, 0.0, 0.0, 1.7622068220934727E9, 0.0, 2025-11-03 16:53:42.093
51.0, 260.556959962938, -59.971165739465505, 255.95501306746155, 498.04434704920277, -0.04800000227987766, -0.04800000227987766, 0.9760000463575125, 0.0, 0.0, 0.0, 0.0, 0.0, 1.7622068220934727E9, 0.0, 2025-11-03 16:53:42.093
52.0, 289.62720231851563, -28.170796416234225, 294.44980331137776, 565.4448240506463, -0.04800000227987766, -0.04800000227987766, 0.9760000463575125, 0.0, 0.0, 0.0, 0.0, 0.0, 1.7622068221071415E9, 0.0, 2025-11-03 16:53:42.107
52.0, 181.25986120244488, -126.64610214950517, 190.03179654851556, 437.87309666210786, -0.04800000227987766, -0.04800000227987766, 0.9760000463575125, 0.0, 0.0, 0.0, 0.0, 0.0, 1.7622068221071415E9, 0.0, 2025-11-03 16:53:42.107
53.0, 221.8228161218576, -90.92631767271087, 222.59884536266327, 483.41385842254385, -0.04800000227987766, -0.04800000227987766, 0.9760000463575125, 0.0, 0.0, 0.0, 0.0, 0.0, 1.7622068221230216E9, 0.0, 2025-11-03 16:53:42.123
53.0, 325.6087797922082, -3.539815308060497, 298.63849126175046, 523.9730734420009, -0.04800000227987766, -0.04800000227987766, 0.9760000463575125, 0.0, 0.0, 0.0, 0.0, 0.0, 1.7622068221230216E9, 0.0, 2025-11-03 16:53:42.123
54.0, 196.69068841962144, -113.87060390086845, 189.4633317552507, 446.47112666023895, -0.04800000227987766, -0.04800000227987766, 0.9760000463575125, 0.0, 0.0, 0.0, 0.0, 0.0, 1.7622068221235092E9, 0.0, 2025-11-03 16:53:42.123
54.0, 199.58911088528112, -121.63837610883638, 185.40180040337145, 445.88022246723995, -0.04800000227987766, -0.04800000227987766, 0.9760000463575125, 0.0, 0.0, 0.0, 0.0, 0.0, 1.7622068221235092E9, 0.0, 2025-11-03 16:53:42.123
55.0, 306.6549668167718, -25.50050784787163, 277.163985716179, 519.4702338953502, -0.04800000227987766, -0.04800000227987766, 0.9760000463575125, 0.0, 0.0, 0.0, 0.0, 0.0, 1.7622068221370428E9, 0.0, 2025-11-03 16:53:42.137
55.0, 234.95734476624057, -74.71385136479512, 236.93388189282268, 489.7268095477484, -0.04800000227987766, -0.04800000227987766, 0.9760000463575125, 0.0, 0.0, 0.0, 0.0, 0.0, 1.7622068221370428E9, 0.0, 2025-11-03 16:53:42.137
56.0, 203.2280335421674, -111.97073472337797, 196.06799507699907, 469.4266325882636, -0.04800000227987766, -0.04800000227987766, 0.9760000463575125, 0.0, 0.0, 0.0, 0.0, 0.0, 1.7622068221527843E9, 0.0, 2025-11-03 16:53:42.152
56.0, 262.1389376441948, -70.28206991730258, 239.68270836025476, 491.16293113073334, -0.04800000227987766, -0.04800000227987766, 0.9760000463575125, 0.0, 0.0, 0.0, 0.0, 0.0, 1.7622068221527843E9, 0.0, 2025-11-03 16:53:42.152
57.0, 302.00253127189353, -26.83191223209724, 279.8454939844087, 519.0775444000028, -0.04800000227987766, -0.04800000227987766, 0.9760000463575125, 0.0, 0.0, 0.0, 0.0, 0.0, 1.7622068221535008E9, 0.0, 2025-11-03 16:53:42.153
57.0, 210.53579805558547, -98.60807218169793, 200.27164262719452, 462.4666787707247, -0.04800000227987766, -0.04800000227987766, 0.9760000463575125, 0.0, 0.0, 0.0, 0.0, 0.0, 1.7622068221535008E9, 0.0, 2025-11-03 16:53:42.153
58.0, 219.33952255127952, -99.96191596565768, 188.2740435693413, 413.2869943534024, -0.04800000227987766, -0.04800000227987766, 0.9760000463575125, 0.0, 0.0, 0.0, 0.0, 0.0, 1.7622068221670864E9, 0.0, 2025-11-03 16:53:42.167
58.0, 346.3951437459327, 15.10358597105369, 323.9314346620813, 561.5702876965515, -0.04800000227987766, -0.04800000227987766, 0.9760000463575125, 0.0, 0.0, 0.0, 0.0, 0.0, 1.7622068221670864E9, 0.0, 2025-11-03 16:53:42.167
59.0, 199.42081538727507, -111.17787593277171, 184.05917631927878, 421.23428175924346, -0.04800000227987766, -0.04800000227987766, 0.9760000463575125, 0.0, 0.0, 0.0, 0.0, 0.0, 1.7622068221827793E9, 0.0, 2025-11-03 16:53:42.182
59.0, 206.6388223017566, -105.48948810016736, 195.65660608187318, 457.2756976322271, -0.04800000227987766, -0.04800000227987766, 0.9760000463575125, 0.0, 0.0, 0.0, 0.0, 0.0, 1.7622068221827793E9, 0.0, 2025-11-03 16:53:42.182
60.0, 327.22815647302195, -5.473343585152179, 290.34339316003025, 514.2605532570742, -0.04800000227987766, -0.04800000227987766, 1.008000047877431, 0.0, 0.0, 0.0, 0.0, 0.0, 1.762206822183479E9, 0.0, 2025-11-03 16:53:42.183
60.0, 230.30116932140663, -84.14587905304506, 239.3012385647744, 528.3674558899365, -0.04800000227987766, -0.04800000227987766, 1.008000047877431, 0.0, 0.0, 0.0, 0.0, 0.0, 1.762206822183479E9, 0.0, 2025-11-03 16:53:42.183
61.0, 180.47448221175, -131.22373969526961, 178.62136178370565, 422.5956053431146, -0.04800000227987766, -0.04800000227987766, 1.008000047877431, 0.0, 0.0, 0.0, 0.0, 0.0, 1.7622068221973317E9, 0.0, 2025-11-03 16:53:42.197
61.0, 269.16994956089184, -52.61852242657915, 249.08855674881488, 491.00959523255005, -0.04800000227987766, -0.04800000227987766, 1.008000047877431, 0.0, 0.0, 0.0, 0.0, 0.0, 1.7622068221973317E9, 0.0, 2025-11-03 16:53:42.197
62.0, 311.1652861633338, -6.441977673675865, 303.08149240911007, 549.5614689388312, -0.04800000227987766, -0.04800000227987766, 1.008000047877431, 0.0, 0.0, 0.0, 0.0, 0.0, 1.7622068222128644E9, 0.0, 2025-11-03 16:53:42.212
62.0, 203.73292003618553, -106.52170048793778, 198.10624055285007, 432.38666342711076, -0.04800000227987766, -0.04800000227987766, 1.008000047877431, 0.0, 0.0, 0.0, 0.0, 0.0, 1.7622068222128644E9, 0.0, 2025-11-03 16:53:42.212
63.0, 207.85054988740012, -112.7037551146932, 186.5013309903443, 437.4168288675137, -0.04800000227987766, -0.04800000227987766, 1.008000047877431, 0.0, 0.0, 0.0, 0.0, 0.0, 1.7622068222135382E9, 0.0, 2025-11-03 16:53:42.213
63.0, 352.6669559716247, 22.39639088464901, 328.7858248045668, 582.9849548428319, -0.04800000227987766, -0.04800000227987766, 1.008000047877431, 0.0, 0.0, 0.0, 0.0, 0.0, 1.7622068222135382E9, 0.0, 2025-11-03 16:53:42.213
64.0, 220.5325506371446, -87.12657931772992, 210.44043060671538, 457.3841547309421, -0.04800000227987766, -0.04800000227987766, 1.008000047877431, 0.0, 0.0, 0.0, 0.0, 0.0, 1.7622068222271233E9, 0.0, 2025-11-03 16:53:42.227
64.0, 217.2339588762261, -93.33107334421948, 214.51692155841738, 484.3263940117322, -0.04800000227987766, -0.04800000227987766, 1.008000047877431, 0.0, 0.0, 0.0, 0.0, 0.0, 1.7622068222271233E9, 0.0, 2025-11-03 16:53:42.227
65.0, 315.33901451388374, -18.622831829357892, 289.0606074752286, 558.1669787368737, -0.04800000227987766, -0.04800000227987766, 1.008000047877431, 0.0, 0.0, 0.0, 0.0, 0.0, 1.7622068222427864E9, 0.0, 2025-11-03 16:53:42.242
65.0, 281.64625581307337, -37.789819102268666, 263.2403381811455, 501.2270019114949, -0.04800000227987766, -0.04800000227987766, 1.008000047877431, 0.0, 0.0, 0.0, 0.0, 0.0, 1.7622068222427864E9, 0.0, 2025-11-03 16:53:42.242
66.0, 198.2988454005681, -116.12202367419377, 185.08016900718212, 437.3756899680011, -0.04800000227987766, -0.04800000227987766, 1.008000047877431, 0.0, 0.0, 0.0, 0.0, 0.0, 1.762206822243499E9, 0.0, 2025-11-03 16:53:42.243
66.0, 260.2540280665271, -63.35951509932056, 247.90674836281687, 508.7703801221214, -0.04800000227987766, -0.04800000227987766, 1.008000047877431, 0.0, 0.0, 0.0, 0.0, 0.0, 1.762206822243499E9, 0.0, 2025-11-03 16:53:42.243
67.0, 289.53744471957907, -40.254413173068315, 257.43601344991475, 475.14493962051347, -0.04800000227987766, -0.04800000227987766, 1.008000047877431, 0.0, 0.0, 0.0, 0.0, 0.0, 1.7622068222570708E9, 0.0, 2025-11-03 16:53:42.257
67.0, 187.82712552463636, -130.56925720302388, 168.46379350405186, 418.16382389562204, -0.04800000227987766, -0.04800000227987766, 1.008000047877431, 0.0, 0.0, 0.0, 0.0, 0.0, 1.7622068222570708E9, 0.0, 2025-11-03 16:53:42.257
68.0, 216.3102035871707, -106.8844707836397, 188.61811436526477, 426.61225789552554, -0.04800000227987766, -0.04800000227987766, 1.008000047877431, 0.0, 0.0, 0.0, 0.0, 0.0, 1.7622068222727864E9, 0.0, 2025-11-03 16:53:42.272
68.0, 333.2905343011953, 0.4992766440846026, 315.01925306767225, 572.9433234618045, -0.04800000227987766, -0.04800000227987766, 1.008000047877431, 0.0, 0.0, 0.0, 0.0, 0.0, 1.7622068222727864E9, 0.0, 2025-11-03 16:53:42.272
69.0, 214.11488231318071, -95.00280862441286, 214.14667146280408, 478.6492258789949, -0.04800000227987766, -0.04800000227987766, 1.008000047877431, 0.0, 0.0, 0.0, 0.0, 0.0, 1.762206822273502E9, 0.0, 2025-11-03 16:53:42.273
69.0, 189.4801613050513, -131.9380605868064, 167.13238911982626, 386.07174237584695, -0.04800000227987766, -0.04800000227987766, 1.008000047877431, 0.0, 0.0, 0.0, 0.0, 0.0, 1.762206822273502E9, 0.0, 2025-11-03 16:53:42.273
70.0, 296.20942624052987, -42.49461324652657, 258.03439744282514, 487.89425856946036, -0.04800000227987766, -0.04800000227987766, 1.0240000486373901, 0.0, 0.0, 0.0, 0.0, 0.0, 1.7622068222873712E9, 0.0, 2025-11-03 16:53:42.287
70.0, 277.296752164606, -36.06198532273993, 279.4228852894157, 560.5455551086925, -0.04800000227987766, -0.04800000227987766, 1.0240000486373901, 0.0, 0.0, 0.0, 0.0, 0.0, 1.7622068222873712E9, 0.0, 2025-11-03 16:53:42.287
71.0, 217.86974186869338, -94.77467472711578, 200.1744052283466, 428.6318038715981, -0.04800000227987766, -0.04800000227987766, 1.0240000486373901, 0.0, 0.0, 0.0, 0.0, 0.0, 1.7622068223027632E9, 0.0, 2025-11-03 16:53:42.302
71.0, 264.22954171942547, -55.4159675934352, 241.14126934297383, 468.14758680341765, -0.04800000227987766, -0.04800000227987766, 1.0240000486373901, 0.0, 0.0, 0.0, 0.0, 0.0, 1.7622068223027632E9, 0.0, 2025-11-03 16:53:42.302
72.0, 320.78056894941255, 0.7124509415589273, 309.35330463480204, 545.0623692921363, -0.04800000227987766, -0.04800000227987766, 1.0240000486373901, 0.0, 0.0, 0.0, 0.0, 0.0, 1.7622068223034806E9, 0.0, 2025-11-03 16:53:42.303
72.0, 203.69552103662863, -108.82921876059845, 188.44233906734735, 430.7523271464743, -0.04800000227987766, -0.04800000227987766, 1.0240000486373901, 0.0, 0.0, 0.0, 0.0, 0.0, 1.7622068223034806E9, 0.0, 2025-11-03 16:53:42.303
73.0, 232.48527089552954, -89.25084249256179, 215.2910808492452, 473.136613344308, -0.04800000227987766, -0.04800000227987766, 1.0240000486373901, 0.0, 0.0, 0.0, 0.0, 0.0, 1.7622068223170848E9, 0.0, 2025-11-03 16:53:42.317
73.0, 343.3022464825772, 16.113358959089965, 320.16535540670156, 561.1401992016472, -0.04800000227987766, -0.04800000227987766, 1.0240000486373901, 0.0, 0.0, 0.0, 0.0, 0.0, 1.7622068223170848E9, 0.0, 2025-11-03 16:53:42.317
74.0, 207.0389915970154, -101.16990365134552, 198.92527864314616, 460.267617596779, -0.04800000227987766, -0.04800000227987766, 1.0240000486373901, 0.0, 0.0, 0.0, 0.0, 0.0, 1.7622068223328874E9, 0.0, 2025-11-03 16:53:42.332
74.0, 187.9580220230855, -129.06207752088085, 167.8167908117175, 391.00093051744625, -0.04800000227987766, -0.04800000227987766, 1.0240000486373901, 0.0, 0.0, 0.0, 0.0, 0.0, 1.7622068223328874E9, 0.0, 2025-11-03 16:53:42.332
75.0, 313.9552515302785, -15.556113865692168, 298.4814154636115, 540.5632696454413, -0.04800000227987766, -0.04800000227987766, 1.0240000486373901, 0.0, 0.0, 0.0, 0.0, 0.0, 1.7622068223335192E9, 0.0, 2025-11-03 16:53:42.333
75.0, 252.04494766378775, -58.733258854132146, 253.18000730033964, 512.2447471809573, -0.04800000227987766, -0.04800000227987766, 1.0240000486373901, 0.0, 0.0, 0.0, 0.0, 0.0, 1.7622068223335192E9, 0.0, 2025-11-03 16:53:42.333
76.0, 197.0347592155449, -118.17148884991184, 177.0880028018728, 412.628771961201, -0.04800000227987766, -0.04800000227987766, 1.0240000486373901, 0.0, 0.0, 0.0, 0.0, 0.0, 1.762206822347081E9, 0.0, 2025-11-03 16:53:42.347
76.0, 274.83589799376205, -53.987325810361654, 251.42225432116538, 508.1084178299643, -0.04800000227987766, -0.04800000227987766, 1.0240000486373901, 0.0, 0.0, 0.0, 0.0, 0.0, 1.762206822347081E9, 0.0, 2025-11-03 16:53:42.347
77.0, 315.9411384067498, -10.129519029986113, 304.8953438876197, 582.2182753519155, -0.04800000227987766, -0.04800000227987766, 1.0240000486373901, 0.0, 0.0, 0.0, 0.0, 0.0, 1.7622068223628905E9, 0.0, 2025-11-03 16:53:42.362
77.0, 199.62650988483801, -114.19223529705778, 185.07642910722643, 414.401484540198, -0.04800000227987766, -0.04800000227987766, 1.0240000486373901, 0.0, 0.0, 0.0, 0.0, 0.0, 1.7622068223628905E9, 0.0, 2025-11-03 16:53:42.362
78.0, 221.02621743129566, -100.55282015865669, 207.18671764526516, 466.56186922220513, -0.04800000227987766, -0.04800000227987766, 1.0240000486373901, 0.0, 0.0, 0.0, 0.0, 0.0, 1.7622068223634956E9, 0.0, 2025-11-03 16:53:42.363
78.0, 323.8435470131226, -4.0035629025660455, 304.9551822869107, 529.9157744715922, -0.04800000227987766, -0.04800000227987766, 1.0240000486373901, 0.0, 0.0, 0.0, 0.0, 0.0, 1.7622068223634956E9, 0.0, 2025-11-03 16:53:42.363
79.0, 210.14684846019372, -100.16387056326494, 210.71344330348074, 457.9376599243842, -0.04800000227987766, -0.04800000227987766, 1.0240000486373901, 0.0, 0.0, 0.0, 0.0, 0.0, 1.7622068223772268E9, 0.0, 2025-11-03 16:53:42.377
79.0, 228.2404844458215, -87.8035012097098, 231.47362795751542, 504.79486646922305, -0.04800000227987766, -0.04800000227987766, 1.0240000486373901, 0.0, 0.0, 0.0, 0.0, 0.0, 1.7622068223772268E9, 0.0, 2025-11-03 16:53:42.377
80.0, 305.9144666255452, -26.095151940826327, 269.10824121162295, 495.2132427827455, -0.04800000227987766, -0.04800000227987766, 1.0400000493973494, 0.0, 0.0, 0.0, 0.0, 0.0, 1.7622068223927605E9, 0.0, 2025-11-03 16:53:42.392
80.0, 259.2143358788453, -60.752804830204695, 243.47496691532433, 495.12348518380895, -0.04800000227987766, -0.04800000227987766, 1.0400000493973494, 0.0, 0.0, 0.0, 0.0, 0.0, 1.7622068223927605E9, 0.0, 2025-11-03 16:53:42.392
81.0, 198.21656760154292, -118.36222374765202, 179.7134125707671, 424.30847952282056, -0.04800000227987766, -0.04800000227987766, 1.0400000493973494, 0.0, 0.0, 0.0, 0.0, 0.0, 1.762206822393483E9, 0.0, 2025-11-03 16:53:42.393
81.0, 253.05098075186834, -70.33442851668224, 230.87524396460503, 475.1636391202919, -0.04800000227987766, -0.04800000227987766, 1.0400000493973494, 0.0, 0.0, 0.0, 0.0, 0.0, 1.762206822393483E9, 0.0, 2025-11-03 16:53:42.393
82.0, 302.1970060695894, -23.12941127596423, 294.71533620823175, 546.3152357772924, -0.04800000227987766, -0.04800000227987766, 1.0400000493973494, 0.0, 0.0, 0.0, 0.0, 0.0, 1.7622068224070692E9, 0.0, 2025-11-03 16:53:42.407
82.0, 196.29051912436262, -113.62377050379291, 186.69206588808447, 441.9757669134997, -0.04800000227987766, -0.04800000227987766, 1.0400000493973494, 0.0, 0.0, 0.0, 0.0, 0.0, 1.7622068224070692E9, 0.0, 2025-11-03 16:53:42.407
83.0, 240.30914160283282, -76.21729114698246, 221.03930708114058, 462.3507418720983, -0.04800000227987766, -0.04800000227987766, 1.0400000493973494, 0.0, 0.0, 0.0, 0.0, 0.0, 1.7622068224227395E9, 0.0, 2025-11-03 16:53:42.422
83.0, 319.85307376040146, -13.170057693962008, 296.71992258448154, 530.0092719704844, -0.04800000227987766, -0.04800000227987766, 1.0400000493973494, 0.0, 0.0, 0.0, 0.0, 0.0, 1.7622068224227395E9, 0.0, 2025-11-03 16:53:42.422
84.0, 204.60431672586128, -107.32577897841111, 198.14737945236266, 442.8621232029982, -0.04800000227987766, -0.04800000227987766, 1.0400000493973494, 0.0, 0.0, 0.0, 0.0, 0.0, 1.7622068224234953E9, 0.0, 2025-11-03 16:53:42.423
84.0, 192.34866457106546, -115.8864099769853, 188.2329046698287, 429.76125365821645, -0.04800000227987766, -0.04800000227987766, 1.0400000493973494, 0.0, 0.0, 0.0, 0.0, 0.0, 1.7622068224234953E9, 0.0, 2025-11-03 16:53:42.423
85.0, 324.04924151068553, -4.721623694058508, 304.1511037964374, 545.4662784873508, -0.04800000227987766, -0.04800000227987766, 1.0400000493973494, 0.0, 0.0, 0.0, 0.0, 0.0, 1.7622068224371676E9, 0.0, 2025-11-03 16:53:42.437
85.0, 265.68810270214453, -49.57798376260325, 257.5033316491172, 504.09176527755335, -0.04800000227987766, -0.04800000227987766, 1.0400000493973494, 0.0, 0.0, 0.0, 0.0, 0.0, 1.7622068224371676E9, 0.0, 2025-11-03 16:53:42.437
86.0, 171.9138512131758, -132.81693707639351, 175.2704114234075, 418.01796779735014, -0.04800000227987766, -0.04800000227987766, 1.0400000493973494, 0.0, 0.0, 0.0, 0.0, 0.0, 1.7622068224527738E9, 0.0, 2025-11-03 16:53:42.452
86.0, 247.99463601177558, -72.32031539315358, 241.75835283566266, 486.8059476823546, -0.04800000227987766, -0.04800000227987766, 1.0400000493973494, 0.0, 0.0, 0.0, 0.0, 0.0, 1.7622068224527738E9, 0.0, 2025-11-03 16:53:42.452
87.0, 296.32536313915625, -20.27586760977283, 295.71014959644526, 534.5083716171794, -0.04800000227987766, -0.04800000227987766, 1.0400000493973494, 0.0, 0.0, 0.0, 0.0, 0.0, 1.7622068224537585E9, 0.0, 2025-11-03 16:53:42.453
87.0, 206.94175419816747, -105.63908409839496, 197.92672535497695, 442.65642870543525, -0.04800000227987766, -0.04800000227987766, 1.0400000493973494, 0.0, 0.0, 0.0, 0.0, 0.0, 1.7622068224537585E9, 0.0, 2025-11-03 16:53:42.453
88.0, 234.5384759712033, -82.73967666970566, 229.27830668352544, 480.85576685285196, -0.04800000227987766, -0.04800000227987766, 1.0400000493973494, 0.0, 0.0, 0.0, 0.0, 0.0, 1.762206822467136E9, 0.0, 2025-11-03 16:53:42.467
88.0, 319.4977832646109, -7.234836464282125, 301.4321965286508, 543.1662400146015, -0.04800000227987766, -0.04800000227987766, 1.0400000493973494, 0.0, 0.0, 0.0, 0.0, 0.0, 1.762206822467136E9, 0.0, 2025-11-03 16:53:42.467
89.0, 207.2297264947556, -98.32757968502119, 204.89789887238294, 449.1152359289117, -0.04800000227987766, -0.04800000227987766, 1.0400000493973494, 0.0, 0.0, 0.0, 0.0, 0.0, 1.762206822482842E9, 0.0, 2025-11-03 16:53:42.482
89.0, 226.81184266274795, -95.76200831541792, 214.10927246324718, 451.54617090011016, -0.04800000227987766, -0.04800000227987766, 1.0400000493973494, 0.0, 0.0, 0.0, 0.0, 0.0, 1.762206822482842E9, 0.0, 2025-11-03 16:53:42.482
90.0, 322.138152633328, -15.06618697149679, 299.34159245342016, 537.6798067796044, -0.04800000227987766, -0.04800000227987766, 1.0400000493973494, 0.0, 0.0, 0.0, 0.0, 0.0, 1.7622068224834893E9, 0.0, 2025-11-03 16:53:42.483
90.0, 241.50964948860928, -69.66124652465805, 243.4899265151471, 490.3551127403043, -0.04800000227987766, -0.04800000227987766, 1.0400000493973494, 0.0, 0.0, 0.0, 0.0, 0.0, 1.7622068224834893E9, 0.0, 2025-11-03 16:53:42.483
91.0, 218.83837595721707, -94.72605602769181, 210.30205430835485, 453.2665248797275, -0.04800000227987766, -0.04800000227987766, 1.0400000493973494, 0.0, 0.0, 0.0, 0.0, 0.0, 1.7622068224971972E9, 0.0, 2025-11-03 16:53:42.497
91.0, 285.1505420715548, -37.842177701648325, 266.21355864591897, 511.4032696909271, -0.04800000227987766, -0.04800000227987766, 1.0400000493973494, 0.0, 0.0, 0.0, 0.0, 0.0, 1.7622068224971972E9, 0.0, 2025-11-03 16:53:42.497
92.0, 296.91252743219957, -24.098045364487916, 284.2510961322114, 526.3890488133766, -0.04800000227987766, -0.04800000227987766, 1.0400000493973494, 0.0, 0.0, 0.0, 0.0, 0.0, 1.7622068225127635E9, 0.0, 2025-11-03 16:53:42.512
92.0, 193.32477845950052, -122.83514409465715, 177.712566094473, 425.1125580132939, -0.04800000227987766, -0.04800000227987766, 1.0400000493973494, 0.0, 0.0, 0.0, 0.0, 0.0, 1.7622068225127635E9, 0.0, 2025-11-03 16:53:42.512
93.0, 218.25495156412944, -95.85176591435447, 206.64817205164582, 451.0450243060477, -0.04800000227987766, -0.04800000227987766, 1.0400000493973494, 0.0, 0.0, 0.0, 0.0, 0.0, 1.762206822513485E9, 0.0, 2025-11-03 16:53:42.513
93.0, 334.4798224871047, 10.956036920193583, 320.6440626010299, 558.0286024385132, -0.04800000227987766, -0.04800000227987766, 1.0400000493973494, 0.0, 0.0, 0.0, 0.0, 0.0, 1.762206822513485E9, 0.0, 2025-11-03 16:53:42.513
94.0, 216.8637087806128, -87.61276631196961, 217.00021512899548, 461.4681254825555, -0.04800000227987766, -0.04800000227987766, 1.0400000493973494, 0.0, 0.0, 0.0, 0.0, 0.0, 1.76220682252716E9, 0.0, 2025-11-03 16:53:42.527
94.0, 205.66644831327721, -103.88881091913208, 201.37117321416736, 446.0559977651574, -0.04800000227987766, -0.04800000227987766, 1.0400000493973494, 0.0, 0.0, 0.0, 0.0, 0.0, 1.76220682252716E9, 0.0, 2025-11-03 16:53:42.527
95.0, 325.8780525890179, -1.0340823377482593, 317.5137663381174, 554.1166670848615, -0.04800000227987766, -0.04800000227987766, 1.0400000493973494, 0.0, 0.0, 0.0, 0.0, 0.0, 1.7622068225427377E9, 0.0, 2025-11-03 16:53:42.542
95.0, 260.5195609633811, -48.0034858812578, 261.8603150974959, 508.0448395307176, -0.04800000227987766, -0.04800000227987766, 1.0400000493973494, 0.0, 0.0, 0.0, 0.0, 0.0, 1.7622068225427377E9, 0.0, 2025-11-03 16:53:42.542
96.0, 182.24719479074702, -122.34521720046178, 182.03215054329485, 422.34129214612767, -0.04800000227987766, -0.04800000227987766, 1.0400000493973494, 0.0, 0.0, 0.0, 0.0, 0.0, 1.7622068225434768E9, 0.0, 2025-11-03 16:53:42.543
96.0, 257.3630854007788, -56.65387447876856, 253.77091149333864, 494.39046479249373, -0.04800000227987766, -0.04800000227987766, 1.0400000493973494, 0.0, 0.0, 0.0, 0.0, 0.0, 1.7622068225434768E9, 0.0, 2025-11-03 16:53:42.543
97.0, 301.7108190753497, -14.579999977257103, 302.35221191775054, 535.5331042050384, -0.04800000227987766, -0.04800000227987766, 1.0400000493973494, 0.0, 0.0, 0.0, 0.0, 0.0, 1.7622068225573852E9, 0.0, 2025-11-03 16:53:42.557
97.0, 207.70095388917252, -96.23323570983484, 207.7626622384414, 445.0761439767666, -0.04800000227987766, -0.04800000227987766, 1.0400000493973494, 0.0, 0.0, 0.0, 0.0, 0.0, 1.7622068225573852E9, 0.0, 2025-11-03 16:53:42.557
98.0, 218.82715625735, -97.91993058985099, 215.29482074920088, 454.9457399598323, -0.04800000227987766, -0.04800000227987766, 1.0400000493973494, 0.0, 0.0, 0.0, 0.0, 0.0, 1.7622068225728247E9, 0.0, 2025-11-03 16:53:42.572
98.0, 329.22526304936036, 7.474190061446279, 332.83613645657897, 569.9514034972526, -0.04800000227987766, -0.04800000227987766, 1.0400000493973494, 0.0, 0.0, 0.0, 0.0, 0.0, 1.7622068225728247E9, 0.0, 2025-11-03 16:53:42.572
99.0, 231.28850290970877, -78.07976132491603, 227.61405120324343, 467.22383151436225, -0.04800000227987766, -0.04800000227987766, 1.0400000493973494, 0.0, 0.0, 0.0, 0.0, 0.0, 1.762206822573609E9, 0.0, 2025-11-03 16:53:42.573
99.0, 197.35265071177855, -118.67637534392998, 189.96821824926883, 429.1890489649959, -0.04800000227987766, -0.04800000227987766, 1.0400000493973494, 0.0, 0.0, 0.0, 0.0, 0.0, 1.762206822573609E9, 0.0, 2025-11-03 16:53:42.573
100.0, 307.52262360649183, -14.2845478807576, 299.319153053686, 541.6366209327243, -0.04800000227987766, -0.04800000227987766, 1.0400000493973494, 0.0, 0.0, 0.0, 0.0, 0.0, 1.7622068225878143E9, 0.0, 2025-11-03 16:53:42.587
100.0, 242.67275837482885, -62.70503260707483, 248.72578645311296, 494.5400607907213, -0.04800000227987766, -0.04800000227987766, 1.0400000493973494, 0.0, 0.0, 0.0, 0.0, 0.0, 1.7622068225878143E9, 0.0, 2025-11-03 16:53:42.587
0.0, 194.17186579946429, -120.42103867325932, 191.36694083269686, -57.23729887185618, -0.04800000227987766, -0.04800000227987766, 1.0400000493973494, 0.0, 0.0, 0.0, 0.0, 0.0, 1.7622068225884788E9, 0.0, 2025-11-03 16:53:42.588
1.0, 264.5268637659028, -59.412050696089864, 247.71975336503237, -3.9586841030977666, -0.04800000227987766, -0.04800000227987766, 1.0400000493973494, 0.0, 0.0, 0.0, 0.0, 0.0, 1.7622068226021705E9, 0.0, 2025-11-03 16:53:42.602
1.0, 299.4388298522681, -24.50756440963596, 288.93719077669084, 37.65892260381952, -0.04800000227987766, -0.04800000227987766, 1.0400000493973494, 0.0, 0.0, 0.0, 0.0, 0.0, 1.7622068226021705E9, 0.0, 2025-11-03 16:53:42.602
2.0, 187.99729097262025, -114.34370124526322, 199.3890262376517, -41.76907265512273, -0.04800000227987766, -0.04800000227987766, 1.0400000493973494, 0.0, 0.0, 0.0, 0.0, 0.0, 1.7622068226175325E9, 0.0, 2025-11-03 16:53:42.617
2.0, 238.12690997868776, -81.94868782907724, 226.5145206162706, -19.5465871184133, -0.04800000227987766, -0.04800000227987766, 1.0400000493973494, 0.0, 0.0, 0.0, 0.0, 0.0, 1.7622068226175325E9, 0.0, 2025-11-03 16:53:42.617
3.0, 320.54682520218194, 2.7525663673877716, 313.4148359866813, 68.0530895437114, -0.04800000227987766, -0.04800000227987766, 1.0400000493973494, 0.0, 0.0, 0.0, 0.0, 0.0, 1.7622068226327682E9, 0.0, 2025-11-03 16:53:42.632
3.0, 223.02519395761192, -96.61283555533737, 204.52016897685826, -44.54781832220033, -0.04800000227987766, -0.04800000227987766, 1.0400000493973494, 0.0, 0.0, 0.0, 0.0, 0.0, 1.7622068226327682E9, 0.0, 2025-11-03 16:53:42.632
4.0, 193.536082806997, -121.00446306634694, 182.2303652409464, -61.949572816025466, -0.04800000227987766, -0.04800000227987766, 1.0400000493973494, 0.0, 0.0, 0.0, 0.0, 0.0, 1.7622068226334815E9, 0.0, 2025-11-03 16:53:42.633
4.0, 305.9200764754787, -18.658360878936946, 296.00934159290045, 40.96125426469371, -0.04800000227987766, -0.04800000227987766, 1.0400000493973494, 0.0, 0.0, 0.0, 0.0, 0.0, 1.7622068226334815E9, 0.0, 2025-11-03 16:53:42.633
5.0, 259.0142512312159, -54.138791758567095, 250.0833701370284, 2.810534816700965, -0.04800000227987766, -0.04800000227987766, 1.0400000493973494, 0.0, 0.0, 0.0, 0.0, 0.0, 1.7622068226477325E9, 0.0, 2025-11-03 16:53:42.647
5.0, 209.5428546173498, -101.0483569027856, 198.4278719490394, -46.17093490296975, -0.04800000227987766, -0.04800000227987766, 1.0400000493973494, 0.0, 0.0, 0.0, 0.0, 0.0, 1.7622068226477325E9, 0.0, 2025-11-03 16:53:42.647
6.0, 270.7911961916834, -58.33121960889548, 248.5948899546638, -1.1163601367734373, -0.04800000227987766, -0.04800000227987766, 1.0400000493973494, 0.0, 0.0, 0.0, 0.0, 0.0, 1.762206822648475E9, 0.0, 2025-11-03 16:53:42.648
6.0, 292.1684643384069, -29.133820654824376, 286.6895109033212, 38.608857192564756, -0.04800000227987766, -0.04800000227987766, 1.0400000493973494, 0.0, 0.0, 0.0, 0.0, 0.0, 1.762206822648475E9, 0.0, 2025-11-03 16:53:42.648
7.0, 198.81682154443115, -115.65640612971038, 190.03553644847125, -56.54915728000924, -0.04800000227987766, -0.04800000227987766, 1.0400000493973494, 0.0, 0.0, 0.0, 0.0, 0.0, 1.7622068226621144E9, 0.0, 2025-11-03 16:53:42.662
7.0, 215.5491339461878, -103.82336266990751, 209.69993041548878, -31.742400873918086, -0.04800000227987766, -0.04800000227987766, 1.0400000493973494, 0.0, 0.0, 0.0, 0.0, 0.0, 1.7622068226621144E9, 0.0, 2025-11-03 16:53:42.662
8.0, 334.5677101360634, 5.722046932205558, 322.6673484770581, 75.26735655823722, -0.04800000227987766, -0.04800000227987766, 1.0400000493973494, 0.0, 0.0, 0.0, 0.0, 0.0, 1.7622068226777377E9, 0.0, 2025-11-03 16:53:42.677
8.0, 215.05546715203673, -91.92674091085792, 221.6227314742282, -15.08114657131955, -0.04800000227987766, -0.04800000227987766, 1.0400000493973494, 0.0, 0.0, 0.0, 0.0, 0.0, 1.7622068226777377E9, 0.0, 2025-11-03 16:53:42.677
9.0, 228.22739479597658, -93.95002678688616, 213.653004668653, -29.326425502542406, -0.04800000227987766, -0.04800000227987766, 1.0400000493973494, 0.0, 0.0, 0.0, 0.0, 0.0, 1.762206822678485E9, 0.0, 2025-11-03 16:53:42.678
9.0, 315.06413186714053, -15.554243915714324, 295.0332277044654, 47.483639787416905, -0.04800000227987766, -0.04800000227987766, 1.0400000493973494, 0.0, 0.0, 0.0, 0.0, 0.0, 1.762206822678485E9, 0.0, 2025-11-03 16:53:42.678
10.0, 265.6151746530086, -39.1679722359404, 273.5811615586281, 33.50389375304803, -0.04800000227987766, -0.04800000227987766, 1.0400000493973494, 0.0, 0.0, 0.0, 0.0, 0.0, 1.7622068226920538E9, 0.0, 2025-11-03 16:53:42.692
10.0, 210.3544129077345, -108.3860406158492, 198.56998814735562, -51.32077714195475, -0.04800000227987766, -0.04800000227987766, 1.0400000493973494, 0.0, 0.0, 0.0, 0.0, 0.0, 1.7622068226920538E9, 0.0, 2025-11-03 16:53:42.692
11.0, 259.5340973250568, -70.07450546976179, 241.61623663734645, -17.613058841321617, -0.04800000227987766, -0.04800000227987766, 1.0400000493973494, 0.0, 0.0, 0.0, 0.0, 0.0, 1.76220682270775E9, 0.0, 2025-11-03 16:53:42.707
11.0, 319.050865219906, -2.969480564817786, 303.90427039936185, 46.99371289322153, -0.04800000227987766, -0.04800000227987766, 1.0400000493973494, 0.0, 0.0, 0.0, 0.0, 0.0, 1.76220682270775E9, 0.0, 2025-11-03 16:53:42.707
12.0, 210.8742590015754, -94.76532497722656, 210.93783730082214, -40.280592472758144, -0.04800000227987766, -0.04800000227987766, 1.0400000493973494, 0.0, 0.0, 0.0, 0.0, 0.0, 1.7622068227084963E9, 0.0, 2025-11-03 16:53:42.708
12.0, 250.1880873357877, -68.44764898903668, 236.68704849574715, -21.281900697853416, -0.04800000227987766, -0.04800000227987766, 1.0400000493973494, 0.0, 0.0, 0.0, 0.0, 0.0, 1.7622068227084963E9, 0.0, 2025-11-03 16:53:42.708
13.0, 348.88778706640005, 22.91436702851206, 333.161507752724, 73.53952277870849, -0.04800000227987766, -0.04800000227987766, 1.0400000493973494, 0.0, 0.0, 0.0, 0.0, 0.0, 1.762206822722046E9, 0.0, 2025-11-03 16:53:42.722
13.0, 225.60572492703795, -89.73889943677932, 214.59545945748687, -30.78124658530578, -0.04800000227987766, -0.04800000227987766, 1.0400000493973494, 0.0, 0.0, 0.0, 0.0, 0.0, 1.762206822722046E9, 0.0, 2025-11-03 16:53:42.722
14.0, 206.1320658577606, -113.16189285926521, 194.75155029259622, -63.37073479918763, -0.04800000227987766, -0.04800000227987766, 1.0400000493973494, 0.0, 0.0, 0.0, 0.0, 0.0, 1.762206822737738E9, 0.0, 2025-11-03 16:53:42.737
14.0, 331.35513607412577, -4.356983448378742, 303.12637120857835, 42.51331274630502, -0.04800000227987766, -0.04800000227987766, 1.0400000493973494, 0.0, 0.0, 0.0, 0.0, 0.0, 1.762206822737738E9, 0.0, 2025-11-03 16:53:42.737
15.0, 270.8285951912403, -57.90487101394683, 247.820730663836, -15.559853765647858, -0.04800000227987766, -0.04800000227987766, 1.0400000493973494, 0.0, 0.0, 0.0, 0.0, 0.0, 1.7622068227385094E9, 0.0, 2025-11-03 16:53:42.738
15.0, 195.18163878750056, -128.57402057666332, 179.6012155720964, -82.97903026686981, -0.04800000227987766, -0.04800000227987766, 1.0400000493973494, 0.0, 0.0, 0.0, 0.0, 0.0, 1.7622068227385094E9, 0.0, 2025-11-03 16:53:42.738
16.0, 268.07602882385254, -65.89329731930047, 245.06816429644823, -21.375398196745664, -0.04800000227987766, -0.04800000227987766, 1.0400000493973494, 0.0, 0.0, 0.0, 0.0, 0.0, 1.762206822752106E9, 0.0, 2025-11-03 16:53:42.752
16.0, 328.84566320385784, -11.163601367734373, 297.1462711794302, 33.058845658320934, -0.04800000227987766, -0.04800000227987766, 1.0400000493973494, 0.0, 0.0, 0.0, 0.0, 0.0, 1.762206822752106E9, 0.0, 2025-11-03 16:53:42.752
17.0, 211.26320859696716, -115.64144652988762, 187.4961443785578, -74.91206606244668, -0.04800000227987766, -0.04800000227987766, 1.0400000493973494, 0.0, 0.0, 0.0, 0.0, 0.0, 1.7622068227678769E9, 0.0, 2025-11-03 16:53:42.767
17.0, 225.41125012934208, -107.99709102045745, 194.30276229791343, -67.32006915239617, -0.04800000227987766, -0.04800000227987766, 1.0400000493973494, 0.0, 0.0, 0.0, 0.0, 0.0, 1.7622068227678769E9, 0.0, 2025-11-03 16:53:42.767
18.0, 356.7527966732159, 7.315244313329458, 308.9269560398534, 47.40884178830311, -0.04800000227987766, -0.04800000227987766, 1.0400000493973494, 0.0, 0.0, 0.0, 0.0, 0.0, 1.7622068227685256E9, 0.0, 2025-11-03 16:53:42.768
18.0, 238.76643287111074, -102.09926879033446, 190.62270074151456, -76.6847786414437, -0.04800000227987766, -0.04800000227987766, 1.0400000493973494, 0.0, 0.0, 0.0, 0.0, 0.0, 1.7622068227685256E9, 0.0, 2025-11-03 16:53:42.768
19.0, 223.20844905544072, -110.67485938873142, 183.32989582791924, -84.86767974449322, -0.04800000227987766, -0.04800000227987766, 1.0400000493973494, 0.0, 0.0, 0.0, 0.0, 0.0, 1.7622068227820554E9, 0.0, 2025-11-03 16:53:42.782
19.0, 334.668687434867, -11.186040767468512, 286.04624811094254, 13.559007289353758, -0.04800000227987766, -0.04800000227987766, 1.0400000493973494, 0.0, 0.0, 0.0, 0.0, 0.0, 1.7622068227820554E9, 0.0, 2025-11-03 16:53:42.782
20.0, 291.0539741516113, -52.489495878107846, 238.7065944718197, -39.50269328197464, -0.04800000227987766, -0.04800000227987766, 1.0400000493973494, 0.0, 0.0, 0.0, 0.0, 0.0, 1.7622068227977815E9, 0.0, 2025-11-03 16:53:42.797
20.0, 204.93155797198415, -129.14996516983956, 156.79156574234366, -110.70664853835478, -0.04800000227987766, -0.04800000227987766, 1.0400000493973494, 0.0, 0.0, 0.0, 0.0, 0.0, 1.7622068227977815E9, 0.0, 2025-11-03 16:53:42.797
21.0, 293.3240934247151, -52.43713727872819, 232.31136554758996, -47.124609391670674, -0.04800000227987766, -0.04800000227987766, 1.0400000493973494, 0.0, 0.0, 0.0, 0.0, 0.0, 1.7622068227984927E9, 0.0, 2025-11-03 16:53:42.798
21.0, 332.4883257606998, -13.205586743541062, 279.7220772858709, 1.168718736153096, -0.04800000227987766, -0.04800000227987766, 1.0400000493973494, 0.0, 0.0, 0.0, 0.0, 0.0, 1.7622068227984927E9, 0.0, 2025-11-03 16:53:42.798
22.0, 217.8454325189814, -120.52201597206295, 163.95721405744553, -107.8119659726508, -0.04800000227987766, -0.04800000227987766, 1.0400000493973494, 0.0, 0.0, 0.0, 0.0, 0.0, 1.7622068228121393E9, 0.0, 2025-11-03 16:53:42.812
22.0, 235.02653291542083, -105.99624454416335, 183.827302522026, -89.75572898657992, -0.04800000227987766, -0.04800000227987766, 1.0400000493973494, 0.0, 0.0, 0.0, 0.0, 0.0, 1.7622068228121393E9, 0.0, 2025-11-03 16:53:42.812
23.0, 341.6473407521844, -8.624209297820926, 287.2804150963202, 22.863878379110247, -0.04800000227987766, -0.04800000227987766, 1.0400000493973494, 0.0, 0.0, 0.0, 0.0, 0.0, 1.7622068228278325E9, 0.0, 2025-11-03 16:53:42.827
23.0, 230.84158486500382, -110.28590979333967, 174.63088853098452, -96.30803370894864, -0.04800000227987766, -0.04800000227987766, 1.0400000493973494, 0.0, 0.0, 0.0, 0.0, 0.0, 1.7622068228278325E9, 0.0, 2025-11-03 16:53:42.827
24.0, 203.04290849436074, -137.98360886517912, 144.68550958577543, -119.87688322970644, -0.04800000227987766, -0.04800000227987766, 1.0400000493973494, 0.0, 0.0, 0.0, 0.0, 0.0, 1.7622068228290749E9, 0.0, 2025-11-03 16:53:42.829
24.0, 316.69472824782133, -39.88229312747717, 255.18833357654512, -6.008149278815836, -0.04800000227987766, -0.04800000227987766, 1.0400000493973494, 0.0, 0.0, 0.0, 0.0, 0.0, 1.7622068228290749E9, 0.0, 2025-11-03 16:53:42.829
25.0, 261.6733200997114, -69.46490177698433, 217.45274302363396, -54.21171980770305, -0.04800000227987766, -0.04800000227987766, 1.0400000493973494, 0.0, 0.0, 0.0, 0.0, 0.0, 1.7622068228420594E9, 0.0, 2025-11-03 16:53:42.842
25.0, 199.8378142323345, -129.86802596133202, 158.60915712080896, -106.58153888722882, -0.04800000227987766, -0.04800000227987766, 1.0400000493973494, 0.0, 0.0, 0.0, 0.0, 0.0, 1.7622068228420594E9, 0.0, 2025-11-03 16:53:42.842
26.0, 289.74874906707555, -57.68421691656113, 236.85908389370888, -36.50703341746703, -0.04800000227987766, -0.04800000227987766, 1.0400000493973494, 0.0, 0.0, 0.0, 0.0, 0.0, 1.7622068228577943E9, 0.0, 2025-11-03 16:53:42.857
26.0, 338.0869559943676, -13.66933433804661, 280.0511884819716, 8.300707951653749, -0.04800000227987766, -0.04800000227987766, 1.0400000493973494, 0.0, 0.0, 0.0, 0.0, 0.0, 1.7622068228577943E9, 0.0, 2025-11-03 16:53:42.857
27.0, 194.55707549490035, -135.29836069699377, 155.76683315448463, -108.19343576813117, -0.04800000227987766, -0.04800000227987766, 1.0400000493973494, 0.0, 0.0, 0.0, 0.0, 0.0, 1.7622068228585005E9, 0.0, 2025-11-03 16:53:42.858
27.0, 237.97731398046017, -113.24417065829039, 181.1270947540179, -82.62373977107927, -0.04800000227987766, -0.04800000227987766, 1.0400000493973494, 0.0, 0.0, 0.0, 0.0, 0.0, 1.7622068228585005E9, 0.0, 2025-11-03 16:53:42.858
28.0, 334.234859040007, -12.45760675240308, 285.5750207165256, 23.95218926621601, -0.04800000227987766, -0.04800000227987766, 1.0400000493973494, 0.0, 0.0, 0.0, 0.0, 0.0, 1.7622068228721502E9, 0.0, 2025-11-03 16:53:42.872
28.0, 209.86074611358345, -126.10194670595229, 164.86600974667817, -100.68745655706152, -0.04800000227987766, -0.04800000227987766, 1.0400000493973494, 0.0, 0.0, 0.0, 0.0, 0.0, 1.7622068228721502E9, 0.0, 2025-11-03 16:53:42.872
29.0, 201.70776421017945, -137.81531336717308, 150.20186202041805, -107.31829917849973, -0.04800000227987766, -0.04800000227987766, 1.0400000493973494, 0.0, 0.0, 0.0, 0.0, 0.0, 1.7622068228877828E9, 0.0, 2025-11-03 16:53:42.887
29.0, 335.61488212365657, -24.421546710655093, 266.3407152444124, 1.9765371265821159, -0.04800000227987766, -0.04800000227987766, 1.0400000493973494, 0.0, 0.0, 0.0, 0.0, 0.0, 1.7622068228877828E9, 0.0, 2025-11-03 16:53:42.887
30.0, 278.2747360030189, -66.6973758097738, 223.3991839531809, -34.31545204343274, -0.04800000227987766, -0.04800000227987766, 1.0400000493973494, 0.0, 0.0, 0.0, 0.0, 0.0, 1.7622068228885093E9, 0.0, 2025-11-03 16:53:42.888
30.0, 167.32312401756644, -166.90051532257348, 130.08868005871773, -127.80173123581335, -0.04800000227987766, -0.04800000227987766, 1.0400000493973494, 0.0, 0.0, 0.0, 0.0, 0.0, 1.7622068228885093E9, 0.0, 2025-11-03 16:53:42.888
31.0, 238.2652862770483, -109.59402830153704, 186.2357980934903, -71.95006529754028, -0.04800000227987766, -0.04800000227987766, 1.0400000493973494, 0.0, 0.0, 0.0, 0.0, 0.0, 1.7622068229020965E9, 0.0, 2025-11-03 16:53:42.902
31.0, 309.24110763613135, -31.647033425047994, 261.4227468026802, 3.307941510807723, -0.04800000227987766, -0.04800000227987766, 1.0400000493973494, 0.0, 0.0, 0.0, 0.0, 0.0, 1.7622068229020965E9, 0.0, 2025-11-03 16:53:42.902
32.0, 197.5340358596295, -138.1743437629193, 155.16844916157424, -101.63365124585107, -0.04800000227987766, -0.04800000227987766, 1.0400000493973494, 0.0, 0.0, 0.0, 0.0, 0.0, 1.7622068229179733E9, 0.0, 2025-11-03 16:53:42.917
32.0, 218.63455140963197, -113.4610848557204, 177.495651897043, -77.10738733643666, -0.04800000227987766, -0.04800000227987766, 1.0400000493973494, 0.0, 0.0, 0.0, 0.0, 0.0, 1.7622068229179733E9, 0.0, 2025-11-03 16:53:42.917
33.0, 352.3247551256791, 6.114736427552998, 302.30359321832657, 33.27201995579526, -0.04800000227987766, -0.04800000227987766, 1.0400000493973494, 0.0, 0.0, 0.0, 0.0, 0.0, 1.7622068229185119E9, 0.0, 2025-11-03 16:53:42.918
33.0, 223.54504005145282, -101.17551350127906, 181.61328174825758, -85.99338963115588, -0.04800000227987766, -0.04800000227987766, 1.0400000493973494, 0.0, 0.0, 0.0, 0.0, 0.0, 1.7622068229185119E9, 0.0, 2025-11-03 16:53:42.918
34.0, 204.16113858111203, -128.89565197285265, 161.77311248332262, -104.16182361589745, -0.04800000227987766, -0.04800000227987766, 1.0400000493973494, 0.0, 0.0, 0.0, 0.0, 0.0, 1.7622068229323113E9, 0.0, 2025-11-03 16:53:42.932
34.0, 321.1900879945606, -24.406587110832334, 266.69974564015865, 5.073174289893359, -0.04800000227987766, -0.04800000227987766, 1.0400000493973494, 0.0, 0.0, 0.0, 0.0, 0.0, 1.7622068229323113E9, 0.0, 2025-11-03 16:53:42.932
35.0, 269.07458211202174, -61.19598297495395, 230.65458986721933, -27.748187721241266, -0.04800000227987766, -0.04800000227987766, 1.0400000493973494, 0.0, 0.0, 0.0, 0.0, 0.0, 1.762206822947781E9, 0.0, 2025-11-03 16:53:42.947
35.0, 200.33148102648556, -127.70262388698757, 168.09354340843856, -91.3938051671721, -0.04800000227987766, -0.04800000227987766, 1.0400000493973494, 0.0, 0.0, 0.0, 0.0, 0.0, 1.762206822947781E9, 0.0, 2025-11-03 16:53:42.947
36.0, 290.7660018550232, -48.551381224766374, 243.22065371833742, -18.72006922820583, -0.04800000227987766, -0.04800000227987766, 1.0400000493973494, 0.0, 0.0, 0.0, 0.0, 0.0, 1.7622068229484973E9, 0.0, 2025-11-03 16:53:42.948
36.0, 320.5954439016059, -21.100515550002456, 278.77588259708136, 20.582539406139404, -0.04800000227987766, -0.04800000227987766, 1.0400000493973494, 0.0, 0.0, 0.0, 0.0, 0.0, 1.7622068229484973E9, 0.0, 2025-11-03 16:53:42.948
37.0, 173.9352671392262, -143.23068850301206, 149.01257383450866, -93.68262394005433, -0.04800000227987766, -0.04800000227987766, 1.0400000493973494, 0.0, 0.0, 0.0, 0.0, 0.0, 1.7622068229621637E9, 0.0, 2025-11-03 16:53:42.962
37.0, 227.6664098026231, -110.44672549143434, 178.94299317989498, -73.1655327831395, -0.04800000227987766, -0.04800000227987766, 1.0400000493973494, 0.0, 0.0, 0.0, 0.0, 0.0, 1.7622068229621637E9, 0.0, 2025-11-03 16:53:42.962
38.0, 315.6662557600066, -33.81991529930383, 266.8979603378102, 15.728149263653904, -0.04800000227987766, -0.04800000227987766, 1.0400000493973494, 0.0, 0.0, 0.0, 0.0, 0.0, 1.7622068229777856E9, 0.0, 2025-11-03 16:53:42.977
38.0, 223.43284305278212, -109.76980359945446, 181.24303165264428, -57.77210456551984, -0.04800000227987766, -0.04800000227987766, 1.0400000493973494, 0.0, 0.0, 0.0, 0.0, 0.0, 1.7622068229777856E9, 0.0, 2025-11-03 16:53:42.977
39.0, 190.34220824483782, -131.06853384710848, 165.12406284362078, -79.81507490435615, -0.04800000227987766, -0.04800000227987766, 1.0400000493973494, 0.0, 0.0, 0.0, 0.0, 0.0, 1.7622068229784982E9, 0.0, 2025-11-03 16:53:42.978
39.0, 297.08643278013915, -42.75453629344702, 252.40584800951183, -1.250996535178274, -0.04800000227987766, -0.04800000227987766, 1.0400000493973494, 0.0, 0.0, 0.0, 0.0, 0.0, 1.7622068229784982E9, 0.0, 2025-11-03 16:53:42.978
40.0, 250.31898383423686, -76.17428229749203, 216.30833363719285, -34.969934535678476, -0.04800000227987766, -0.04800000227987766, 1.0400000493973494, 0.0, 0.0, 0.0, 0.0, 0.0, 1.7622068229921887E9, 0.0, 2025-11-03 16:53:42.992
40.0, 201.89849910791963, -121.44203136116266, 162.24433987773955, -81.33721418632194, -0.04800000227987766, -0.04800000227987766, 1.0400000493973494, 0.0, 0.0, 0.0, 0.0, 0.0, 1.7622068229921887E9, 0.0, 2025-11-03 16:53:42.992
41.0, 270.32744859717786, -69.60327807534486, 224.53985343966633, -34.592204640153795, -0.04800000227987766, -0.04800000227987766, 1.0400000493973494, 0.0, 0.0, 0.0, 0.0, 0.0, 1.7622068230078928E9, 0.0, 2025-11-03 16:53:43.007
41.0, 304.6634700903669, -36.20597147103399, 263.47595187835395, 4.964717191178352, -0.04800000227987766, -0.04800000227987766, 1.0400000493973494, 0.0, 0.0, 0.0, 0.0, 0.0, 1.7622068230078928E9, 0.0, 2025-11-03 16:53:43.007
42.0, 194.60943409428, -130.33925335574895, 157.53954573348165, -98.88482477841899, -0.04800000227987766, -0.04800000227987766, 1.0400000493973494, 0.0, 0.0, 0.0, 0.0, 0.0, 1.7622068230085144E9, 0.0, 2025-11-03 16:53:43.008
42.0, 216.9590762294829, -106.70308563578874, 184.37332791555673, -66.65436696028337, -0.04800000227987766, -0.04800000227987766, 1.0400000493973494, 0.0, 0.0, 0.0, 0.0, 0.0, 1.7622068230085144E9, 0.0, 2025-11-03 16:53:43.008
43.0, 321.61269668955356, -9.862116183154285, 296.08039969205856, 37.77111960249022, -0.04800000227987766, -0.04800000227987766, 1.0400000493973494, 0.0, 0.0, 0.0, 0.0, 0.0, 1.7622068230222197E9, 0.0, 2025-11-03 16:53:43.022
43.0, 213.51462837029248, -106.57966893725097, 189.67650605272502, -59.50367824500427, -0.04800000227987766, -0.04800000227987766, 1.0400000493973494, 0.0, 0.0, 0.0, 0.0, 0.0, 1.7622068230222197E9, 0.0, 2025-11-03 16:53:43.022
44.0, 193.3528277091682, -135.86308559030294, 162.19946107827127, -85.33142733899876, -0.04800000227987766, -0.04800000227987766, 1.0400000493973494, 0.0, 0.0, 0.0, 0.0, 0.0, 1.7622068230378373E9, 0.0, 2025-11-03 16:53:43.037
44.0, 301.0357671333477, -42.18233160022646, 265.0205305600539, 13.196236993651837, -0.04800000227987766, -0.04800000227987766, 1.0400000493973494, 0.0, 0.0, 0.0, 0.0, 0.0, 1.7622068230378373E9, 0.0, 2025-11-03 16:53:43.037
45.0, 252.46568640880287, -74.32303181942552, 232.5133201451972, -15.46261636679992, -0.04800000227987766, -0.04800000227987766, 1.0400000493973494, 0.0, 0.0, 0.0, 0.0, 0.0, 1.7622068230384998E9, 0.0, 2025-11-03 16:53:43.038
45.0, 205.8777526607737, -117.99758350197226, 174.58974963147193, -66.6805462599732, -0.04800000227987766, -0.04800000227987766, 1.0400000493973494, 0.0, 0.0, 0.0, 0.0, 0.0, 1.7622068230384998E9, 0.0, 2025-11-03 16:53:43.038
46.0, 263.21415888145566, -76.12566359806806, 219.37131170090288, -28.570965711493045, -0.04800000227987766, -0.04800000227987766, 1.0400000493973494, 0.0, 0.0, 0.0, 0.0, 0.0, 1.762206823052163E9, 0.0, 2025-11-03 16:53:43.052
46.0, 342.58231574110687, -0.8975759893655777, 296.27487448975444, 44.17756822658703, -0.04800000227987766, -0.04800000227987766, 1.0400000493973494, 0.0, 0.0, 0.0, 0.0, 0.0, 1.762206823052163E9, 0.0, 2025-11-03 16:53:43.052
47.0, 182.4248400386423, -130.97877624817193, 172.21491315960884, -77.51129653165117, -0.04800000227987766, -0.04800000227987766, 1.0400000493973494, 0.0, 0.0, 0.0, 0.0, 0.0, 1.7622068230679393E9, 0.0, 2025-11-03 16:53:43.067
47.0, 225.9572755228728, -100.3789148107171, 197.10020746476948, -46.53370519867167, -0.04800000227987766, -0.04800000227987766, 1.0400000493973494, 0.0, 0.0, 0.0, 0.0, 0.0, 1.7622068230679393E9, 0.0, 2025-11-03 16:53:43.067
48.0, 317.8466174341738, -19.76163136586547, 286.8802458010614, 34.154636345338076, -0.04800000227987766, -0.04800000227987766, 1.0400000493973494, 0.0, 0.0, 0.0, 0.0, 0.0, 1.7622068230684931E9, 0.0, 2025-11-03 16:53:43.068
48.0, 208.86219282541424, -104.48906486202031, 202.79233519732952, -48.00722578121349, -0.04800000227987766, -0.04800000227987766, 1.0400000493973494, 0.0, 0.0, 0.0, 0.0, 0.0, 1.7622068230684931E9, 0.0, 2025-11-03 16:53:43.068
49.0, 208.8060943260789, -101.381207998842, 200.97848371881992, -43.35479023633525, -0.04800000227987766, -0.04800000227987766, 1.0400000493973494, 0.0, 0.0, 0.0, 0.0, 0.0, 1.762206823082127E9, 0.0, 2025-11-03 16:53:43.082
49.0, 304.8205458885059, -30.62604073714465, 279.34060749039054, 31.701261974405497, -0.04800000227987766, -0.04800000227987766, 1.0400000493973494, 0.0, 0.0, 0.0, 0.0, 0.0, 1.762206823082127E9, 0.0, 2025-11-03 16:53:43.082
50.0, 232.0346129508689, -82.10576362721622, 220.24644829053432, -25.294813350308686, -0.04800000227987766, -0.04800000227987766, 1.0400000493973494, 0.0, 0.0, 0.0, 0.0, 0.0, 1.7622068230978029E9, 0.0, 2025-11-03 16:53:43.097
50.0, 186.70328558795154, -131.3976450432092, 170.03455148544163, -69.62758742505684, -0.04800000227987766, -0.04800000227987766, 1.0400000493973494, 0.0, 0.0, 0.0, 0.0, 0.0, 1.7622068230978029E9, 0.0, 2025-11-03 16:53:43.097
51.0, 266.03778334800154, -63.68675634544343, 246.90071527473629, -5.368626386392862, -0.04800000227987766, -0.04800000227987766, 1.0400000493973494, 0.0, 0.0, 0.0, 0.0, 0.0, 1.7622068230985065E9, 0.0, 2025-11-03 16:53:43.098
51.0, 299.05736005678773, -21.010757951065898, 287.0186220994219, 30.710188486147672, -0.04800000227987766, -0.04800000227987766, 1.0400000493973494, 0.0, 0.0, 0.0, 0.0, 0.0, 1.7622068230985065E9, 0.0, 2025-11-03 16:53:43.098
52.0, 180.88774115685374, -129.7670486625284, 169.2267330950126, -78.10968052456155, -0.04800000227987766, -0.04800000227987766, 1.0400000493973494, 0.0, 0.0, 0.0, 0.0, 0.0, 1.7622068231121018E9, 0.0, 2025-11-03 16:53:43.112
52.0, 202.60908009950072, -116.33332802169025, 183.68892622366548, -63.965378892142326, -0.04800000227987766, -0.04800000227987766, 1.0400000493973494, 0.0, 0.0, 0.0, 0.0, 0.0, 1.7622068231121018E9, 0.0, 2025-11-03 16:53:43.112
53.0, 339.6764134755358, 10.292204678058624, 315.54283906146884, 63.04536350304261, -0.04800000227987766, -0.04800000227987766, 1.0400000493973494, 0.0, 0.0, 0.0, 0.0, 0.0, 1.7622068231277816E9, 0.0, 2025-11-03 16:53:43.127
53.0, 226.94460911117494, -89.02457854524255, 210.432950806804, -36.09564442234114, -0.04800000227987766, -0.04800000227987766, 1.0400000493973494, 0.0, 0.0, 0.0, 0.0, 0.0, 1.7622068231277816E9, 0.0, 2025-11-03 16:53:43.127
54.0, 195.91839907877147, -116.0528355250135, 194.50845679547638, -47.74917268427089, -0.04800000227987766, -0.04800000227987766, 1.0400000493973494, 0.0, 0.0, 0.0, 0.0, 0.0, 1.7622068231284895E9, 0.0, 2025-11-03 16:53:43.128
54.0, 326.43716763239354, -10.711073473095894, 295.7363288961351, 45.452874111477286, -0.04800000227987766, -0.04800000227987766, 1.0400000493973494, 0.0, 0.0, 0.0, 0.0, 0.0, 1.7622068231284895E9, 0.0, 2025-11-03 16:53:43.128
55.0, 270.2115116985515, -45.290188463404775, 259.88190802093595, 6.281161975581199, -0.04800000227987766, -0.04800000227987766, 1.0400000493973494, 0.0, 0.0, 0.0, 0.0, 0.0, 1.762206823142138E9, 0.0, 2025-11-03 16:53:43.142
55.0, 197.06280846521258, -118.15091940015554, 180.6745668593794, -64.825555881951, -0.04800000227987766, -0.04800000227987766, 1.0400000493973494, 0.0, 0.0, 0.0, 0.0, 0.0, 1.762206823142138E9, 0.0, 2025-11-03 16:53:43.142
56.0, 257.9820388434455, -67.14616380445659, 235.61743710841984, -13.147618294227868, -0.04800000227987766, -0.04800000227987766, 1.0400000493973494, 0.0, 0.0, 0.0, 0.0, 0.0, 1.7622068231585016E9, 0.0, 2025-11-03 16:53:43.158
56.0, 307.5506728561595, -17.27833779528737, 292.49383563455194, 39.56253168126568, -0.04800000227987766, -0.04800000227987766, 1.0400000493973494, 0.0, 0.0, 0.0, 0.0, 0.0, 1.7622068231585016E9, 0.0, 2025-11-03 16:53:43.158
57.0, 193.43136560823768, -121.0942206652835, 180.40903396252543, -62.798530105967075, -0.04800000227987766, -0.04800000227987766, 1.0400000493973494, 0.0, 0.0, 0.0, 0.0, 0.0, 1.762206823158517E9, 0.0, 2025-11-03 16:53:43.158
57.0, 223.4066637530923, -103.89068086910993, 202.21639060415328, -47.31908418936655, -0.04800000227987766, -0.04800000227987766, 1.0400000493973494, 0.0, 0.0, 0.0, 0.0, 0.0, 1.762206823158517E9, 0.0, 2025-11-03 16:53:43.158
58.0, 300.85999183543026, -27.79867637064308, 287.5160287935287, 39.487733682151884, -0.04800000227987766, -0.04800000227987766, 1.0400000493973494, 0.0, 0.0, 0.0, 0.0, 0.0, 1.7622068231721537E9, 0.0, 2025-11-03 16:53:43.172
58.0, 193.91381270252168, -123.7607693336904, 184.21251221746206, -50.673774449620396, -0.04800000227987766, -0.04800000227987766, 1.0400000493973494, 0.0, 0.0, 0.0, 0.0, 0.0, 1.7622068231721537E9, 0.0, 2025-11-03 16:53:43.172
59.0, 206.29288155585527, -118.67076549399644, 188.63307396508753, -50.23994605476037, -0.04800000227987766, -0.04800000227987766, 1.0400000493973494, 0.0, 0.0, 0.0, 0.0, 0.0, 1.7622068231877856E9, 0.0, 2025-11-03 16:53:43.187
59.0, 324.477460055612, -18.5274643804878, 292.60977253317833, 38.87065018946305, -0.04800000227987766, -0.04800000227987766, 1.0400000493973494, 0.0, 0.0, 0.0, 0.0, 0.0, 1.7622068231877856E9, 0.0, 2025-11-03 16:53:43.187
60.0, 264.3211692683399, -61.955182665959, 247.68609426543117, -6.094166977796704, -0.04800000227987766, -0.04800000227987766, 1.0400000493973494, 0.0, 0.0, 0.0, 0.0, 0.0, 1.7622068231885138E9, 0.0, 2025-11-03 16:53:43.188
60.0, 209.49423591792583, -120.31258157454431, 184.4930047141388, -63.45301259821281, -0.04800000227987766, -0.04800000227987766, 1.0400000493973494, 0.0, 0.0, 0.0, 0.0, 0.0, 1.7622068231885138E9, 0.0, 2025-11-03 16:53:43.188
61.0, 240.53540555015206, -94.50353198032826, 216.42053063586354, -25.57904574694112, -0.04800000227987766, -0.04800000227987766, 1.0400000493973494, 0.0, 0.0, 0.0, 0.0, 0.0, 1.762206823202262E9, 0.0, 2025-11-03 16:53:43.202
61.0, 289.2139433734119, -46.40467865020037, 263.88360097352415, 18.114205435384065, -0.04800000227987766, -0.04800000227987766, 1.0400000493973494, 0.0, 0.0, 0.0, 0.0, 0.0, 1.762206823202262E9, 0.0, 2025-11-03 16:53:43.202
62.0, 203.08030749391764, -125.75787591002882, 175.1170755252242, -53.34780291793868, -0.04800000227987766, -0.04800000227987766, 1.0400000493973494, 0.0, 0.0, 0.0, 0.0, 0.0, 1.7622068232342072E9, 0.0, 2025-11-03 16:53:43.234
62.0, 236.98624049220234, -103.01554427947849, 203.40567879006267, -46.84785679494962, -0.04800000227987766, -0.04800000227987766, 1.0400000493973494, 0.0, 0.0, 0.0, 0.0, 0.0, 1.7622068232342072E9, 0.0, 2025-11-03 16:53:43.234
63.0, 322.50653277896345, -16.84824930038303, 301.1704035317525, 50.711173449177295, -0.04800000227987766, -0.04800000227987766, 1.0400000493973494, 0.0, 0.0, 0.0, 0.0, 0.0, 1.7622068232348769E9, 0.0, 2025-11-03 16:53:43.234
63.0, 218.98236210551113, -102.85098868142813, 204.84928017295897, -33.5151134529151, -0.04800000227987766, -0.04800000227987766, 1.0400000493973494, 0.0, 0.0, 0.0, 0.0, 0.0, 1.7622068232348769E9, 0.0, 2025-11-03 16:53:43.234
64.0, 219.18431670311838, -107.50716412626207, 200.85880692023784, -32.647456663195044, -0.04800000227987766, -0.04800000227987766, 1.0400000493973494, 0.0, 0.0, 0.0, 0.0, 0.0, 1.7622068232356236E9, 0.0, 2025-11-03 16:53:43.235
64.0, 307.2926197592169, -36.97639086190611, 283.07302764616907, 38.197468197438866, -0.04800000227987766, -0.04800000227987766, 1.0400000493973494, 0.0, 0.0, 0.0, 0.0, 0.0, 1.7622068232356236E9, 0.0, 2025-11-03 16:53:43.235
65.0, 253.6437548948452, -71.39843005407602, 247.92170796263963, 12.227602905128151, -0.04800000227987766, -0.04800000227987766, 1.0400000493973494, 0.0, 0.0, 0.0, 0.0, 0.0, 1.762206823236368E9, 0.0, 2025-11-03 16:53:43.236
65.0, 187.77663687523454, -130.29437455628067, 185.76083079911768, -46.638422397430986, -0.04800000227987766, -0.04800000227987766, 1.0400000493973494, 0.0, 0.0, 0.0, 0.0, 0.0, 1.762206823236368E9, 0.0, 2025-11-03 16:53:43.236
66.0, 289.37475907150656, -43.5399152841419, 267.59732162952423, 26.495321236085147, -0.04800000227987766, -0.04800000227987766, 1.0400000493973494, 0.0, 0.0, 0.0, 0.0, 0.0, 1.762206823247094E9, 0.0, 2025-11-03 16:53:43.247
66.0, 289.4271176708862, -31.00003073271364, 289.0980064747855, 37.5916044046171, -0.04800000227987766, -0.04800000227987766, 1.0400000493973494, 0.0, 0.0, 0.0, 0.0, 0.0, 1.762206823247094E9, 0.0, 2025-11-03 16:53:43.247
67.0, 181.0859558545053, -133.34987282007933, 178.99161187931895, -59.608395443763584, -0.04800000227987766, -0.04800000227987766, 1.0400000493973494, 0.0, 0.0, 0.0, 0.0, 0.0, 1.7622068232620864E9, 0.0, 2025-11-03 16:53:43.262
67.0, 223.9975679460913, -105.68957274779677, 204.89415897242725, -39.420415482949466, -0.04800000227987766, -0.04800000227987766, 1.0400000493973494, 0.0, 0.0, 0.0, 0.0, 0.0, 1.7622068232620864E9, 0.0, 2025-11-03 16:53:43.262
68.0, 332.5182449603453, -5.527572134509683, 312.7491337945685, 66.98347815638408, -0.04800000227987766, -0.04800000227987766, 1.0400000493973494, 0.0, 0.0, 0.0, 0.0, 0.0, 1.762206823277835E9, 0.0, 2025-11-03 16:53:43.277
68.0, 221.2898803781718, -101.25405140034854, 208.22640983294696, -33.810565549414605, -0.04800000227987766, -0.04800000227987766, 1.0400000493973494, 0.0, 0.0, 0.0, 0.0, 0.0, 1.762206823277835E9, 0.0, 2025-11-03 16:53:43.277
69.0, 196.4644244723022, -127.61286628805101, 180.7194456588477, -68.29244314087555, -0.04800000227987766, -0.04800000227987766, 1.0400000493973494, 0.0, 0.0, 0.0, 0.0, 0.0, 1.7622068232785215E9, 0.0, 2025-11-03 16:53:43.278
69.0, 321.1826081946492, -13.646894938312471, 303.5115809040144, 63.7148055951111, -0.04800000227987766, -0.04800000227987766, 1.0400000493973494, 0.0, 0.0, 0.0, 0.0, 0.0, 1.7622068232785215E9, 0.0, 2025-11-03 16:53:43.278
70.0, 247.58885686658323, -67.16112340427935, 246.84835667535663, 10.597006524447352, -0.04800000227987766, -0.04800000227987766, 1.0400000493973494, 0.0, 0.0, 0.0, 0.0, 0.0, 1.7622068232922163E9, 0.0, 2025-11-03 16:53:43.292
70.0, 204.19853758066893, -121.02690246608108, 181.05977655481547, -62.727472006808966, -0.04800000227987766, -0.04800000227987766, 1.0400000493973494, 0.0, 0.0, 0.0, 0.0, 0.0, 1.7622068232922163E9, 0.0, 2025-11-03 16:53:43.292
71.0, 253.85318929236382, -82.67796832043678, 225.1120581328869, -27.026387029793113, -0.04800000227987766, -0.04800000227987766, 1.0400000493973494, 0.0, 0.0, 0.0, 0.0, 0.0, 1.7622068233078468E9, 0.0, 2025-11-03 16:53:43.307
71.0, 292.1460249386728, -37.81412845198065, 275.48851053602993, 28.604624811094254, -0.04800000227987766, -0.04800000227987766, 1.0400000493973494, 0.0, 0.0, 0.0, 0.0, 0.0, 1.7622068233078468E9, 0.0, 2025-11-03 16:53:43.307
72.0, 193.43884540814906, -123.91410523187369, 185.1250478066504, -50.03425155719742, -0.04800000227987766, -0.04800000227987766, 1.0400000493973494, 0.0, 0.0, 0.0, 0.0, 0.0, 1.762206823308534E9, 0.0, 2025-11-03 16:53:43.308
72.0, 234.62262372020632, -86.12989597953856, 219.28155410196632, -19.288534021470696, -0.04800000227987766, -0.04800000227987766, 1.0400000493973494, 0.0, 0.0, 0.0, 0.0, 0.0, 1.762206823308534E9, 0.0, 2025-11-03 16:53:43.308
73.0, 324.7542126523331, -3.7137206560000777, 319.4024158157408, 68.03812994388863, -0.04800000227987766, -0.04800000227987766, 1.0400000493973494, 0.0, 0.0, 0.0, 0.0, 0.0, 1.76220682332207E9, 0.0, 2025-11-03 16:53:43.322
73.0, 208.08429363463074, -101.76267779432237, 205.55612126458436, -32.194928768556565, -0.04800000227987766, -0.04800000227987766, 1.0400000493973494, 0.0, 0.0, 0.0, 0.0, 0.0, 1.76220682332207E9, 0.0, 2025-11-03 16:53:43.322
74.0, 216.42801043577492, -100.87258160486817, 200.40253912564367, -40.273112672846764, -0.04800000227987766, -0.04800000227987766, 1.0400000493973494, 0.0, 0.0, 0.0, 0.0, 0.0, 1.7622068233378053E9, 0.0, 2025-11-03 16:53:43.337
74.0, 337.18190020509064, 9.488126187585294, 318.42630192730576, 87.83342040935531, -0.04800000227987766, -0.04800000227987766, 1.0400000493973494, 0.0, 0.0, 0.0, 0.0, 0.0, 1.7622068233378053E9, 0.0, 2025-11-03 16:53:43.337
75.0, 264.3024697685614, -43.11730658914894, 264.5642627654597, 6.7411696701310575, -0.04800000227987766, -0.04800000227987766, 1.0400000493973494, 0.0, 0.0, 0.0, 0.0, 0.0, 1.7622068233385568E9, 0.0, 2025-11-03 16:53:43.338
75.0, 197.6537126582116, -119.64313948247582, 183.62908782437444, -70.63736041309312, -0.04800000227987766, -0.04800000227987766, 1.0400000493973494, 0.0, 0.0, 0.0, 0.0, 0.0, 1.7622068233385568E9, 0.0, 2025-11-03 16:53:43.338
76.0, 278.34205420222133, -45.260269263759255, 271.1764058871195, 57.106402373407036, -0.04800000227987766, -0.04800000227987766, 1.0400000493973494, 0.0, 0.0, 0.0, 0.0, 0.0, 1.7622068233521392E9, 0.0, 2025-11-03 16:53:43.352
76.0, 295.8148667952046, -20.277737559750676, 286.9101650007069, 37.26623310847208, -0.04800000227987766, -0.04800000227987766, 1.0400000493973494, 0.0, 0.0, 0.0, 0.0, 0.0, 1.7622068233521392E9, 0.0, 2025-11-03 16:53:43.352
77.0, 193.82031520362943, -105.47265855036676, 198.2446168512106, -43.36227003624663, -0.04800000227987766, -0.04800000227987766, 1.0400000493973494, 0.0, 0.0, 0.0, 0.0, 0.0, 1.7622068233678012E9, 0.0, 2025-11-03 16:53:43.367
77.0, 207.31013434380293, -114.12304714787751, 189.89342025015503, -67.40234695142135, -0.04800000227987766, -0.04800000227987766, 1.0400000493973494, 0.0, 0.0, 0.0, 0.0, 0.0, 1.7622068233678012E9, 0.0, 2025-11-03 16:53:43.367
78.0, 328.1537817120552, 2.8348441664129496, 318.0822311313823, 76.55014224303886, -0.04800000227987766, -0.04800000227987766, 1.0400000493973494, 0.0, 0.0, 0.0, 0.0, 0.0, 1.7622068233685157E9, 0.0, 2025-11-03 16:53:43.368
78.0, 191.59133483003825, -112.70188516471535, 200.85132712032646, -18.26754133356735, -0.04800000227987766, -0.04800000227987766, 1.0400000493973494, 0.0, 0.0, 0.0, 0.0, 0.0, 1.7622068233685157E9, 0.0, 2025-11-03 16:53:43.368
79.0, 182.92598663270473, -129.6211925642565, 177.4582528974861, -50.8196305478923, -0.04800000227987766, -0.04800000227987766, 1.0400000493973494, 0.0, 0.0, 0.0, 0.0, 0.0, 1.7622068233821442E9, 0.0, 2025-11-03 16:53:43.382
79.0, 311.8104189056903, -19.582116167992353, 294.5769599098712, 71.37038080440834, -0.04800000227987766, -0.04800000227987766, 1.0400000493973494, 0.0, 0.0, 0.0, 0.0, 0.0, 1.7622068233821442E9, 0.0, 2025-11-03 16:53:43.382
80.0, 229.58123857993633, -83.95327420532703, 221.68630977347493, -41.72045395569876, -0.04800000227987766, -0.04800000227987766, 1.0400000493973494, 0.0, 0.0, 0.0, 0.0, 0.0, 1.762206823397849E9, 0.0, 2025-11-03 16:53:43.397
80.0, 196.59532097075135, -110.14753349497914, 207.55322784092277, -10.989696019794792, -0.04800000227987766, -0.04800000227987766, 1.0400000493973494, 0.0, 0.0, 0.0, 0.0, 0.0, 1.762206823397849E9, 0.0, 2025-11-03 16:53:43.397
81.0, 278.2036779038608, -49.11236621811986, 272.25349707435817, 40.94629466487095, -0.04800000227987766, -0.04800000227987766, 1.0400000493973494, 0.0, 0.0, 0.0, 0.0, 0.0, 1.7622068233986073E9, 0.0, 2025-11-03 16:53:43.398
81.0, 321.5565981902182, 5.022685640491545, 325.64804874174297, 99.71882246853784, -0.04800000227987766, -0.04800000227987766, 1.0400000493973494, 0.0, 0.0, 0.0, 0.0, 0.0, 1.7622068233986073E9, 0.0, 2025-11-03 16:53:43.398
82.0, 187.89257377386093, -105.3455019518733, 205.4289646660909, -21.97004228970036, -0.04800000227987766, -0.04800000227987766, 1.0400000493973494, 0.0, 0.0, 0.0, 0.0, 0.0, 1.762206823412084E9, 0.0, 2025-11-03 16:53:43.412
82.0, 225.6580835264176, -80.95013454090804, 231.90745635237545, 25.747341244947165, -0.04800000227987766, -0.04800000227987766, 1.0400000493973494, 0.0, 0.0, 0.0, 0.0, 0.0, 1.762206823412084E9, 0.0, 2025-11-03 16:53:43.412
83.0, 329.91901449114084, 13.639415138401091, 334.73226573411375, 95.84802601439878, -0.04800000227987766, -0.04800000227987766, 1.0400000493973494, 0.0, 0.0, 0.0, 0.0, 0.0, 1.762206823427804E9, 0.0, 2025-11-03 16:53:43.427
83.0, 218.70934940874577, -79.12132346257567, 241.29460524115711, 30.35489799035713, -0.04800000227987766, -0.04800000227987766, 1.0400000493973494, 0.0, 0.0, 0.0, 0.0, 0.0, 1.762206823427804E9, 0.0, 2025-11-03 16:53:43.427
84.0, 181.53848374914378, -114.61671394202858, 197.29842216242105, -22.818999579641968, -0.04800000227987766, -0.04800000227987766, 1.0400000493973494, 0.0, 0.0, 0.0, 0.0, 0.0, 1.7622068234285152E9, 0.0, 2025-11-03 16:53:43.428
84.0, 295.0294878045097, -20.367495158687234, 302.2886336185038, 76.83811453962699, -0.04800000227987766, -0.04800000227987766, 1.0400000493973494, 0.0, 0.0, 0.0, 0.0, 0.0, 1.7622068234285152E9, 0.0, 2025-11-03 16:53:43.428
85.0, 250.93232742697, -44.15699877683073, 294.34134621266276, 106.23372819134966, -0.04800000227987766, -0.04800000227987766, 1.0400000493973494, 0.0, 0.0, 0.0, 0.0, 0.0, 1.7622068234422123E9, 0.0, 2025-11-03 16:53:43.442
85.0, 191.2023852346465, -105.34176205191761, 209.07536712288857, -18.110465535428375, -0.04800000227987766, -0.04800000227987766, 1.0400000493973494, 0.0, 0.0, 0.0, 0.0, 0.0, 1.7622068234422123E9, 0.0, 2025-11-03 16:53:43.442
86.0, 259.35832202713937, -48.487802925519645, 276.62544012255967, 67.04705645563081, -0.04800000227987766, -0.04800000227987766, 1.0400000493973494, 0.0, 0.0, 0.0, 0.0, 0.0, 1.762206823457808E9, 0.0, 2025-11-03 16:53:43.457
86.0, 292.7331892317161, -14.338776430115104, 317.77181943506, 107.89424377167597, -0.04800000227987766, -0.04800000227987766, 1.0400000493973494, 0.0, 0.0, 0.0, 0.0, 0.0, 1.762206823457808E9, 0.0, 2025-11-03 16:53:43.457
87.0, 189.10056145954877, -101.75893789436668, 216.7683413317427, 5.952050779480487, -0.04800000227987766, -0.04800000227987766, 1.0400000493973494, 0.0, 0.0, 0.0, 0.0, 0.0, 1.7622068234585276E9, 0.0, 2025-11-03 16:53:43.458
87.0, 210.9490570006892, -90.75615222472697, 232.43104234617203, 19.314713321160525, -0.04800000227987766, -0.04800000227987766, 1.0400000493973494, 0.0, 0.0, 0.0, 0.0, 0.0, 1.7622068234585276E9, 0.0, 2025-11-03 16:53:43.458
88.0, 310.4864943213761, 4.44300114735961, 354.6883718976751, 180.6988762090914, -0.04800000227987766, -0.04800000227987766, 1.0400000493973494, 0.0, 0.0, 0.0, 0.0, 0.0, 1.7622068234721034E9, 0.0, 2025-11-03 16:53:43.472
88.0, 195.50701008364558, -99.1559675252065, 218.79536710772663, -27.493874524254352, -0.04800000227987766, -0.04800000227987766, 1.0400000493973494, 0.0, 0.0, 0.0, 0.0, 0.0, 1.7622068234721034E9, 0.0, 2025-11-03 16:53:43.472
89.0, 197.612573758699, -101.67292019538581, 213.8437395663932, -21.47637549554929, -0.04800000227987766, -0.04800000227987766, 1.0400000493973494, 0.0, 0.0, 0.0, 0.0, 0.0, 1.7622068234878006E9, 0.0, 2025-11-03 16:53:43.487
89.0, 298.1410845676437, -9.476906487718225, 310.4004766223952, 82.82943426864222, -0.04800000227987766, -0.04800000227987766, 1.0400000493973494, 0.0, 0.0, 0.0, 0.0, 0.0, 1.7622068234878006E9, 0.0, 2025-11-03 16:53:43.487
90.0, 252.97805270273238, -37.57103495486081, 281.9211384598166, 59.29050394752994, -0.04800000227987766, -0.04800000227987766, 1.0400000493973494, 0.0, 0.0, 0.0, 0.0, 0.0, 1.7622068234885123E9, 0.0, 2025-11-03 16:53:43.488
90.0, 190.66383964102715, -90.43452082853764, 240.1165367551148, 39.51391298184171, -0.04800000227987766, -0.04800000227987766, 1.0400000493973494, 0.0, 0.0, 0.0, 0.0, 0.0, 1.7622068234885123E9, 0.0, 2025-11-03 16:53:43.488
91.0, 235.7819927064702, -66.93298950698227, 249.97865293826908, 10.144478629808873, -0.04800000227987766, -0.04800000227987766, 1.0400000493973494, 0.0, 0.0, 0.0, 0.0, 0.0, 1.7622068235021052E9, 0.0, 2025-11-03 16:53:43.502
91.0, 281.9809768591076, -21.27629084791988, 302.41953011695296, 91.65933806402609, -0.04800000227987766, -0.04800000227987766, 1.0400000493973494, 0.0, 0.0, 0.0, 0.0, 0.0, 1.7622068235021052E9, 0.0, 2025-11-03 16:53:43.502
92.0, 172.21117325965315, -110.75339728780091, 209.73732941504568, 27.1049249288626, -0.04800000227987766, -0.04800000227987766, 1.0400000493973494, 0.0, 0.0, 0.0, 0.0, 0.0, 1.7622068235342865E9, 0.0, 2025-11-03 16:53:43.534
92.0, 206.67809125129133, -94.28661778289825, 210.62742560449988, -23.18176987534389, -0.04800000227987766, -0.04800000227987766, 1.0400000493973494, 0.0, 0.0, 0.0, 0.0, 0.0, 1.7622068235342865E9, 0.0, 2025-11-03 16:53:43.534
93.0, 321.7099340884015, 8.227779902517796, 327.4619002202526, 92.04080785950646, -0.04800000227987766, -0.04800000227987766, 1.0400000493973494, 0.0, 0.0, 0.0, 0.0, 0.0, 1.7622068235349083E9, 0.0, 2025-11-03 16:53:43.534
93.0, 202.63525939919055, -94.18938038405031, 210.69848370365798, -26.098891840782017, -0.04800000227987766, -0.04800000227987766, 1.0400000493973494, 0.0, 0.0, 0.0, 0.0, 0.0, 1.7622068235349083E9, 0.0, 2025-11-03 16:53:43.534
94.0, 180.5661097606644, -120.4995765723288, 192.5375295188278, -22.35151208518073, -0.04800000227987766, -0.04800000227987766, 1.0400000493973494, 0.0, 0.0, 0.0, 0.0, 0.0, 1.7622068235356507E9, 0.0, 2025-11-03 16:53:43.535
94.0, 295.97194259334356, -20.94717965181917, 310.12372402567416, 98.94840307766572, -0.04800000227987766, -0.04800000227987766, 1.0400000493973494, 0.0, 0.0, 0.0, 0.0, 0.0, 1.7622068235356507E9, 0.0, 2025-11-03 16:53:43.535
95.0, 234.27855292428285, -57.42242391966283, 270.0544359004125, 52.87283562356606, -0.04800000227987766, -0.04800000227987766, 1.0400000493973494, 0.0, 0.0, 0.0, 0.0, 0.0, 1.7622068235363777E9, 0.0, 2025-11-03 16:53:43.536
95.0, 189.39227365609258, -111.3480413807556, 205.60847986396402, -10.443670626264066, -0.04800000227987766, -0.04800000227987766, 1.0400000493973494, 0.0, 0.0, 0.0, 0.0, 0.0, 1.7622068235363777E9, 0.0, 2025-11-03 16:53:43.536
96.0, 258.7075794348493, -51.84997298568487, 265.9816848486662, 50.284824854228646, -0.04800000227987766, -0.04800000227987766, 1.0400000493973494, 0.0, 0.0, 0.0, 0.0, 0.0, 1.762206823547271E9, 0.0, 2025-11-03 16:53:43.547
96.0, 292.1048860391602, -17.618668691255152, 297.49782177526504, 57.192420072387904, -0.04800000227987766, -0.04800000227987766, 1.0400000493973494, 0.0, 0.0, 0.0, 0.0, 0.0, 1.762206823547271E9, 0.0, 2025-11-03 16:53:43.547
97.0, 176.8262098049745, -124.07118103001267, 189.51569035463035, -31.013120382558554, -0.04800000227987766, -0.04800000227987766, 1.0400000493973494, 0.0, 0.0, 0.0, 0.0, 0.0, 1.7622068235621045E9, 0.0, 2025-11-03 16:53:43.562
97.0, 202.36224670242518, -100.96233920380473, 216.75712163187563, -1.8830396276898682, -0.04800000227987766, -0.04800000227987766, 1.0400000493973494, 0.0, 0.0, 0.0, 0.0, 0.0, 1.7622068235621045E9, 0.0, 2025-11-03 16:53:43.562
98.0, 313.5195531854406, 3.096637163311243, 329.6834007939324, 127.37164274090901, -0.04800000227987766, -0.04800000227987766, 1.0400000493973494, 0.0, 0.0, 0.0, 0.0, 0.0, 1.7622068235777633E9, 0.0, 2025-11-03 16:53:43.577
98.0, 201.45719091314822, -98.11253543756902, 198.8766599437222, -57.36071557039395, -0.04800000227987766, -0.04800000227987766, 1.0400000493973494, 0.0, 0.0, 0.0, 0.0, 0.0, 1.7622068235777633E9, 0.0, 2025-11-03 16:53:43.577
99.0, 206.07222745846957, -101.77015759423375, 208.21893003303558, -15.630911864805967, -0.04800000227987766, -0.04800000227987766, 1.0400000493973494, 0.0, 0.0, 0.0, 0.0, 0.0, 1.7622068235784976E9, 0.0, 2025-11-03 16:53:43.578
99.0, 304.4353361930698, -4.82447094283998, 318.1420695306733, 110.2915196432732, -0.04800000227987766, -0.04800000227987766, 1.0400000493973494, 0.0, 0.0, 0.0, 0.0, 0.0, 1.7622068235784976E9, 0.0, 2025-11-03 16:53:43.578
100.0, 238.17926857806742, -61.06882637646049, 262.21560559328645, 67.49210455035791, -0.04800000227987766, -0.04800000227987766, 1.0400000493973494, 0.0, 0.0, 0.0, 0.0, 0.0, 1.7622068235927665E9, 0.0, 2025-11-03 16:53:43.592
100.0, 176.03335101436824, -130.507548853755, 172.80955725256354, -65.98118496825919, -0.04800000227987766, -0.04800000227987766, 1.0400000493973494, 0.0, 0.0, 0.0, 0.0, 0.0, 1.7622068235927665E9, 0.0, 2025-11-03 16:53:43.592
0.0, 246.2443628325127, -63.58203914668411, 250.69671372976154, 4.525278946384788, -0.04800000227987766, -0.04800000227987766, 1.0400000493973494, 0.0, 0.0, 0.0, 0.0, 0.0, 1.762206823593498E9, 0.0, 2025-11-03 16:53:43.593
1.0, 311.55423575872555, 6.103516727685928, 328.61378940660506, 91.10770282056183, -0.04800000227987766, -0.04800000227987766, 1.0400000493973494, 0.0, 0.0, 0.0, 0.0, 0.0, 1.762206823607122E9, 0.0, 2025-11-03 16:53:43.607
1.0, 185.26529405498877, -111.3106423811987, 201.47589041292667, -10.378222377039492, -0.04800000227987766, -0.04800000227987766, 1.0400000493973494, 0.0, 0.0, 0.0, 0.0, 0.0, 1.762206823607122E9, 0.0, 2025-11-03 16:53:43.607
2.0, 201.5226391623728, -107.56700252555311, 211.45768339466304, -5.6135898334905505, -0.04800000227987766, -0.04800000227987766, 1.0400000493973494, 0.0, 0.0, 0.0, 0.0, 0.0, 1.7622068236227682E9, 0.0, 2025-11-03 16:53:43.622
2.0, 303.5433700536378, -15.206433219835162, 302.7262019133195, 53.92187756113708, -0.04800000227987766, -0.04800000227987766, 1.0400000493973494, 0.0, 0.0, 0.0, 0.0, 0.0, 1.7622068236227682E9, 0.0, 2025-11-03 16:53:43.622
3.0, 192.4795610695146, -102.10300869029015, 218.5485337106511, 0.2543131969869137, -0.04800000227987766, -0.04800000227987766, 1.0400000493973494, 0.0, 0.0, 0.0, 0.0, 0.0, 1.7622068236235056E9, 0.0, 2025-11-03 16:53:43.623
3.0, 194.17373574944213, -119.60574048291892, 186.69206588808447, -48.22974982857704, -0.04800000227987766, -0.04800000227987766, 1.0400000493973494, 0.0, 0.0, 0.0, 0.0, 0.0, 1.7622068236235056E9, 0.0, 2025-11-03 16:53:43.623
4.0, 302.1147282705642, -18.46014618128538, 305.3964904816821, 78.24618687294424, -0.04800000227987766, -0.04800000227987766, 1.0400000493973494, 0.0, 0.0, 0.0, 0.0, 0.0, 1.7622068236371257E9, 0.0, 2025-11-03 16:53:43.637
4.0, 236.16159255197272, -64.27392063848674, 257.24901845213026, 34.28740279376507, -0.04800000227987766, -0.04800000227987766, 1.0400000493973494, 0.0, 0.0, 0.0, 0.0, 0.0, 1.7622068236371257E9, 0.0, 2025-11-03 16:53:43.637
5.0, 165.6569985873066, -138.3613387607038, 175.65936101879925, -39.51952283177525, -0.04800000227987766, -0.04800000227987766, 1.0400000493973494, 0.0, 0.0, 0.0, 0.0, 0.0, 1.762206823652838E9, 0.0, 2025-11-03 16:53:43.652
5.0, 249.5766136930324, -67.69592909794301, 240.2212539538741, 2.576791069470346, -0.04800000227987766, -0.04800000227987766, 1.0400000493973494, 0.0, 0.0, 0.0, 0.0, 0.0, 1.762206823652838E9, 0.0, 2025-11-03 16:53:43.652
6.0, 303.36759475572035, -10.232366278767586, 313.68784868344665, 93.84156968817115, -0.04800000227987766, -0.04800000227987766, 1.0400000493973494, 0.0, 0.0, 0.0, 0.0, 0.0, 1.7622068236535223E9, 0.0, 2025-11-03 16:53:43.653
6.0, 176.09505936363712, -128.3234472796321, 177.39467459823936, -71.46200835332274, -0.04800000227987766, -0.04800000227987766, 1.0400000493973494, 0.0, 0.0, 0.0, 0.0, 0.0, 1.7622068236535223E9, 0.0, 2025-11-03 16:53:43.653
7.0, 208.4900727798231, -98.49400523304939, 214.5431008581072, 1.4810003824532032, -0.04800000227987766, -0.04800000227987766, 1.0400000493973494, 0.0, 0.0, 0.0, 0.0, 0.0, 1.7622068236671903E9, 0.0, 2025-11-03 16:53:43.667
7.0, 322.0521349343471, -2.902162365615368, 315.6325966604054, 83.54562511015683, -0.04800000227987766, -0.04800000227987766, 1.0400000493973494, 0.0, 0.0, 0.0, 0.0, 0.0, 1.7622068236671903E9, 0.0, 2025-11-03 16:53:43.667
8.0, 209.69806046551093, -97.18878014851362, 208.1403921339661, -40.076767925173044, -0.04800000227987766, -0.04800000227987766, 1.0400000493973494, 0.0, 0.0, 0.0, 0.0, 0.0, 1.762206823682756E9, 0.0, 2025-11-03 16:53:43.682
8.0, 202.2220004540868, -100.55095020867884, 223.82553254812956, 18.16469408478588, -0.04800000227987766, -0.04800000227987766, 1.0400000493973494, 0.0, 0.0, 0.0, 0.0, 0.0, 1.762206823682756E9, 0.0, 2025-11-03 16:53:43.682
9.0, 310.81373556749895, -8.654128497466445, 313.1792222894728, 80.04507875163108, -0.04800000227987766, -0.04800000227987766, 1.0400000493973494, 0.0, 0.0, 0.0, 0.0, 0.0, 1.7622068236834953E9, 0.0, 2025-11-03 16:53:43.683
9.0, 247.3177141197957, -51.45354359038174, 264.6128814648837, 35.43929198011756, -0.04800000227987766, -0.04800000227987766, 1.0400000493973494, 0.0, 0.0, 0.0, 0.0, 0.0, 1.7622068236834953E9, 0.0, 2025-11-03 16:53:43.683
10.0, 191.630603779573, -116.29218912217766, 184.900653809309, -61.09500567615032, -0.04800000227987766, -0.04800000227987766, 1.0400000493973494, 0.0, 0.0, 0.0, 0.0, 0.0, 1.7622068236972256E9, 0.0, 2025-11-03 16:53:43.697
10.0, 257.5388606986962, -52.74380907509476, 273.07253516465425, 58.978222301229835, -0.04800000227987766, -0.04800000227987766, 1.0400000493973494, 0.0, 0.0, 0.0, 0.0, 0.0, 1.7622068236972256E9, 0.0, 2025-11-03 16:53:43.697
11.0, 288.25465903477743, -22.12898803781718, 292.721969531849, 55.50385524239391, -0.04800000227987766, -0.04800000227987766, 1.0400000493973494, 0.0, 0.0, 0.0, 0.0, 0.0, 1.76220682371281E9, 0.0, 2025-11-03 16:53:43.712
11.0, 183.12233138037845, -115.89575972687453, 183.95445912051946, -62.03372056502849, -0.04800000227987766, -0.04800000227987766, 1.0400000493973494, 0.0, 0.0, 0.0, 0.0, 0.0, 1.76220682371281E9, 0.0, 2025-11-03 16:53:43.712
12.0, 215.80531709315255, -93.29180439468473, 219.2890339018777, -1.047171987593174, -0.04800000227987766, -0.04800000227987766, 1.0400000493973494, 0.0, 0.0, 0.0, 0.0, 0.0, 1.762206823713542E9, 0.0, 2025-11-03 16:53:43.713
12.0, 322.0596147342585, 3.7174605559557676, 324.79909145180136, 99.02507102675736, -0.04800000227987766, -0.04800000227987766, 1.0400000493973494, 0.0, 0.0, 0.0, 0.0, 0.0, 1.762206823713542E9, 0.0, 2025-11-03 16:53:43.713
13.0, 198.63917629653588, -105.74193134717643, 195.11432058829814, -53.99667556025088, -0.04800000227987766, -0.04800000227987766, 1.0400000493973494, 0.0, 0.0, 0.0, 0.0, 0.0, 1.7622068237271512E9, 0.0, 2025-11-03 16:53:43.727
13.0, 202.90266224602237, -108.74133111163974, 201.33751411456615, -26.15312039013952, -0.04800000227987766, -0.04800000227987766, 1.0400000493973494, 0.0, 0.0, 0.0, 0.0, 0.0, 1.7622068237271512E9, 0.0, 2025-11-03 16:53:43.727
14.0, 307.0476563121192, -6.9412543177604675, 316.65732924826443, 89.48084633983672, -0.04800000227987766, -0.04800000227987766, 1.0400000493973494, 0.0, 0.0, 0.0, 0.0, 0.0, 1.762206823742881E9, 0.0, 2025-11-03 16:53:43.742
14.0, 234.29912237403914, -73.43667552992702, 238.6280565727502, 2.131742974743247, -0.04800000227987766, -0.04800000227987766, 1.0400000493973494, 0.0, 0.0, 0.0, 0.0, 0.0, 1.762206823742881E9, 0.0, 2025-11-03 16:53:43.742
15.0, 184.24056146712974, -125.7990148095414, 173.44534024503082, -76.98584058787674, -0.04800000227987766, -0.04800000227987766, 1.0400000493973494, 0.0, 0.0, 0.0, 0.0, 0.0, 1.7622068237435749E9, 0.0, 2025-11-03 16:53:43.743
15.0, 251.48396267043427, -64.35245853755623, 249.76547864079475, 30.708318536169827, -0.04800000227987766, -0.04800000227987766, 1.0400000493973494, 0.0, 0.0, 0.0, 0.0, 0.0, 1.7622068237435749E9, 0.0, 2025-11-03 16:53:43.743
16.0, 292.28253128705546, -24.470165410079062, 283.82474753726274, 38.25543664675206, -0.04800000227987766, -0.04800000227987766, 1.0400000493973494, 0.0, 0.0, 0.0, 0.0, 0.0, 1.7622068237571356E9, 0.0, 2025-11-03 16:53:43.757
16.0, 192.4047630704008, -109.36215450428426, 192.2009385228157, -33.44218540377915, -0.04800000227987766, -0.04800000227987766, 1.0400000493973494, 0.0, 0.0, 0.0, 0.0, 0.0, 1.7622068237571356E9, 0.0, 2025-11-03 16:53:43.757
17.0, 214.159761112649, -99.80297021754086, 221.52175417542458, 10.262285478413105, -0.04800000227987766, -0.04800000227987766, 1.0400000493973494, 0.0, 0.0, 0.0, 0.0, 0.0, 1.762206823772849E9, 0.0, 2025-11-03 16:53:43.772
17.0, 305.06924923555925, -19.021131174638867, 300.97966863401234, 66.26354741491377, -0.04800000227987766, -0.04800000227987766, 1.0400000493973494, 0.0, 0.0, 0.0, 0.0, 0.0, 1.762206823772849E9, 0.0, 2025-11-03 16:53:43.772
18.0, 210.31888385815546, -92.745779001154, 203.74600968603045, -44.14577907696366, -0.04800000227987766, -0.04800000227987766, 1.0400000493973494, 0.0, 0.0, 0.0, 0.0, 0.0, 1.7622068237735631E9, 0.0, 2025-11-03 16:53:43.773
18.0, 203.8899958343245, -103.83458236977458, 207.53078844118863, -15.528064616024494, -0.04800000227987766, -0.04800000227987766, 1.0400000493973494, 0.0, 0.0, 0.0, 0.0, 0.0, 1.7622068237735631E9, 0.0, 2025-11-03 16:53:43.773
19.0, 295.31933005107567, -27.099315078929067, 298.8890645587817, 81.10347043909132, -0.04800000227987766, -0.04800000227987766, 1.0400000493973494, 0.0, 0.0, 0.0, 0.0, 0.0, 1.7622068237871552E9, 0.0, 2025-11-03 16:53:43.787
19.0, 239.93515160726383, -70.1792226685211, 244.29026510566473, 5.0526048401370645, -0.04800000227987766, -0.04800000227987766, 1.0400000493973494, 0.0, 0.0, 0.0, 0.0, 0.0, 1.7622068237871552E9, 0.0, 2025-11-03 16:53:43.787
20.0, 182.41549028875306, -121.61032685916871, 199.55358183570206, -1.3762831836938858, -0.04800000227987766, -0.04800000227987766, 1.0400000493973494, 0.0, 0.0, 0.0, 0.0, 0.0, 1.7622068238029227E9, 0.0, 2025-11-03 16:53:43.802
20.0, 234.08594807656482, -89.25271244253963, 218.5447938106954, -28.498037662357092, -0.04800000227987766, -0.04800000227987766, 1.0400000493973494, 0.0, 0.0, 0.0, 0.0, 0.0, 1.7622068238029227E9, 0.0, 2025-11-03 16:53:43.802
21.0, 287.72359324106947, -33.71145820058882, 279.3892261898145, 27.637860672548413, -0.04800000227987766, -0.04800000227987766, 1.0400000493973494, 0.0, 0.0, 0.0, 0.0, 0.0, 1.7622068238035667E9, 0.0, 2025-11-03 16:53:43.803
21.0, 215.35652909846976, -87.83155045937747, 224.1022851448506, 21.152874149382114, -0.04800000227987766, -0.04800000227987766, 1.0400000493973494, 0.0, 0.0, 0.0, 0.0, 0.0, 1.7622068238035667E9, 0.0, 2025-11-03 16:53:43.803
22.0, 239.1722120163031, -72.05665244627744, 234.97791421599686, -17.573789891786873, -0.04800000227987766, -0.04800000227987766, 1.0400000493973494, 0.0, 0.0, 0.0, 0.0, 0.0, 1.7622068238171113E9, 0.0, 2025-11-03 16:53:43.817
22.0, 321.19569784449413, -3.2350134616717696, 313.0782449906692, 77.64406298007816, -0.04800000227987766, -0.04800000227987766, 1.0400000493973494, 0.0, 0.0, 0.0, 0.0, 0.0, 1.7622068238171113E9, 0.0, 2025-11-03 16:53:43.817
23.0, 206.6762213013135, -103.21375897713006, 210.16741790995002, -14.679107326082885, -0.04800000227987766, -0.04800000227987766, 1.0400000493973494, 0.0, 0.0, 0.0, 0.0, 0.0, 1.7622068238328626E9, 0.0, 2025-11-03 16:53:43.832
23.0, 197.50224671000615, -115.92941882647574, 197.45175806060433, -36.25085027050227, -0.04800000227987766, -0.04800000227987766, 1.0400000493973494, 0.0, 0.0, 0.0, 0.0, 0.0, 1.7622068238328626E9, 0.0, 2025-11-03 16:53:43.832
24.0, 285.39363556867465, -29.541469749994576, 287.26171559654176, 54.64741815254092, -0.04800000227987766, -0.04800000227987766, 1.0400000493973494, 0.0, 0.0, 0.0, 0.0, 0.0, 1.7622068238335352E9, 0.0, 2025-11-03 16:53:43.833
24.0, 257.63609809754416, -44.99473636690527, 267.91895302571356, 34.2013850947842, -0.04800000227987766, -0.04800000227987766, 1.0400000493973494, 0.0, 0.0, 0.0, 0.0, 0.0, 1.7622068238335352E9, 0.0, 2025-11-03 16:53:43.833
25.0, 196.73556721908972, -107.97465162072331, 209.0641474230215, -18.366648682393134, -0.04800000227987766, -0.04800000227987766, 1.0400000493973494, 0.0, 0.0, 0.0, 0.0, 0.0, 1.7622068238473036E9, 0.0, 2025-11-03 16:53:43.847
25.0, 256.7385221081786, -63.92237004265189, 255.09483607765287, 36.037675973027945, -0.04800000227987766, -0.04800000227987766, 1.0400000493973494, 0.0, 0.0, 0.0, 0.0, 0.0, 1.7622068238473036E9, 0.0, 2025-11-03 16:53:43.847
26.0, 284.1968675828539, -31.216944930143654, 288.0283950874582, 64.61799143441021, -0.04800000227987766, -0.04800000227987766, 1.0400000493973494, 0.0, 0.0, 0.0, 0.0, 0.0, 1.7622068238628433E9, 0.0, 2025-11-03 16:53:43.862
26.0, 185.57196585135534, -126.15804520528764, 181.17945335339755, -72.74853393808007, -0.04800000227987766, -0.04800000227987766, 1.0400000493973494, 0.0, 0.0, 0.0, 0.0, 0.0, 1.7622068238628433E9, 0.0, 2025-11-03 16:53:43.862
27.0, 214.73944560578093, -102.40220068674535, 205.3541666669771, -44.3926124740392, -0.04800000227987766, -0.04800000227987766, 1.0400000493973494, 0.0, 0.0, 0.0, 0.0, 0.0, 1.762206823863547E9, 0.0, 2025-11-03 16:53:43.863
27.0, 311.8721272549592, -12.023778357543051, 303.60881830286235, 74.50628691725433, -0.04800000227987766, -0.04800000227987766, 1.0400000493973494, 0.0, 0.0, 0.0, 0.0, 0.0, 1.762206823863547E9, 0.0, 2025-11-03 16:53:43.863
28.0, 199.71626748377457, -110.69729878846556, 192.91899931430817, -55.51507494226098, -0.04800000227987766, -0.04800000227987766, 1.0400000493973494, 0.0, 0.0, 0.0, 0.0, 0.0, 1.7622068238771565E9, 0.0, 2025-11-03 16:53:43.877
28.0, 202.03500545630231, -108.25140421744436, 197.99404355417937, -38.812681740149856, -0.04800000227987766, -0.04800000227987766, 1.0400000493973494, 0.0, 0.0, 0.0, 0.0, 0.0, 1.7622068238771565E9, 0.0, 2025-11-03 16:53:43.877
29.0, 312.26481675030664, -12.154674855992198, 302.7673408128321, 78.8146516662091, -0.04800000227987766, -0.04800000227987766, 1.0400000493973494, 0.0, 0.0, 0.0, 0.0, 0.0, 1.7622068238928435E9, 0.0, 2025-11-03 16:53:43.892
29.0, 229.29887613328174, -72.38950354233384, 244.88490919861943, 24.006417815573514, -0.04800000227987766, -0.04800000227987766, 1.0400000493973494, 0.0, 0.0, 0.0, 0.0, 0.0, 1.7622068238928435E9, 0.0, 2025-11-03 16:53:43.892
30.0, 185.1792763560079, -124.66956502292305, 182.645494136028, -59.26245469786227, -0.04800000227987766, -0.04800000227987766, 1.0400000493973494, 0.0, 0.0, 0.0, 0.0, 0.0, 1.7622068238935611E9, 0.0, 2025-11-03 16:53:43.893
30.0, 258.48879528744146, -61.18102337513119, 238.9272485692054, -8.407295100390911, -0.04800000227987766, -0.04800000227987766, 1.0400000493973494, 0.0, 0.0, 0.0, 0.0, 0.0, 1.7622068238935611E9, 0.0, 2025-11-03 16:53:43.893
31.0, 312.5714885466732, 3.982993452809751, 315.0491722673178, 70.08198526967317, -0.04800000227987766, -0.04800000227987766, 1.0400000493973494, 0.0, 0.0, 0.0, 0.0, 0.0, 1.7622068239070811E9, 0.0, 2025-11-03 16:53:43.907
31.0, 199.56667148554698, -101.50462469737977, 204.84928017295897, -34.29114269372076, -0.04800000227987766, -0.04800000227987766, 1.0400000493973494, 0.0, 0.0, 0.0, 0.0, 0.0, 1.7622068239070811E9, 0.0, 2025-11-03 16:53:43.907
32.0, 210.2627853588201, -103.93555966857821, 205.63839906360954, -30.60360133741051, -0.04800000227987766, -0.04800000227987766, 1.0400000493973494, 0.0, 0.0, 0.0, 0.0, 0.0, 1.7622068239229147E9, 0.0, 2025-11-03 16:53:43.922
32.0, 304.88599413773045, -24.320569411851466, 289.03816807549447, 53.379592067562044, -0.04800000227987766, -0.04800000227987766, 1.0400000493973494, 0.0, 0.0, 0.0, 0.0, 0.0, 1.7622068239229147E9, 0.0, 2025-11-03 16:53:43.922
33.0, 217.3050169753842, -94.24547888338566, 212.7629084791988, -18.359168882481754, -0.04800000227987766, -0.04800000227987766, 1.0400000493973494, 0.0, 0.0, 0.0, 0.0, 0.0, 1.7622068239235241E9, 0.0, 2025-11-03 16:53:43.923
33.0, 198.26892620092258, -112.78790286369622, 199.7256172336638, -22.349642135202885, -0.04800000227987766, -0.04800000227987766, 1.0400000493973494, 0.0, 0.0, 0.0, 0.0, 0.0, 1.7622068239235241E9, 0.0, 2025-11-03 16:53:43.923
34.0, 293.3820618740283, -31.564755626022816, 281.1282796692103, 18.90519427601248, -0.04800000227987766, -0.04800000227987766, 1.0400000493973494, 0.0, 0.0, 0.0, 0.0, 0.0, 1.7622068239371316E9, 0.0, 2025-11-03 16:53:43.937
34.0, 239.45270451297984, -69.31530577875674, 247.8244705637917, 2.6328895688056946, -0.04800000227987766, -0.04800000227987766, 1.0400000493973494, 0.0, 0.0, 0.0, 0.0, 0.0, 1.7622068239371316E9, 0.0, 2025-11-03 16:53:43.937
35.0, 195.2957057361491, -106.86016143392771, 206.0572678586468, -22.87322812899947, -0.04800000227987766, -0.04800000227987766, 1.0400000493973494, 0.0, 0.0, 0.0, 0.0, 0.0, 1.7622068239528456E9, 0.0, 2025-11-03 16:53:43.952
35.0, 259.0273408810608, -53.0990995708853, 257.7987837456167, 19.855128864757717, -0.04800000227987766, -0.04800000227987766, 1.0400000493973494, 0.0, 0.0, 0.0, 0.0, 0.0, 1.7622068239528456E9, 0.0, 2025-11-03 16:53:43.952
36.0, 279.7389068356715, -34.92318578623235, 278.659945698455, 45.14807226508856, -0.04800000227987766, -0.04800000227987766, 1.0400000493973494, 0.0, 0.0, 0.0, 0.0, 0.0, 1.7622068239535527E9, 0.0, 2025-11-03 16:53:43.953
36.0, 197.0422390154563, -109.26491710543633, 188.57697546575218, -58.77626770362258, -0.04800000227987766, -0.04800000227987766, 1.0400000493973494, 0.0, 0.0, 0.0, 0.0, 0.0, 1.7622068239535527E9, 0.0, 2025-11-03 16:53:43.953
37.0, 230.67515931697562, -81.02119264006615, 226.2602074192837, -3.414528659544885, -0.04800000227987766, -0.04800000227987766, 1.0400000493973494, 0.0, 0.0, 0.0, 0.0, 0.0, 1.7622068239670858E9, 0.0, 2025-11-03 16:53:43.967
37.0, 324.93933770013973, 1.3800230836495757, 318.4898802265525, 75.65069630369544, -0.04800000227987766, -0.04800000227987766, 1.0400000493973494, 0.0, 0.0, 0.0, 0.0, 0.0, 1.7622068239670858E9, 0.0, 2025-11-03 16:53:43.967
38.0, 209.39138866914436, -95.25525187142193, 215.07790655177087, -30.106194643303752, -0.04800000227987766, -0.04800000227987766, 1.0400000493973494, 0.0, 0.0, 0.0, 0.0, 0.0, 1.762206823982926E9, 0.0, 2025-11-03 16:53:43.982
38.0, 203.01859914464876, -105.41656005103141, 203.48421668913215, -32.50721041485667, -0.04800000227987766, -0.04800000227987766, 1.0400000493973494, 0.0, 0.0, 0.0, 0.0, 0.0, 1.762206823982926E9, 0.0, 2025-11-03 16:53:43.982
39.0, 290.8613693038933, -26.08954209089279, 292.5087952343747, 51.16931119374931, -0.04800000227987766, -0.04800000227987766, 1.0400000493973494, 0.0, 0.0, 0.0, 0.0, 0.0, 1.7622068239835415E9, 0.0, 2025-11-03 16:53:43.983
39.0, 257.71837589656934, -53.45439006667584, 255.28931087534875, 12.405248153023422, -0.04800000227987766, -0.04800000227987766, 1.0400000493973494, 0.0, 0.0, 0.0, 0.0, 0.0, 1.7622068239835415E9, 0.0, 2025-11-03 16:53:43.983
40.0, 197.80143870646134, -108.06440921965986, 197.73599045723677, -42.38802609778941, -0.04800000227987766, -0.04800000227987766, 1.0560000501573086, 0.0, 0.0, 0.0, 0.0, 0.0, 1.7622068239971795E9, 0.0, 2025-11-03 16:53:43.997
40.0, 266.57819889159873, -53.64512496441603, 252.4170677093789, 14.49959212820977, -0.04800000227987766, -0.04800000227987766, 1.0560000501573086, 0.0, 0.0, 0.0, 0.0, 0.0, 1.7622068239971795E9, 0.0, 2025-11-03 16:53:43.997
41.0, 295.9027544441633, -25.868887993507087, 285.7620157143101, 50.26425540447235, -0.04800000227987766, -0.04800000227987766, 1.0560000501573086, 0.0, 0.0, 0.0, 0.0, 0.0, 1.7622068240128043E9, 0.0, 2025-11-03 16:53:44.012
41.0, 175.01422827644274, -134.89445150177926, 167.2632856182754, -74.13603682164103, -0.04800000227987766, -0.04800000227987766, 1.0560000501573086, 0.0, 0.0, 0.0, 0.0, 0.0, 1.7622068240128043E9, 0.0, 2025-11-03 16:53:44.012
42.0, 208.24697928270325, -111.680892476812, 190.07293544802815, -44.21309727616608, -0.04800000227987766, -0.04800000227987766, 1.0560000501573086, 0.0, 0.0, 0.0, 0.0, 0.0, 1.762206824013518E9, 0.0, 2025-11-03 16:53:44.013
42.0, 307.9751515011303, -17.498991892673075, 297.97652896959335, 54.105132658965886, -0.04800000227987766, -0.04800000227987766, 1.0560000501573086, 0.0, 0.0, 0.0, 0.0, 0.0, 1.762206824013518E9, 0.0, 2025-11-03 16:53:44.013
43.0, 227.99365104874596, -78.88196986541152, 233.30617893580347, -2.0831242753192782, -0.04800000227987766, -0.04800000227987766, 1.0560000501573086, 0.0, 0.0, 0.0, 0.0, 0.0, 1.7622068240275671E9, 0.0, 2025-11-03 16:53:44.027
43.0, 220.65970723563805, -92.24463240709156, 212.72550947964191, -24.264470912516117, -0.04800000227987766, -0.04800000227987766, 1.0560000501573086, 0.0, 0.0, 0.0, 0.0, 0.0, 1.7622068240275671E9, 0.0, 2025-11-03 16:53:44.027
44.0, 301.912773672957, -19.185686772689223, 287.4973292937502, 42.5750210955739, -0.04800000227987766, -0.04800000227987766, 1.0560000501573086, 0.0, 0.0, 0.0, 0.0, 0.0, 1.7622068240428267E9, 0.0, 2025-11-03 16:53:44.042
44.0, 255.86712541850284, -58.23772211000323, 252.20763331186026, 11.358076165430248, -0.04800000227987766, -0.04800000227987766, 1.0560000501573086, 0.0, 0.0, 0.0, 0.0, 0.0, 1.7622068240428267E9, 0.0, 2025-11-03 16:53:44.042
45.0, 191.06213898630813, -124.22825682815164, 178.47550568543375, -52.69519037567079, -0.04800000227987766, -0.04800000227987766, 1.0560000501573086, 0.0, 0.0, 0.0, 0.0, 0.0, 1.7622068240435495E9, 0.0, 2025-11-03 16:53:44.043
45.0, 262.1838164436631, -58.66407070495188, 245.16166179534048, 7.898668706417084, -0.04800000227987766, -0.04800000227987766, 1.0560000501573086, 0.0, 0.0, 0.0, 0.0, 0.0, 1.7622068240435495E9, 0.0, 2025-11-03 16:53:44.043
46.0, 299.9717655959539, -20.423593658022583, 288.8362134778872, 49.617252712138, -0.04800000227987766, -0.04800000227987766, 1.0560000501573086, 0.0, 0.0, 0.0, 0.0, 0.0, 1.7622068240572846E9, 0.0, 2025-11-03 16:53:44.057
46.0, 188.34697161847726, -106.70308563578874, 197.25354336295277, -32.57452861405909, -0.04800000227987766, -0.04800000227987766, 1.0560000501573086, 0.0, 0.0, 0.0, 0.0, 0.0, 1.7622068240572846E9, 0.0, 2025-11-03 16:53:44.057
47.0, 219.20488615287468, -92.92529419902712, 210.79198120255023, -23.31453632377088, -0.04800000227987766, -0.04800000227987766, 1.0560000501573086, 0.0, 0.0, 0.0, 0.0, 0.0, 1.762206824073063E9, 0.0, 2025-11-03 16:53:44.073
47.0, 310.0246166768484, -18.617221979424357, 290.9903958523646, 49.92018460854888, -0.04800000227987766, -0.04800000227987766, 1.0560000501573086, 0.0, 0.0, 0.0, 0.0, 0.0, 1.762206824073063E9, 0.0, 2025-11-03 16:53:44.073
48.0, 201.47776036290452, -110.58136188983917, 193.15087311156094, -49.06748741865158, -0.04800000227987766, -0.04800000227987766, 1.0560000501573086, 0.0, 0.0, 0.0, 0.0, 0.0, 1.7622068240735445E9, 0.0, 2025-11-03 16:53:44.073
48.0, 217.32745637511835, -98.0078182388097, 207.19793734513223, -34.17146589513868, -0.04800000227987766, -0.04800000227987766, 1.0560000501573086, 0.0, 0.0, 0.0, 0.0, 0.0, 1.7622068240735445E9, 0.0, 2025-11-03 16:53:44.073
49.0, 297.88490142067894, -22.51419773325324, 284.1276794336736, 39.194151535630226, -0.04800000227987766, -0.04800000227987766, 1.0560000501573086, 0.0, 0.0, 0.0, 0.0, 0.0, 1.7622068240872104E9, 0.0, 2025-11-03 16:53:44.087
49.0, 236.54680224740878, -71.1104577574879, 233.7437472306192, 3.4781069587916136, -0.04800000227987766, -0.04800000227987766, 1.0560000501573086, 0.0, 0.0, 0.0, 0.0, 0.0, 1.7622068240872104E9, 0.0, 2025-11-03 16:53:44.087
50.0, 202.94754104549065, -114.5344361430034, 186.25075769331306, -47.54534813668579, -0.04800000227987766, -0.04800000227987766, 1.0560000501573086, 0.0, 0.0, 0.0, 0.0, 0.0, 1.7622068241028452E9, 0.0, 2025-11-03 16:53:44.102
50.0, 262.7298418371938, -54.74091565143317, 248.31813735794276, 5.456514035351574, -0.04800000227987766, -0.04800000227987766, 1.0560000501573086, 0.0, 0.0, 0.0, 0.0, 0.0, 1.7622068241028452E9, 0.0, 2025-11-03 16:53:44.102
51.0, 286.739999552723, -28.894467057660222, 279.5350822880864, 40.60035391896963, -0.04800000227987766, -0.04800000227987766, 1.0560000501573086, 0.0, 0.0, 0.0, 0.0, 0.0, 1.762206824103549E9, 0.0, 2025-11-03 16:53:44.103
51.0, 198.27266610087827, -103.95425916835666, 195.84734097961336, -32.798922611400485, -0.04800000227987766, -0.04800000227987766, 1.0560000501573086, 0.0, 0.0, 0.0, 0.0, 0.0, 1.762206824103549E9, 0.0, 2025-11-03 16:53:44.103
52.0, 212.6338819307275, -96.01819146238267, 211.6932970918715, -28.389580563642085, -0.04800000227987766, -0.04800000227987766, 1.0560000501573086, 0.0, 0.0, 0.0, 0.0, 0.0, 1.7622068241171405E9, 0.0, 2025-11-03 16:53:44.117
52.0, 307.5301034064032, -9.65642168559134, 308.6315039433539, 76.69786829128861, -0.04800000227987766, -0.04800000227987766, 1.0560000501573086, 0.0, 0.0, 0.0, 0.0, 0.0, 1.7622068241171405E9, 0.0, 2025-11-03 16:53:44.117
53.0, 200.86815667012706, -97.40195444598794, 206.04978805873543, -34.455698291771114, -0.04800000227987766, -0.04800000227987766, 1.0560000501573086, 0.0, 0.0, 0.0, 0.0, 0.0, 1.762206824132986E9, 0.0, 2025-11-03 16:53:44.132
53.0, 206.95297389803454, -98.74083863012493, 211.4315040949732, -20.427333557978272, -0.04800000227987766, -0.04800000227987766, 1.0560000501573086, 0.0, 0.0, 0.0, 0.0, 0.0, 1.762206824132986E9, 0.0, 2025-11-03 16:53:44.132
54.0, 294.1973600643687, -28.445679062977433, 282.470903753303, 36.12369367200881, -0.04800000227987766, -0.04800000227987766, 1.0560000501573086, 0.0, 0.0, 0.0, 0.0, 0.0, 1.762206824133552E9, 0.0, 2025-11-03 16:53:44.133
54.0, 239.1273332168348, -68.81415918469429, 236.67956869583577, -10.157568279653788, -0.04800000227987766, -0.04800000227987766, 1.0560000501573086, 0.0, 0.0, 0.0, 0.0, 0.0, 1.762206824133552E9, 0.0, 2025-11-03 16:53:44.133
55.0, 192.56183886853978, -113.59946115408093, 191.51653683092445, -49.01138891931623, -0.04800000227987766, -0.04800000227987766, 1.0560000501573086, 0.0, 0.0, 0.0, 0.0, 0.0, 1.7622068241473236E9, 0.0, 2025-11-03 16:53:44.147
55.0, 242.48576337704435, -71.76494024973363, 240.99167334474623, 0.9312350889667869, -0.04800000227987766, -0.04800000227987766, 1.0560000501573086, 0.0, 0.0, 0.0, 0.0, 0.0, 1.7622068241473236E9, 0.0, 2025-11-03 16:53:44.147
56.0, 292.7874177810736, -32.15191991906613, 276.2103112274781, 33.44966520369053, -0.04800000227987766, -0.04800000227987766, 1.0560000501573086, 0.0, 0.0, 0.0, 0.0, 0.0, 1.762206824162866E9, 0.0, 2025-11-03 16:53:44.162
56.0, 187.67378962645307, -112.47749116737396, 185.98896469641477, -58.33121960889548, -0.04800000227987766, -0.04800000227987766, 1.0560000501573086, 0.0, 0.0, 0.0, 0.0, 0.0, 1.762206824162866E9, 0.0, 2025-11-03 16:53:44.162
57.0, 224.51180418999866, -86.12989597953856, 224.15464374423027, -16.16010770853609, -0.04800000227987766, -0.04800000227987766, 1.0560000501573086, 0.0, 0.0, 0.0, 0.0, 0.0, 1.7622068241635273E9, 0.0, 2025-11-03 16:53:44.163
57.0, 300.79080368625, -18.52372448053211, 295.52689449861646, 51.662977987900376, -0.04800000227987766, -0.04800000227987766, 1.0560000501573086, 0.0, 0.0, 0.0, 0.0, 0.0, 1.7622068241635273E9, 0.0, 2025-11-03 16:53:44.163
58.0, 210.21042675944045, -94.88500177580863, 205.0624544704333, -41.299715210683644, -0.04800000227987766, -0.04800000227987766, 1.0560000501573086, 0.0, 0.0, 0.0, 0.0, 0.0, 1.7622068241935909E9, 0.0, 2025-11-03 16:53:44.193
58.0, 207.94404738629237, -98.60620223172009, 202.84469379670918, -40.835967616178095, -0.04800000227987766, -0.04800000227987766, 1.0560000501573086, 0.0, 0.0, 0.0, 0.0, 0.0, 1.7622068241935909E9, 0.0, 2025-11-03 16:53:44.193
59.0, 301.2283719810657, -19.503578268922865, 287.5010691937059, 39.00341663789004, -0.04800000227987766, -0.04800000227987766, 1.0560000501573086, 0.0, 0.0, 0.0, 0.0, 0.0, 1.762206824194242E9, 0.0, 2025-11-03 16:53:44.194
59.0, 247.95723701221868, -64.64043083414435, 241.01411274448037, 0.2094343975186348, -0.04800000227987766, -0.04800000227987766, 1.0560000501573086, 0.0, 0.0, 0.0, 0.0, 0.0, 1.762206824194242E9, 0.0, 2025-11-03 16:53:44.194
60.0, 193.64266995573416, -110.46542499121279, 193.71185810491443, -37.627133454196155, -0.04800000227987766, -0.04800000227987766, 1.0400000493973494, 0.0, 0.0, 0.0, 0.0, 0.0, 1.7622068241949823E9, 0.0, 2025-11-03 16:53:44.194
60.0, 272.09829122619703, -43.95130427926779, 259.3919811267406, 19.7130126664415, -0.04800000227987766, -0.04800000227987766, 1.0400000493973494, 0.0, 0.0, 0.0, 0.0, 0.0, 1.7622068241949823E9, 0.0, 2025-11-03 16:53:44.194
61.0, 286.7026005531661, -33.199091906659305, 283.97060363553464, 47.82584063336253, -0.04800000227987766, -0.04800000227987766, 1.0400000493973494, 0.0, 0.0, 0.0, 0.0, 0.0, 1.762206824207202E9, 0.0, 2025-11-03 16:53:44.207
61.0, 194.31585194775835, -114.1267870478332, 184.90813360922039, -53.05796067137271, -0.04800000227987766, -0.04800000227987766, 1.0400000493973494, 0.0, 0.0, 0.0, 0.0, 0.0, 1.762206824207202E9, 0.0, 2025-11-03 16:53:44.207
62.0, 210.6367753543891, -99.37288172263652, 217.18721012677997, -8.253959202207625, -0.04800000227987766, -0.04800000227987766, 1.0400000493973494, 0.0, 0.0, 0.0, 0.0, 0.0, 1.7622068242226508E9, 0.0, 2025-11-03 16:53:44.222
62.0, 306.4941511186771, -14.49959212820977, 300.97218883410096, 52.69519037567079, -0.04800000227987766, -0.04800000227987766, 1.0400000493973494, 0.0, 0.0, 0.0, 0.0, 0.0, 1.7622068242226508E9, 0.0, 2025-11-03 16:53:44.222
63.0, 221.4525660262443, -87.77919185999781, 216.0315810404718, -35.86564057506621, -0.04800000227987766, -0.04800000227987766, 1.0400000493973494, 0.0, 0.0, 0.0, 0.0, 0.0, 1.762206824237794E9, 0.0, 2025-11-03 16:53:44.237
63.0, 206.79963799985126, -107.56326262559742, 202.96811049524695, -40.095467424951494, -0.04800000227987766, -0.04800000227987766, 1.0400000493973494, 0.0, 0.0, 0.0, 0.0, 0.0, 1.762206824237794E9, 0.0, 2025-11-03 16:53:44.237
64.0, 290.47615960845724, -36.18727197125554, 281.879999560304, 38.446171544492245, -0.04800000227987766, -0.04800000227987766, 1.0400000493973494, 0.0, 0.0, 0.0, 0.0, 0.0, 1.7622068242385187E9, 0.0, 2025-11-03 16:53:44.238
64.0, 240.18198500433937, -68.89269708376378, 246.54916467890143, 4.753412843681872, -0.04800000227987766, -0.04800000227987766, 1.0400000493973494, 0.0, 0.0, 0.0, 0.0, 0.0, 1.7622068242385187E9, 0.0, 2025-11-03 16:53:44.238
